#   1 NUMBER                 Running object number                                     
#   2 MAG_AUTO               Kron-like elliptical aperture magnitude                    [mag]
#   3 X_IMAGE                Object position along x                                    [pixel]
#   4 Y_IMAGE                Object position along y                                    [pixel]
#   5 X_WORLD                Barycenter position along world x axis                     [deg]
#   6 Y_WORLD                Barycenter position along world y axis                     [deg]
#   7 A_WORLD                Profile RMS along major axis (world units)                 [deg]
#   8 B_WORLD                Profile RMS along minor axis (world units)                 [deg]
#   9 THETA_WORLD            Position angle (CCW/world-x)                               [deg]
#  10 FWHM_WORLD             FWHM assuming a gaussian core                              [deg]
#  11 ELONGATION             A_IMAGE/B_IMAGE                                           
#  12 ELLIPTICITY            1 - B_IMAGE/A_IMAGE                                       
         1 -12.5164     51.3852    107.8454   5.9775698979e+01   4.9266843756e+01     1.860831    0.9181987  60.43  0.006457594    2.929    0.659
         2 -10.0745     97.6089     12.7495   8.0583758005e+00   5.9082878650e+01    0.3582627    0.1824792 -16.45  0.001493021    2.442    0.590
         3 -10.1591     41.0546     13.8127   3.0274401557e+01   7.2248530264e+01    0.2210296    0.1850977  15.41  0.000258409    1.113    0.101
         4  -9.2737     67.5307      1.3146   1.0207660018e+01   6.7887452988e+01    0.2198246    0.1120893  62.12 0.0001084534    1.726    0.421
         5  -9.0311    247.5558    248.0152   3.6635994246e+01  -6.0546792878e+00    0.1342345    0.0771345 -22.73 0.0005526979    1.525    0.344
         6 -10.8191     53.4356    249.5227   7.4441980026e+01   1.6226551150e+01    0.3211609    0.2262019  27.36  0.001560245    1.271    0.213
         7  -9.9125     56.6697    246.6794   7.3575107794e+01   1.6362875187e+01    0.2319018    0.1357301  34.78  0.001418443    1.270    0.213
         8  -9.4087     39.4976    250.0003   7.7439576007e+01   1.7635007684e+01    0.2608545   0.05490037  49.46  0.001040705    3.447    0.710
         9 -12.0953     19.3314    247.8742   8.1594734040e+01   2.0014552672e+01    0.5339468     0.249363  46.28  0.003228931    1.486    0.327
        10 -10.7308     12.5162    249.9627   8.3063226813e+01   2.0276890966e+01     0.336781    0.1280433  35.84  0.001894135    1.756    0.431
        11 -10.4188      4.2368    248.9510   8.4723069469e+01   2.1193291772e+01    0.2868208    0.1010231  48.45  0.001430681    1.840    0.457
        12  -9.6606    107.7042    247.5915   6.2593333813e+01   1.0096698895e+01    0.2608886    0.1896673  65.87   0.00166771    1.823    0.451
        13  -9.4574    106.4618    243.4651   6.2457305313e+01   1.0913140908e+01    0.1793045    0.1239212  51.42 0.0008883103    1.518    0.341
        14 -10.4273    107.8586    238.8364   6.1687926288e+01   1.1491293510e+01    0.3532853    0.2189536 -40.87  0.002063901    2.081    0.520
        15 -10.7972    173.9489    244.7100   4.8768081251e+01   2.2288201612e+00    0.2304973    0.2254357  18.22  0.001467051    1.616    0.381
        16 -10.7186     73.6870    244.4167   6.9703501356e+01   1.4793725115e+01    0.2315717     0.205097  39.58 0.0006036094    1.172    0.147
        17 -10.1193     34.5432    246.5184   7.8334071571e+01   1.8760787715e+01    0.2242973   0.05699235  37.74  0.001028529    2.326    0.570
        18 -11.8296    165.9277    242.0112   4.9965288146e+01   3.5668945096e+00    0.4656068     0.187282  32.34  0.001782691    1.964    0.491
        19 -10.8874     98.0392    241.6985   6.4122029015e+01   1.2268842810e+01    0.3376597    0.2306706  19.32  0.001001456    1.371    0.271
        20 -11.0446      7.4743    242.8483   8.3920083401e+01   2.2005584942e+01    0.2484507    0.1119317  48.45  0.001485551    1.534    0.348
        21  -9.4133    220.9294    239.6392   3.9675835188e+01  -2.5232020482e+00     0.172119    0.1127915  -5.72 0.0005148434    1.222    0.182
        22  -9.9501    169.7865    224.9789   4.6890742201e+01   5.4534748217e+00    0.3674063    0.1992793  45.77  0.001886036    2.390    0.582
        23 -11.0792    170.4337    234.6920   4.8114688092e+01   4.0013398638e+00    0.3977939     0.183265 -48.85  0.002039853    3.012    0.668
        24 -11.8295    162.5678    228.2955   4.8802076596e+01   5.9227455145e+00    0.7041067     0.603103 -47.53  0.003457223    1.614    0.380
        25 -10.2115    231.0690    234.5629   3.7285269461e+01  -3.0303444074e+00    0.2227651    0.1479751  12.67 0.0007649642    1.171    0.146
        26 -10.3301     90.8854    231.3857   6.4742390997e+01   1.4959497948e+01     0.227418    0.1862361 -55.64  0.001078771    1.535    0.349
        27 -10.1359    238.1080    230.3252   3.5543742118e+01  -3.2962545948e+00    0.2287868    0.1508166   7.65  0.001712255    1.145    0.127
        28  -9.1108    236.4232    239.9940   3.7219258439e+01  -4.1636829659e+00    0.2585344   0.08780548  20.15  0.001218124    3.364    0.703
        29  -9.5061     87.4750    227.9664   6.5198293155e+01   1.6015499647e+01    0.1591256    0.1274276 -75.22 0.0009752955    1.562    0.360
        30  -8.9242    191.6752    227.0157   4.2983044912e+01   2.3758366439e+00    0.1542464    0.1198322  -0.66 0.0003641983    1.097    0.089
        31  -8.9831    116.5567    227.5058   5.8524915113e+01   1.2244682726e+01    0.1279525    0.1015857  31.28 0.0001312421    1.037    0.036
        32 -11.5262     98.8059    225.3910   6.2324301115e+01   1.5000283490e+01    0.3971289    0.3156072   6.29  0.001057824    1.387    0.279
        33 -11.9973     95.1628    217.8243   6.2367129232e+01   1.6885526970e+01    0.6993302    0.4635932  23.77  0.002688061    1.378    0.274
        34 -10.8220    107.1509    223.0212   6.0143985685e+01   1.4303635787e+01    0.4679345    0.1568266  30.73  0.001909191    2.440    0.590
        35 -11.3558    126.4813    221.1892   5.5538468143e+01   1.1960538747e+01    0.3169257    0.2404906  58.27 0.0008487845    1.660    0.398
        36 -10.3935    101.0263    233.6800   6.2676500322e+01   1.3246075115e+01    0.3214931    0.2156765  56.13  0.001441215    1.657    0.397
        37  -8.9448     66.6087    223.7470   6.9703533207e+01   1.9427022772e+01    0.1563611    0.1116905  77.62 0.0005948789    1.587    0.370
        38  -9.2169     75.0181    219.3172   6.7322712254e+01   1.9242732405e+01    0.1933184    0.1365989  36.04 0.0006720261    1.134    0.118
        39 -10.4941    130.6015    214.6393   5.3759264032e+01   1.2506369856e+01    0.4212061    0.2951865 -88.64  0.002140702    2.678    0.627
        40 -10.0683     55.9878    216.8828   7.1706510124e+01   2.2055398015e+01    0.1848087    0.1581478  62.91            0    1.154    0.133
        41  -9.7694     24.8731    216.7966   7.9162004182e+01   2.5430060607e+01    0.1870048    0.1074874  51.29  0.001079618    1.368    0.269
        42  -9.0622    176.3529    215.7714   4.4237267133e+01   5.9167738045e+00    0.1610688    0.1030232 -26.35 0.0009452126    1.621    0.383
        43 -10.0430    170.7145    215.1546   4.5267177124e+01   6.7739072786e+00    0.2297828    0.1773751   1.14 0.0007306427    1.161    0.139
        44  -9.1004    151.3691    216.2633   4.9434996888e+01   9.2877027913e+00    0.2335405    0.1302122  22.09 0.0006645782    1.648    0.393
        45 -10.6943     99.9859    217.3146   6.1169583406e+01   1.6324994063e+01    0.3356976    0.2567679  63.14  0.001712472    1.502    0.334
        46  -9.9312     64.6631    213.5643   6.9325480475e+01   2.1683834807e+01    0.5054184    0.1318715  43.54  0.001888413    2.950    0.661
        47  -8.9897    191.3256    214.3388   4.1136778849e+01   4.1349942265e+00     0.127189   0.07767968  -0.56 0.0007051435    1.726    0.421
        48  -9.6386    112.6477    213.0034   5.7676214632e+01   1.5360077383e+01    0.4050976    0.2262689   1.49    0.0015947    3.410    0.707
        49  -9.5892     78.1017    211.3109   6.5813816288e+01   2.0431268612e+01    0.2673864    0.1117611  23.50  0.001085111    2.513    0.602
        50  -9.7188     20.9240    211.0000   7.9841949127e+01   2.7013182326e+01    0.3338596   0.05979563  24.41  0.001050236    4.924    0.797
        51 -10.0486    211.8538    207.8493   3.6396548171e+01   2.3880586658e+00    0.3032827    0.1913742  26.37  0.001930987    1.433    0.302
        52  -8.1852    135.6874    208.7135   5.1794204713e+01   1.2803909792e+01    0.1303341   0.09235935   2.33 0.0002058411    1.580    0.367
        53 -10.9623     12.7550    205.0427   8.1573708960e+01   2.9026413971e+01    0.4546589    0.1708799 -74.09  0.002129476    2.747    0.636
        54 -11.6432     16.2526    196.8037   8.0366021850e+01   3.0509909927e+01    0.5045957    0.2778243 -40.10  0.001582916    2.876    0.652
        55  -9.5197    124.0517    205.9393   5.4076080070e+01   1.5011854256e+01    0.1902422    0.1609214  23.15            0    1.034    0.033
        56 -11.4228    178.5176    196.8900   4.0809695025e+01   8.4724381966e+00    0.8098545     0.435277 -17.94   0.00277763    2.483    0.597
        57  -9.7709    166.1666    198.9394   4.3667337398e+01   9.9567137099e+00    0.2223039    0.1680246 -23.98 0.0009638951    1.348    0.258
        58  -8.2200    138.7386    199.2882   4.9716495545e+01   1.4023139549e+01    0.1216685   0.09877306  54.98            0    1.491    0.329
        59  -9.0007    133.0058    198.9861   5.0990228107e+01   1.4949925550e+01    0.1580334    0.1338789  23.93 0.0009464252    1.002    0.002
        60  -9.3585    105.1421    197.8582   5.7539066363e+01   1.9368621415e+01    0.2098197    0.1574458  -9.85    0.0011105    1.694    0.410
        61  -8.9151     43.9207    198.4863   7.3352827820e+01   2.7336008838e+01    0.2039047    0.1083694  33.17  0.001018849    1.573    0.364
        62 -10.3129    126.4704    196.8131   5.2201351271e+01   1.6353521560e+01    0.3103022    0.2004705  10.86  0.001516115    1.828    0.453
        63  -8.8539    113.4266    194.4398   5.5015813460e+01   1.8808895924e+01    0.1378853    0.1189904  30.64 6.318116e-05    1.004    0.004
        64 -10.2054     94.0366    181.5572   5.8178965930e+01   2.4470109873e+01     0.312278    0.3032893  11.21  0.001150318    1.127    0.113
        65 -11.8392     98.1148    189.1923   5.8158573871e+01   2.2205472536e+01    0.5847729    0.3817014  61.38  0.001957578    1.835    0.455
        66 -10.0366    104.2249    189.4004   5.6615154085e+01   2.1238485505e+01    0.3070968    0.2031898  38.66  0.001085854    1.312    0.238
        67  -8.6037    138.7016    189.3695   4.8170886172e+01   1.5850180335e+01    0.1334895    0.1051026  65.29 0.0007030643    1.735    0.424
        68  -8.4395    223.0245    188.0196   3.1177137741e+01   3.6033679499e+00    0.1348468    0.1052451  -3.98            0    1.009    0.009
        69  -9.0225    204.0260    188.1862   3.4478050132e+01   6.1419831252e+00    0.1768799    0.1408622  54.46    0.0010698    1.999    0.500
        70  -8.7890    129.3183    188.6776   5.0278764906e+01   1.7469577262e+01    0.1375192    0.1029129  59.55  0.000620811    1.668    0.401
        71 -12.4745     12.6661    183.6825   8.0710081633e+01   3.3799851282e+01    0.9589185    0.8341524   0.39  0.006220331    1.451    0.311
        72 -12.6468      4.8944    173.7128   8.2397326478e+01   3.6764708214e+01    0.5131481    0.3354762  75.50 0.0003383874    1.347    0.258
        73 -11.3065      4.9036    166.3430   8.2094639101e+01   3.8533142586e+01    0.5546386    0.2952759  -5.14  0.001997882    2.875    0.652
        74 -10.5030    228.1221    183.8095   2.9613504386e+01   3.5063209552e+00    0.4522732    0.3146716  53.36  0.002641737    2.567    0.610
        75 -10.1004    249.6144    183.9880   2.6368853680e+01   8.3222385506e-01    0.2488296   0.08674452 -33.28  0.001245874    2.414    0.586
        76 -11.1499    172.8708    195.5768   4.1730759018e+01   9.5085726338e+00    0.3785191    0.2942675 -38.05  0.001046606    1.432    0.302
        77  -9.1442    108.1973    184.9853   5.4961003509e+01   2.1548915475e+01    0.2294404    0.1577123  72.33  0.001078916    2.062    0.515
        78  -9.7450     46.9917    182.2187   7.1206257790e+01   3.0689400634e+01    0.2821966     0.174045 -63.23 0.0007853521    1.759    0.431
        79  -9.5811     48.0000    177.0219   7.0446645894e+01   3.1801274467e+01    0.3771259    0.1818823 -73.42   0.00167596    2.187    0.543
        80  -8.4494    214.5203    181.4519   3.1447366130e+01   5.6501119779e+00    0.1251111     0.096262  -3.43  5.72901e-05    1.092    0.084
        81  -9.2720    139.1827    180.3746   4.6563932212e+01   1.7480509248e+01      0.21047    0.1157231  42.85 0.0009534725    1.763    0.433
        82  -8.6082    112.3388    179.3252   5.3031951545e+01   2.2083537879e+01    0.1459955    0.1082693  -6.43 0.0007051363    1.725    0.420
        83  -9.7450    158.3623    176.7834   4.1549300785e+01   1.4986856848e+01     0.317217    0.2032453 -27.41  0.001582974    1.728    0.421
        84  -9.5461     70.1025    177.6864   6.4250016409e+01   2.8821201042e+01    0.2419683    0.2016184 -56.95 0.0008136097    1.349    0.259
        85  -8.7751    240.6758    177.6823   2.6587511934e+01   2.7106132716e+00    0.1197607   0.07307622  -3.46 0.0007044355    1.671    0.402
        86 -11.0359    152.1651    174.8858   4.2591123862e+01   1.6365032198e+01    0.3466696    0.3207826   2.68  0.001810599    1.069    0.064
        87 -10.6914    148.5086    174.4767   4.3352094886e+01   1.7055401143e+01    0.2873472    0.2451858  86.79  0.001580325    1.678    0.404
        88  -9.2788    101.0199    176.4299   5.5560528658e+01   2.4516877978e+01    0.2030777    0.1901132 -64.11 0.0005222061    1.193    0.162
        89  -9.3893    204.9070    175.8114   3.2103230229e+01   7.8414812938e+00    0.2067176    0.1503757  -0.64  0.001246292    1.301    0.232
        90  -8.9326    118.0218    175.9978   5.1036223503e+01   2.1858207656e+01    0.1663817    0.1589371 -41.59 0.0006451618    1.162    0.139
        91  -9.3224     93.1765    174.0322   5.7329433756e+01   2.6281738951e+01    0.3573286    0.2013976 -74.90  0.001500723    2.414    0.586
        92 -10.3862     29.7605    171.7915   7.5246838607e+01   3.5051700152e+01    0.3760597    0.2916875  76.06  0.001771325    1.196    0.164
        93  -9.4452    121.6065    169.7538   4.9060209994e+01   2.2573977335e+01    0.2746488    0.2138857  74.92  0.001338677    1.714    0.417
        94  -9.1188    176.5310    167.9557   3.6045223130e+01   1.3540491389e+01    0.2009339    0.1267179 -37.31 0.0007005174    1.582    0.368
        95  -8.7308    200.1179    166.8745   3.1293137449e+01   9.9315613826e+00    0.1714263    0.1304083   2.60 0.0004164332    1.257    0.204
        96  -9.3792    160.3041    165.9521   3.9105026453e+01   1.6642074873e+01    0.4054284    0.2352154 -67.51  0.001423207    4.193    0.762
        97  -9.5262    138.9333    165.0470   4.3879225839e+01   2.0545640796e+01    0.2983309    0.2307848  83.78   0.00144623    1.980    0.495
        98  -9.6066    218.3768    165.2646   2.7826240729e+01   7.4296854772e+00    0.3476093    0.2029694  32.92  0.001953123    1.763    0.433
        99 -10.6678    149.9618    163.5506   4.0980755091e+01   1.8899800684e+01    0.4021542     0.247868  19.44  0.001688917    1.915    0.478
       100  -9.6143     55.2018    163.5861   6.6921701534e+01   3.4192567494e+01    0.3515394    0.1390066  24.26  0.001289219    2.659    0.624
       101  -9.1421      1.4061    163.0792   8.2967416733e+01   3.9575543814e+01    0.1885199    0.1116845 -87.58 0.0005917091    1.556    0.357
       102  -9.7002     99.8659    158.8812   5.3038436556e+01   2.8679086035e+01    0.3468662    0.2197368 -59.48   0.00158266    1.728    0.421
       103 -11.1436     25.2660    147.4666   7.4681267125e+01   4.1604847664e+01    0.7227442    0.3163692  47.98  0.003058659    2.096    0.523
       104 -10.9785     23.1588    155.4502   7.5999876180e+01   3.9749224665e+01    0.5479766    0.1367947 -68.50  0.001885071    3.452    0.710
       105 -10.3740    143.0788    158.7664   4.1674180301e+01   2.1072284301e+01    0.5134212    0.1843607  44.01  0.001792937    2.802    0.643
       106  -8.6136     92.3368    159.6792   5.5326820306e+01   2.9736315047e+01    0.1587587    0.1075104  62.00 0.0006996637    1.709    0.415
       107  -9.4809    167.9775    157.3723   3.5755370926e+01   1.6879795619e+01    0.2353277    0.2018511 -74.14   0.00119281    1.626    0.385
       108 -10.9855    208.1431    155.3807   2.7642816409e+01   1.0463233563e+01    0.4143441    0.3591284   6.41  0.002697842    1.098    0.089
       109  -8.5866    157.6821    156.3646   3.7804329966e+01   1.8905651006e+01    0.1396156    0.1156147  84.39 0.0007040107    1.775    0.436
       110 -10.5717    249.7154    153.8382   2.0967669538e+01   4.6545703453e+00    0.2797721   0.08196084 -35.98   0.00122104    2.794    0.642
       111 -10.2903    134.3785    153.5668   4.2781671045e+01   2.3728982827e+01    0.5500558    0.3230371  56.27  0.002256186    2.227    0.551
       112  -9.0881     68.9265    154.4970   6.1530050049e+01   3.4601039398e+01    0.2275743    0.1345852  34.84 0.0006885157    1.551    0.355
       113 -10.3460     40.7532    153.4997   7.0275891134e+01   3.8467257869e+01    0.2490046    0.2249657  77.21 0.0005064432    1.055    0.052
       114  -9.8197      5.9125    152.2823   8.1148568920e+01   4.1937658025e+01    0.2399916    0.1565084  73.19  0.001019433    1.364    0.267
       115 -10.7528    189.9204    150.7188   2.9989987864e+01   1.4218017334e+01    0.2973712    0.2125673  41.15 0.0009782008    1.474    0.322
       116  -9.0689    127.6581    157.4769   4.5256778319e+01   2.4125853681e+01    0.2513745    0.1404679 -50.46 0.0009945541    1.924    0.480
       117  -9.4412    224.2714    148.0006   2.3549041986e+01   9.0726152165e+00    0.2355035    0.1529858  37.54  0.001288039    1.684    0.406
       118  -9.7992    195.4595    145.4725   2.7879728278e+01   1.4140887907e+01    0.2361055    0.1163443 -46.95  0.001029986    2.271    0.560
       119 -10.6791    148.5961    143.1373   3.7141483043e+01   2.3197587355e+01    0.7565994    0.3515722 -53.12  0.002836626    2.622    0.619
       120  -9.4692    117.0374    143.5142   4.5307826135e+01   2.9159825407e+01    0.3338897    0.1155425  48.72 0.0009767161    3.554    0.719
       121  -8.5668     13.6706    145.7163   7.8313705256e+01   4.3039594069e+01    0.1315489   0.09790188 -41.16  0.000700678    1.609    0.378
       122  -9.4140    165.5671    143.7595   3.3444185479e+01   1.9843251989e+01    0.1941841    0.1347978 -51.42 0.0009408295    1.622    0.384
       123  -9.6422    125.3663    143.2676   4.3000504931e+01   2.7638224508e+01    0.3665911    0.2479885  87.82  0.001427368    2.677    0.626
       124  -9.3961     55.0391    144.0838   6.4482670887e+01   3.9170021279e+01    0.2500713     0.156737  60.32 0.0008012967    1.687    0.407
       125  -9.0527    105.1583    157.2354   5.1258628194e+01   2.8159253837e+01    0.2043117    0.1689761  64.42 0.0005076678    1.321    0.243
       126  -9.7230    182.9702    142.0264   2.9505163921e+01   1.6937549708e+01    0.2172055    0.2003247  -3.22  0.001304904    1.027    0.027
       127 -10.0698     14.0696    140.9104   7.7848876804e+01   4.4253313960e+01    0.4813049    0.1886461 -41.70  0.001700769    3.746    0.733
       128 -10.9044     23.4901    138.8586   7.4508991294e+01   4.4013275206e+01    0.7618265    0.2498312  28.15   0.00283359    2.701    0.630
       129 -11.8226    197.6225    136.8860   2.5681869242e+01   1.5183330166e+01    0.4751559    0.3541639   0.24  0.002470564    1.508    0.337
       130 -10.2244    202.2903    136.2202   2.4725282962e+01   1.4472779154e+01    0.2926711     0.193815  43.65 0.0009666784    1.640    0.390
       131  -9.0512    172.4735    137.9777   3.0732025519e+01   1.9613401294e+01    0.1950554    0.1223799 -62.15 0.0008094026    2.489    0.598
       132  -9.1118    107.6607    137.7724   4.6772485410e+01   3.2245606724e+01    0.2931071    0.1708935  47.34  0.001210204    1.713    0.416
       133  -9.5454    162.4942    136.0355   3.2420051993e+01   2.1898940687e+01     0.222936    0.1400573 -41.58  0.000995749    1.583    0.368
       134  -9.4879    188.3198    135.6487   2.7108320990e+01   1.7067730177e+01    0.1348412    0.1093403 -71.62 0.0007047813    1.744    0.427
       135  -9.9717     42.3819    133.1910   6.7308931137e+01   4.3596317699e+01    0.4862354       0.1534 -58.17  0.001672963    2.909    0.656
       136 -10.9939     45.8120    130.2253   6.5678924282e+01   4.3982346313e+01      0.62315    0.4945875  89.02  0.002821486    1.257    0.205
       137 -10.1051     47.4971    125.5132   6.4363660567e+01   4.5035284210e+01     0.402799    0.2129342  47.77  0.001395726    1.897    0.473
       138 -10.7279     43.6129    121.5578   6.5187316106e+01   4.6566821935e+01     0.473184    0.2882159 -84.54  0.001193562    1.778    0.438
       139  -9.4936    179.9809    133.9923   2.8342131102e+01   1.8911597373e+01     0.216216    0.1779621 -79.45   0.00113294    1.727    0.421
       140 -10.2261     11.5718    125.8456   7.7578920390e+01   4.8397407238e+01    0.6298199     0.339738  76.70  0.002893867    1.844    0.458
       141  -9.3420     11.3126    131.3598   7.8093998634e+01   4.6957145091e+01    0.2143654    0.1443482 -45.92 0.0006213207    1.669    0.401
       142  -9.6225    209.7032    131.8820   2.2563115466e+01   1.3881925081e+01     0.207948      0.17054  20.62 0.0004766821    1.286    0.222
       143 -10.4278    132.1917    129.0555   3.8059365547e+01   2.9404662763e+01    0.8913085    0.3160107 -40.22  0.002796125    3.270    0.694
       144  -9.0119     83.4090    131.8920   5.3046295414e+01   3.8037128817e+01    0.2126884    0.1335803  87.21 0.0008017406    2.410    0.585
       145  -8.8183    110.4918    131.4304   4.4583680396e+01   3.3195833115e+01    0.1555183    0.1473678  44.48 0.0001584326    1.013    0.013
       146 -10.9813    191.8987    127.6134   2.4682000718e+01   1.7778355883e+01     0.395413    0.1652576 -41.89  0.001610975    2.272    0.560
       147  -9.5524    188.8217    123.5467   2.4324543478e+01   1.9056079117e+01    0.2807052     0.169036 -39.61  0.001354345    1.556    0.357
       148  -9.5518    168.3981    129.2025   2.9611098052e+01   2.2032793974e+01    0.2982463    0.1348901 -44.31  0.001173127    2.211    0.548
       149  -9.8862    162.4070    128.4147   3.0707451247e+01   2.3379358358e+01    0.2675409    0.2239743 -27.15 0.0007050545    1.193    0.162
       150  -9.9598    152.8402    127.4118   3.2613447933e+01   2.5518197608e+01    0.6098245    0.2075621 -47.86  0.001966707    3.202    0.688
       151  -9.6029     99.0131    127.7267   4.7211299935e+01   3.6271994906e+01    0.5062232    0.3026183 -89.49  0.001646214    3.479    0.713
       152 -10.3210    195.5226    248.5563   4.5293902986e+01  -7.6144959289e-01    0.2511242    0.1485986  26.07  0.001688757    1.360    0.265
       153 -10.4061     56.9162     91.7314   5.3905717167e+01   5.2723691397e+01    0.5338665     0.314319   2.56  0.001919019    2.898    0.655
       154 -11.6889     62.2587    125.8928   5.9105721926e+01   4.2941908273e+01     1.293939    0.3917757  29.27  0.003977736    3.317    0.699
       155 -12.1913     60.8975    106.4132   5.5734471258e+01   4.8284051250e+01    0.9629675    0.5843695  15.59  0.003909287    2.095    0.523
       156 -11.8862     70.3371    115.8632   5.4237352365e+01   4.4328074970e+01     1.080618    0.7746902  80.84  0.004804231    1.719    0.418
       157  -9.5670     25.7265    127.4092   7.2581721903e+01   4.6854416018e+01    0.2688257    0.1250415  27.60  0.001133659    2.079    0.519
       158  -9.9387    118.2319    125.6086   4.1038797250e+01   3.3010101021e+01    0.3399779    0.2934708  71.37  0.001255229    1.292    0.226
       159  -9.6057     77.9224    126.1844   5.3725053630e+01   4.0413343148e+01    0.3308771    0.2067496  24.70 0.0006262197    1.766    0.434
       160 -10.9378    180.8830    122.2058   2.5497520881e+01   2.0836226748e+01    0.6252645    0.2854283 -36.28  0.002556222    2.127    0.530
       161  -9.3319    104.4742    123.7555   4.4639544953e+01   3.6181933900e+01    0.2873472    0.2053988  38.18 0.0007935272    1.357    0.263
       162  -9.1558    226.0686    123.5122   1.8294411946e+01   1.2396966783e+01    0.1707183    0.1255304  45.30  0.001029059    1.580    0.367
       163  -9.8634     27.9695    122.4015   7.1180982549e+01   4.7993745123e+01    0.3429397    0.2313425  50.76  0.001701668    1.449    0.310
       164  -9.4692    172.4926    120.9817   2.6857759897e+01   2.2737733538e+01    0.2242969    0.1366716 -40.82  0.001027011    1.583    0.368
       165 -10.0680    158.5544    118.6738   2.9240510562e+01   2.6055988452e+01    0.5442292    0.2949735 -31.68  0.002202056    2.083    0.520
       166 -10.7876    159.3918    110.5315   2.7044046370e+01   2.7451082536e+01    0.6892265    0.2565183 -43.73  0.002395145    2.650    0.623
       167 -10.9140     75.2301    122.4365   5.3882135289e+01   4.1823935247e+01    0.7589869    0.4360968 -26.17  0.002625081    3.079    0.675
       168 -10.2551    140.9001    116.5876   3.2842586014e+01   3.0235496151e+01    0.8804897    0.3668846 -56.69  0.002602743    3.883    0.742
       169 -10.5687    144.5235    110.4939   3.0417766781e+01   3.0704383064e+01    0.5596436    0.2925054  27.30  0.001848539    3.240    0.691
       170  -9.6211    119.6702    118.3224   3.8882995582e+01   3.4370759193e+01      0.34015    0.2211743 -52.97  0.001464117    1.620    0.383
       171 -10.9029    107.6159    113.3477   4.1173510608e+01   3.8018386249e+01    0.7441691    0.4701434 -44.34  0.003153845    1.655    0.396
       172 -10.3965     13.6994    134.0132   7.7463529656e+01   4.6086102319e+01    0.4360848    0.3120874 -63.21  0.002362556    1.396    0.284
       173 -11.0498    185.0905    113.9912   2.2790011016e+01   2.1440737778e+01    0.4167956    0.3233071  83.26  0.001395509    1.801    0.445
       174  -9.6898    183.5087    109.0346   2.1894403483e+01   2.2623140148e+01    0.2888398    0.1927981  44.23  0.001125775    1.594    0.373
       175 -10.2046     92.4776    112.0149   4.5654285332e+01   4.1361273169e+01    0.4564501    0.3214157 -78.63  0.001657997    1.833    0.454
       176 -10.7469     16.4187    112.3121   7.4494269311e+01   5.1676513538e+01     0.481956    0.2273718  36.45  0.002104873    2.041    0.510
       177  -9.5346    174.5100    111.0353   2.4070350239e+01   2.4135621924e+01    0.3408778    0.1263456 -44.76  0.001200964    2.702    0.630
       178  -9.7196     21.9901    109.6267   7.1950287743e+01   5.1969313079e+01     0.399498     0.221865  77.60  0.001729655    2.003    0.501
       179 -11.0977     17.4728    104.0903   7.3130968848e+01   5.3817616957e+01    0.5426756    0.2615963 -62.04  0.001677581    1.862    0.463
       180 -10.4682     21.8375    100.5403   7.0813969177e+01   5.4439436013e+01    0.8109747    0.2915544  58.86  0.002436105    4.345    0.770
       181 -10.0430    133.7920    107.7851   3.2377798323e+01   3.3635691795e+01    0.5972288    0.2345318 -39.39   0.00197359    2.776    0.640
       182 -11.0096    132.8719    102.8444   3.1295649825e+01   3.4882580278e+01     0.707969    0.3186006  38.30  0.002443854    2.551    0.608
       183 -10.1605     39.7482    105.9661   6.4129756698e+01   5.1220750063e+01    0.4512786    0.2320009  74.65  0.001604033    2.925    0.658
       184  -9.6040    249.6375    104.2733   1.1294179041e+01   1.1312415571e+01    0.4098814   0.09550381 -33.07  0.001492308    3.574    0.720
       185 -10.0976    150.1271    103.1414   2.7192048458e+01   3.0930887761e+01    0.4234832     0.180582 -44.13  0.001273534    2.330    0.571
       186  -8.9819    108.8806    121.1004   4.2688885308e+01   3.5939338227e+01     0.209821    0.1844756 -17.64  0.001033095    1.294    0.227
       187 -10.6990     84.5836    100.6070   4.5459322214e+01   4.5689687972e+01    0.5682005    0.3137959  48.92  0.002218792    1.890    0.471
       188  -8.6822     96.4858    101.0510   4.1490767604e+01   4.3218279236e+01    0.2270128     0.157664 -49.38  0.000336299    1.471    0.320
       189  -9.2834    153.4972    114.9509   2.9454423765e+01   2.7860454418e+01    0.2346351    0.1464378 -41.57 0.0007257894    1.588    0.370
       190 -10.0374     29.2988     99.9382   6.7507361012e+01   5.3944312114e+01    0.5083358    0.2535205  71.26  0.001630739    2.790    0.642
       191 -10.1198     72.9367    111.0132   5.2226821129e+01   4.5155436543e+01    0.2506414    0.2472849  76.27            0    1.029    0.028
       192 -10.4294     75.5307     99.0851   4.8370189826e+01   4.7749348158e+01    0.3286725     0.215413  15.65  0.001324408    2.039    0.510
       193  -9.2306    107.9352     97.9906   3.6985089361e+01   4.1504376564e+01    0.2605801    0.1967523  84.34  0.000717747    1.763    0.433
       194  -8.5538     95.6475     97.3322   4.0744961494e+01   4.4273495389e+01    0.1691113    0.1252972  78.02 0.0007046358    1.781    0.438
       195 -10.6667     24.3994     92.3655   6.8438329743e+01   5.6429691969e+01    0.5546283    0.2782119 -79.05  0.001763628    2.042    0.510
       196  -9.3251    126.1143     91.3081   2.9831941180e+01   3.8846068762e+01      0.50346    0.2053889  57.77  0.001532153    3.230    0.690
       197 -10.3152     44.2952     91.4626   5.9301595353e+01   5.4553709533e+01    0.4445052    0.1538047  24.41   0.00145014    3.176    0.685
       198 -11.1387     82.7689     87.4766   4.2437268512e+01   4.9233972594e+01    0.6317798    0.4734567  63.18  0.001560563    1.533    0.348
       199 -10.7036     86.5769     86.7660   4.0831944919e+01   4.8635416952e+01    0.6658086    0.4310768  78.84  0.002416277    2.694    0.629
       200  -9.6023     34.8956     89.5965   6.3133471604e+01   5.6153604869e+01    0.3005864    0.1877503  84.15  0.001298139    1.985    0.496
       201  -9.8771    105.9760     84.2121   3.3516500477e+01   4.5010162866e+01    0.4379726    0.2869187  82.46  0.001591856    2.625    0.619
       202  -9.8975     48.2867     84.2499   5.5786951830e+01   5.5911118779e+01    0.3108496    0.2004842  64.95  0.001238002    2.036    0.509
       203  -9.1559    116.7617     83.0363   2.9932219862e+01   4.2760832028e+01    0.2133078    0.2011422 -38.35  0.001091619    1.105    0.095
       204  -8.8213     75.2778     81.3217   4.3437614541e+01   5.2164687436e+01    0.1555538    0.1227898 -16.13 0.0003400278    1.581    0.368
       205 -11.7601     63.6251     96.3584   5.2301599818e+01   5.0477363323e+01    0.9800659    0.6142865  52.99  0.003004228    1.775    0.437
       206  -9.7643    176.0621     78.5466   1.5431924230e+01   2.9441021816e+01    0.3991022     0.246282 -65.88  0.001275783    2.132    0.531
       207  -9.6181     82.7029     72.9424   3.7847837504e+01   5.2611539647e+01    0.3487127    0.2494345 -80.52  0.001176215    2.016    0.504
       208  -9.6446     10.0322     74.0709   7.2483339077e+01   6.2317580101e+01    0.2024989    0.1823707 -61.99 0.0003492271    1.013    0.013
       209  -8.7436    106.6716     72.3110   2.9454170581e+01   4.7358492254e+01     0.162342    0.1249994 -88.27 0.0007041562    1.665    0.400
       210  -9.2984     95.8267     71.6982   3.2731615966e+01   5.0008023042e+01    0.3083927    0.2067535 -71.67  0.001223336    2.155    0.536
       211  -9.1106     51.1835     69.3418   5.0184507270e+01   5.9237831774e+01    0.3281954    0.1857516 -82.73  0.001100402    3.466    0.711
       212  -9.1069    110.9929     64.1789   2.5381248836e+01   4.7914713809e+01    0.2673207    0.1826605  84.48  0.001074781    2.080    0.519
       213  -8.4904    199.3078     63.6755   8.1166014552e+00   2.6500425070e+01    0.1441313    0.0921663 -60.82 0.0007036214    1.649    0.394
       214  -9.1454    101.1637     60.7625   2.7115083200e+01   5.0962843112e+01    0.2643414    0.1704056 -81.93 0.0009448868    2.787    0.641
       215  -8.9136     18.2027     61.5748   6.5567567446e+01   6.5011462067e+01    0.1791589    0.1275171  -9.42 0.0002515121    1.534    0.348
       216  -9.3965     73.1544     59.2748   3.6711869154e+01   5.7574008011e+01    0.3396751    0.1972599 -57.09  0.001087027    2.063    0.515
       217 -10.0979      2.0244     56.5182   7.4155792296e+01   6.7215203660e+01    0.2440141     0.173331  82.27 0.0008314551    1.513    0.339
       218  -8.9761    119.9865     56.4807   2.0237232414e+01   4.7054021694e+01     0.222837    0.1354649  84.20   0.00080996    2.520    0.603
       219  -8.6337     62.6988     54.3747   3.9368962565e+01   6.0688371903e+01    0.1519925    0.1201269  86.29 0.0007028652    1.756    0.431
       220  -8.9218    106.3073     53.6233   2.2911613498e+01   5.1015815149e+01    0.1638039    0.1191421 -74.52 0.0007028778    1.778    0.438
       221  -9.5612     92.7685     50.3274   2.5842061836e+01   5.4931782602e+01    0.3634863    0.1913831 -52.39  0.001379981    2.322    0.569
       222  -8.2210    172.2202     50.0017   8.0753286622e+00   3.4761652706e+01    0.1622008    0.1115396 -36.12            0    1.411    0.292
       223 -11.0849     45.5419     48.9857   4.5816552182e+01   6.4845335336e+01    0.2492549    0.2213499  17.20 0.0003561898    1.106    0.096
       224  -8.9876    123.6393     46.3265   1.5723511181e+01   4.7779647168e+01    0.1644977     0.113607 -74.08  0.000133332    1.788    0.441
       225  -9.0484     81.8908     46.0778   2.7919340319e+01   5.8265578436e+01     0.290549    0.1794401 -40.21  0.001182887    1.697    0.411
       226  -8.9878      1.4915     45.9838   7.2573868800e+01   6.9863564813e+01    0.1926595    0.1155261 -69.23 0.0003596246    1.497    0.332
       227  -8.9068    113.8629     41.1570   1.6125383609e+01   5.1132148782e+01    0.2000898    0.1742221  30.67  0.000286162    1.280    0.219
       228  -9.5950    106.3775     41.2229   1.8089166124e+01   5.3064419585e+01    0.2143919    0.1373863 -45.42 0.0007962394    1.656    0.396
       229  -9.0932    123.5067     39.9504   1.3424752843e+01   4.8776402782e+01    0.2095096    0.1512212 -31.56  0.000357546    1.487    0.328
       230  -9.1984    220.0032     38.9892   3.5989309311e+02   2.5348625158e+01    0.1548252    0.1277823 -55.92 0.0005113292    1.018    0.018
       231  -9.1283    212.2679     38.4858   4.4423618604e-01   2.7041500199e+01    0.3552824   0.06688771 -35.23  0.001215221    3.558    0.719
       232  -9.0479     95.7925     37.7639   1.9690420187e+01   5.6301388493e+01    0.2096515    0.1752505 -74.10  0.001025548    1.363    0.266
       233  -9.8378    111.9762     34.4626   1.3965153045e+01   5.2608536709e+01    0.2934771     0.201377 -52.66  0.001365977    1.589    0.371
       234  -9.5376    119.4929     33.0372   1.1696584235e+01   5.0814879386e+01    0.2184514     0.149161 -31.45 0.0007790395    1.571    0.363
       235  -9.2092      6.5394     33.0092   6.5602768943e+01   7.2740195594e+01    0.1952637    0.1178444 -64.85   0.00075562    1.563    0.360
       236  -8.9125    216.4737     30.5244   3.5817095597e+02   2.7097961541e+01    0.1289591    0.1024416 -56.44 6.213545e-05    1.031    0.030
       237  -9.0671    101.3812     28.2164   1.4027792194e+01   5.6247800996e+01    0.2097542    0.1314802 -43.40  0.000683768    1.709    0.415
       238  -9.2517     81.2132     26.8082   1.9396570724e+01   6.1555239480e+01    0.2446676    0.1525828 -72.08 0.0009458648    2.786    0.641
       239  -9.4638     91.7426     24.8265   1.5155912599e+01   5.9189780433e+01    0.4379634     0.158218 -34.12  0.001579379    2.831    0.647
       240  -9.6132    110.5424     24.6621   1.0325361623e+01   5.4287301946e+01     0.250266     0.151987 -20.59 0.0008102664    1.955    0.488
       241  -9.7464     44.2829     25.0602   3.5135034640e+01   6.9818903461e+01    0.2232936     0.182491  31.99 0.0004502505    1.155    0.134
       242  -9.4833    118.4977     24.4730   8.5745160003e+00   5.2182603792e+01    0.1479516    0.1341644  75.57 7.510892e-05    1.010    0.010
       243  -8.7005     84.6941     21.2884   1.5579848963e+01   6.1436992982e+01    0.1421251    0.1106044 -76.33 0.0004103085    1.570    0.363
       244  -8.6235     41.0006     21.0188   3.4775446054e+01   7.1102692857e+01    0.1602153    0.1441541  -9.24            0    1.077    0.072
       245 -10.1789     13.2468     20.7496   5.5179223890e+01   7.4961476169e+01    0.2954922    0.1996056 -19.51  0.001640161    1.461    0.316
       246  -8.5251     50.3896     15.2972   2.6001402548e+01   7.0186852722e+01     0.148821   0.09670014  21.81 0.0007012433    1.786    0.440
       247 -11.4278    166.0852    247.7973   5.0671691706e+01   2.7766519822e+00    0.2950922    0.2106279  32.44  0.001788064    1.337    0.252
       248 -11.1876     12.3588    243.9590   8.2930986846e+01   2.1365622473e+01    0.2331712    0.1723999  58.53  0.001003256    1.138    0.121
