#   1 NUMBER                 Running object number                                     
#   2 MAG_AUTO               Kron-like elliptical aperture magnitude                    [mag]
#   3 X_IMAGE                Object position along x                                    [pixel]
#   4 Y_IMAGE                Object position along y                                    [pixel]
#   5 X_WORLD                Barycenter position along world x axis                     [deg]
#   6 Y_WORLD                Barycenter position along world y axis                     [deg]
#   7 A_WORLD                Profile RMS along major axis (world units)                 [deg]
#   8 B_WORLD                Profile RMS along minor axis (world units)                 [deg]
#   9 THETA_WORLD            Position angle (CCW/world-x)                               [deg]
#  10 FWHM_WORLD             FWHM assuming a gaussian core                              [deg]
#  11 ELONGATION             A_IMAGE/B_IMAGE                                           
#  12 ELLIPTICITY            1 - B_IMAGE/A_IMAGE                                       
         1 -15.1107     47.5209    205.3098   1.3353833104e+02   2.5518552985e+01     10.93378     4.699328  76.94   0.03430418    4.563    0.781
         2 -12.1944    190.0101     40.1041   6.4064812870e+01   3.2944994663e+01     1.195044     0.760022 -80.44  0.006238679    1.697    0.411
         3 -12.6499    196.8829     32.5016   6.1457898764e+01   3.2361640543e+01     0.817988     0.643525 -76.32  0.003020619    1.131    0.116
         4 -12.6936    204.4615     26.6500   5.9305032891e+01   3.1389873980e+01    0.9430007    0.5607822 -59.28  0.003981482    1.610    0.379
         5 -12.2811    211.6239     19.5573   5.7073694352e+01   3.0662346740e+01     0.617503    0.5599694 -21.43  0.001466736    1.586    0.370
         6 -12.5559    223.5626      5.9297   5.3320810114e+01   2.9649813432e+01      0.67375    0.4739141 -81.99  0.002673651    1.110    0.099
         7 -10.5782    172.3922      3.7284   5.7783323082e+01   4.1014163044e+01    0.3434183    0.2166013   6.52  0.001790326    3.013    0.668
         8  -9.3975     74.6627    207.2522   1.2765481088e+02   2.1309670811e+01    0.2697215    0.1964782  27.51  0.001371303    1.663    0.399
         9 -11.3857    231.2834    250.5844   1.0129127650e+02  -1.2492050214e+01    0.2089972    0.1186022  30.25 0.0002442955    1.645    0.392
        10 -10.1778    122.1908    249.3068   1.2289153600e+02   4.6388231621e+00    0.2539008    0.2326548  47.64  0.001626791    1.073    0.068
        11  -9.9841     69.3275    250.1562   1.3370745876e+02   1.2603612464e+01    0.2844627    0.1890382  53.35 0.0009421525    1.277    0.217
        12 -10.2588     73.3223    249.6418   1.3286876589e+02   1.2135846015e+01    0.3015517    0.2686154 -14.53  0.001927287    1.723    0.420
        13 -12.5381     26.9586    247.4689   1.4150620490e+02   1.8674128909e+01     1.319463    0.6954748  76.73  0.007410991    1.747    0.428
        14 -13.7384      9.1523    207.6952   1.4189996083e+02   2.9249309082e+01     2.045827    0.9280998 -69.59  0.006639692    1.826    0.452
        15 -10.4659     15.4746    250.3857   1.4375342071e+02   1.9387024213e+01    0.3248996    0.2232725  49.67  0.001084729    1.382    0.277
        16 -12.7928      4.6380    247.6714   1.4546354028e+02   2.1098273180e+01     1.296821    0.7257735 -81.53  0.002433037    1.492    0.330
        17 -11.1469    103.8399    229.4707   1.2412903396e+02   1.1688586329e+01    0.4304554     0.258799  45.90  0.001644449    1.512    0.339
        18 -10.4291    143.4557    227.8381   1.1524103971e+02   5.3213765296e+00    0.3224349    0.2704248  82.61  0.001180595    1.398    0.285
        19 -12.1609     37.5354    217.1227   1.3691050392e+02   2.4010411529e+01    0.4638017    0.3949856  -3.72 0.0009133115    1.859    0.462
        20  -9.8039     44.0651    246.6624   1.3826574062e+02   1.6743551816e+01    0.1684037    0.1293561  61.76 0.0004322323    1.112    0.101
        21 -11.0644     63.6414    187.0010   1.2747991467e+02   2.7798641855e+01    0.4293766    0.3138984 -29.70  0.001420906    1.955    0.489
        22 -10.8877     69.0242    180.5466   1.2520781255e+02   2.8632100403e+01    0.3263038    0.2491058 -45.76  0.000558593    1.452    0.311
        23 -10.1441    249.6372    179.4921   8.4992471574e+01  -3.5216645472e+00    0.2583798    0.2194828 -61.70 0.0009386522    1.439    0.305
        24  -9.8023    237.8668    174.5422   8.6016024049e+01  -7.4715995577e-01    0.2398701    0.2191332 -61.44  0.000825325    1.267    0.210
        25  -9.6592    238.6342    169.8465   8.4944905908e+01  -6.9428689298e-03     0.211832    0.1788757  13.60 0.0007807353    1.334    0.250
        26 -12.2723     68.0294    145.1632   1.1941462243e+02   3.7636417800e+01     1.133295    0.6783476 -86.26  0.003063838    2.442    0.591
        27 -10.4738     92.9428    167.9495   1.1696587663e+02   2.8044362969e+01     0.507416    0.3183793  53.32 0.0006519941    1.724    0.420
        28 -11.6199     84.7908    162.5723   1.1811285153e+02   3.0729103831e+01    0.8953055    0.5928851  49.06  0.001464265    1.585    0.369
        29 -10.3855     78.6071    169.6713   1.2100376034e+02   2.9920918922e+01    0.2652322    0.2419414 -58.22 0.0004347776    1.115    0.103
        30 -12.4590     65.7635    166.4335   1.2380983381e+02   3.2626887735e+01    0.5291051    0.2879536 -43.98  0.001951906    2.081    0.519
        31  -8.0877    159.7762    165.9191   9.9954077703e+01   1.5798802863e+01    0.1894098    0.1247767 -45.75 0.0008218956    1.490    0.329
        32  -9.8741    238.9074    164.8473   8.3893116229e+01   8.7553523237e-01    0.2025281    0.1711023 -16.78 0.0003549683    1.220    0.180
        33 -10.2631    206.7605    162.4566   8.9230130083e+01   7.1599679959e+00     0.250586    0.2259822 -47.37 0.0004212502    1.064    0.060
        34  -8.8875     92.5173    152.2072   1.1402702184e+02   3.2043707796e+01    0.2198796    0.1982784 -30.86 0.0003361195    1.222    0.182
        35  -9.1928     98.8826    146.8551   1.1118009402e+02   3.2264931944e+01     0.307873    0.2202698 -45.64 0.0008198437    1.385    0.278
        36  -8.6991    101.6462    143.6768   1.0973877252e+02   3.2551059533e+01    0.2226998    0.1482281 -40.13 0.0005345407    1.596    0.374
        37 -11.2068     87.2858    145.7636   1.1414212225e+02   3.4519503458e+01    0.2976327     0.261091 -41.37 0.0004157946    1.169    0.144
        38  -8.7086    226.0961    145.2713   8.2042463038e+01   6.8982644192e+00    0.1812228    0.1734611 -65.46 0.0002723729    1.103    0.094
        39  -9.8110    110.0927    224.3415   1.2204161731e+02   1.1769174658e+01    0.2372364    0.1915129 -51.25  0.001053598    1.367    0.268
        40 -11.0781     56.4234    129.7149   1.1973683232e+02   4.3011357367e+01    0.6821874    0.3087592 -72.82  0.002350667    3.330    0.700
        41  -9.6962     97.1492    130.6487   1.0804887003e+02   3.6511837968e+01    0.2684739    0.2176724 -34.37  0.000365413    1.298    0.230
        42  -9.2405     30.0809    223.3031   1.3899480753e+02   2.3498524951e+01    0.1741825    0.1350992  74.06 0.0004714424    1.062    0.059
        43  -8.7145    109.9648    134.0141   1.0527683323e+02   3.3341702681e+01    0.2488859    0.1894965 -14.19 0.0007922265    1.766    0.434
        44 -10.4012    246.1415    123.2811   7.4287109645e+01   7.3062548593e+00     0.197603    0.1754707  20.75  0.001195821    1.475    0.322
        45  -8.5162    106.9429    121.7958   1.0316914321e+02   3.6784152713e+01    0.1939622    0.1919611 -54.52 0.0002830853    1.024    0.024
        46  -8.9245    167.3845    112.9352   8.5927649244e+01   2.5829178686e+01    0.2801945    0.2133101  88.11  0.001218872    1.620    0.383
        47 -12.4280     13.2451    238.7360   1.4338461371e+02   2.2034063696e+01    0.7223142    0.5774308 -73.95  0.003158905    1.373    0.272
        48 -10.8317    244.4085    103.1101   7.0419025305e+01   1.1244337027e+01    0.2804376    0.1806711  67.26  0.001484524    1.781    0.438
        49  -8.4522    168.4223     97.2517   8.1792612893e+01   2.8714079896e+01    0.1880488    0.1392936 -54.00 0.0003007855    1.348    0.258
        50 -11.0388    243.4075     92.8755   6.8469242880e+01   1.3213317644e+01    0.2780604    0.2174752 -87.51  0.001250877    1.307    0.235
        51  -9.7142    224.5175     90.0442   7.0443725664e+01   1.7531325761e+01    0.2282953    0.1907074  71.44 0.0003282567    1.246    0.198
        52  -8.6692    229.3087     86.3439   6.8986626175e+01   1.7169736992e+01    0.1248485    0.1093851   0.35 0.0003281542    1.697    0.411
        53  -8.2954    157.6931     80.9481   7.9798050745e+01   3.4203430883e+01    0.2304176    0.1251528 -17.36 0.0007040668    4.333    0.769
        54  -7.8864    111.7057     78.2180   8.9993598432e+01   4.4889065379e+01    0.1310703    0.1099448  75.03 0.0001585878    1.447    0.309
        55 -10.3221     36.0736    224.4634   1.3789385987e+02   2.2530231332e+01    0.2842499    0.1998847  61.46 0.0008737177    1.247    0.198
        56  -7.8196    168.6519     70.7137   7.4981574603e+01   3.3394051434e+01    0.1415312    0.1100367  29.92 0.0007021362    1.655    0.396
        57  -8.2799    132.9649     68.5839   8.1828903758e+01   4.1966392769e+01    0.2156065    0.1733521 -38.86  0.001032581    1.305    0.234
        58 -10.3799    124.9877     56.2544   8.0095913844e+01   4.5662387944e+01    0.2182391     0.196887 -31.44 0.0002640229    1.189    0.159
        59 -11.5336     36.9354    242.0974   1.3923969698e+02   1.8594984095e+01    0.7283671    0.2516447  57.85  0.003051416    2.988    0.665
        60 -10.6977     52.8114    242.5027   1.3621472100e+02   1.6474002741e+01    0.5055932    0.2290286  77.67  0.001974077    3.090    0.676
        61  -9.6331     87.2958    241.4469   1.2914841847e+02   1.1754482178e+01    0.2536564    0.1853955  80.44 0.0009870692    1.375    0.273
        62 -10.1007    249.1021    240.3214   9.6326438340e+01  -1.3328634104e+01    0.2081732     0.151489 -29.19 0.0003376172    1.271    0.213
        63  -9.0593    220.7814     41.6096   6.0657727457e+01   2.5889919588e+01      0.23261      0.15704 -46.46 0.0007503423    1.437    0.304
        64  -9.6179    188.8265     15.8269   5.8677223138e+01   3.6118164355e+01    0.1774636    0.1234324 -79.05 0.0006821527    1.333    0.250
        65 -10.1978    163.4432     12.8790   6.1092119557e+01   4.2165953815e+01     0.280425    0.1239659  53.39  0.001354793    2.077    0.519
        66  -8.7941    101.3027    233.9897   1.2527797371e+02   1.1132087334e+01    0.1849791    0.1622126 -86.54 0.0005889728    1.141    0.123
        67 -10.8040    115.6434    230.9211   1.2176331838e+02   9.4312739075e+00    0.2855991    0.2242923  60.96  0.001594168    1.228    0.186
