#   1 NUMBER                 Running object number                                     
#   2 MAG_AUTO               Kron-like elliptical aperture magnitude                    [mag]
#   3 X_IMAGE                Object position along x                                    [pixel]
#   4 Y_IMAGE                Object position along y                                    [pixel]
#   5 X_WORLD                Barycenter position along world x axis                     [deg]
#   6 Y_WORLD                Barycenter position along world y axis                     [deg]
#   7 A_WORLD                Profile RMS along major axis (world units)                 [deg]
#   8 B_WORLD                Profile RMS along minor axis (world units)                 [deg]
#   9 THETA_WORLD            Position angle (CCW/world-x)                               [deg]
#  10 FWHM_WORLD             FWHM assuming a gaussian core                              [deg]
#  11 ELONGATION             A_IMAGE/B_IMAGE                                           
#  12 ELLIPTICITY            1 - B_IMAGE/A_IMAGE                                       
         1 -14.3581     68.5010    144.3755   9.9737681012e+01   3.7530298184e+01     4.931058     2.600165  75.86  0.005384942    3.946    0.747
         2 -14.3091    208.0223     38.6579   4.0082278922e+01   2.8794504303e+01     1.819191      1.51106  17.33  0.007689549    1.784    0.439
         3 -13.8170    223.2005     23.9103   3.5192388820e+01   2.7269759914e+01    0.8612965    0.7850253  77.67  0.002645861    1.280    0.219
         4 -12.7769    246.3749      3.7256   2.9346333857e+01   2.4736897200e+01    0.6204098    0.3509962  88.47  0.003841323    1.585    0.369
         5 -10.2250     49.0193      2.9756   6.1115747241e+01   6.8457131787e+01    0.1862458    0.1470951  20.39 0.0004452112    1.013    0.013
         6 -15.0038     10.3121    206.6197   1.2149006405e+02   2.9052941660e+01     1.087192    0.9718668 -50.73  0.003627837    1.527    0.345
         7  -9.6014    117.7476    250.6131   1.0315976976e+02   6.0782081490e+00    0.1757251   0.09652699  44.85 0.0002775493    1.536    0.349
         8 -13.6968      3.5709    184.6201   1.2149261721e+02   3.4649958933e+01     1.381717    0.6514526  85.25  0.001264658    1.921    0.479
         9 -14.2874     84.8553    219.8435   1.0654468749e+02   1.7027386054e+01     2.514326     1.631336  88.19  0.007270703    1.788    0.441
        10 -13.2201     34.2905    201.7426   1.1597053007e+02   2.7688392129e+01    0.5314912    0.3817132 -38.40  0.001456362    2.027    0.507
        11 -16.4706     42.2785    192.4716   1.1327499329e+02   2.8935729262e+01     12.71916     5.330142  58.10   0.05292634    2.635    0.621
        12 -10.4706    207.4098    193.7520   7.5567295383e+01   1.7639732251e+00    0.1970823    0.1177239 -28.66 0.0009543618    1.688    0.408
        13  -9.3549    149.6278    187.8156   8.6720791677e+01   1.3132950329e+01    0.1997323    0.1393928 -61.58 0.0005719322    1.685    0.407
        14  -9.3383    112.4576    205.5426   9.8364275578e+01   1.5810105157e+01     0.139564    0.1282094  54.18  4.95987e-05    1.003    0.003
        15 -10.3034     81.2355    182.0491   1.0244065956e+02   2.6216155705e+01    0.3616583    0.2405751  40.62   0.00113377    1.474    0.321
        16  -9.5838     99.5882    180.8341   9.7612099732e+01   2.3592751187e+01     0.227247     0.198678  29.14 0.0005818624    1.235    0.190
        17 -12.1437     61.9974    175.3428   1.0639865179e+02   3.0613136556e+01    0.4458436     0.312701 -32.14  0.001640212    1.990    0.497
        18 -12.0384     66.9462    170.3331   1.0440256107e+02   3.1180070375e+01    0.3334572    0.2755815 -42.00 0.0009353582    1.397    0.284
        19 -14.0492     57.0918    239.0945   1.1433055050e+02   1.6846448067e+01    0.8621341     0.643122  77.19  0.001230642    1.199    0.166
        20 -12.7164     84.0903    154.5809   9.7161573456e+01   3.2585034802e+01     1.395872    0.7792215 -54.62  0.001783096    1.706    0.414
        21 -13.6096     63.9345    156.8875   1.0316289784e+02   3.4981908007e+01     0.564514    0.4361219 -48.18  0.001310797    1.356    0.263
        22 -12.3724     76.7467    160.8226   1.0027963129e+02   3.2146861419e+01    0.5444563       0.4851  80.97 0.0005361285    1.083    0.077
        23 -15.7689      7.1813    247.2087   1.2427964300e+02   2.0935451505e+01      2.05638     1.807272 -82.10   0.01649887    1.439    0.305
        24 -15.4704     31.6233    249.6124   1.1999634396e+02   1.7856986709e+01     6.047095     1.558221  27.68   0.01548409   10.630    0.906
        25 -11.5276     28.7959    155.5743   1.1263329338e+02   3.9428634091e+01    0.2688502    0.2190513  57.61 0.0009649556    1.254    0.203
        26  -8.8040    151.6904    151.2945   7.8750767870e+01   2.0757423659e+01    0.1535669    0.1240312  85.11 0.0004031154    1.589    0.371
        27 -10.7781    133.6905    144.1922   8.1600183069e+01   2.6056301945e+01     1.187298    0.2667459 -54.19  0.002361105    7.481    0.866
        28  -8.6034    112.4252    150.4498   8.8569704326e+01   2.8705294541e+01    0.1538449    0.1467119 -86.62 0.0001323044    1.041    0.039
        29  -9.9153    174.8084    148.9286   7.2928411296e+01   1.6526813041e+01    0.2807283    0.2124509 -62.54  0.000688056    1.547    0.354
        30 -11.4755     54.5650    147.3691   1.0428748531e+02   3.8637761499e+01    0.5311673    0.2542828 -60.52  0.002281842    1.845    0.458
        31 -11.3609     22.8361    146.4843   1.1318186545e+02   4.2263912327e+01    0.4176159    0.2109952  64.31  0.001339244    2.401    0.584
        32 -10.7226     32.7116    143.8887   1.1005659398e+02   4.1987349895e+01    0.4512103    0.2875437  24.56  0.002352953    1.855    0.461
        33 -10.1675     98.3195    141.3197   9.0528265386e+01   3.3522131559e+01    0.2979299    0.2884037  -5.04 0.0008029972    1.125    0.111
        34  -9.9429    101.2303    138.1455   8.9013855175e+01   3.3788112677e+01     0.367735    0.2654569 -19.60  0.001593048    1.920    0.479
        35 -12.4425     86.2699    139.6219   9.3633712408e+01   3.6005903558e+01    0.3096419    0.2675639 -45.81 0.0004001768    1.165    0.142
        36  -9.7285    197.5795    138.7662   6.5905897108e+01   1.3943200363e+01     0.326847     0.200008 -64.28  0.001296214    2.463    0.594
        37 -11.2467     75.4755    136.0460   9.6087867896e+01   3.8620305409e+01     0.284375    0.2601599  86.61 0.0003573451    1.105    0.095
        38 -10.3838     25.3845    134.2736   1.1087431685e+02   4.5106841107e+01    0.2421654    0.1966213  74.33  0.000702877    1.259    0.205
        39 -11.1346     17.1952    132.6680   1.1308750813e+02   4.6197494392e+01    0.2930949    0.1849165  59.01 0.0009613437    1.769    0.435
        40 -10.9800    107.4839    130.6577   8.5532202488e+01   3.4464426511e+01    0.6009138    0.3556167  32.25  0.002459651    1.891    0.471
        41 -10.0269    135.0770    128.7110   7.7572349812e+01   2.9364042546e+01    0.3536329    0.2903929 -53.09  0.001703758    1.210    0.173
        42 -10.8884    108.3121    203.6278   9.9046615005e+01   1.6910744113e+01    0.3747454    0.2466725  23.35  0.001320272    1.814    0.449
        43  -9.7679    160.5106    127.4941   7.1065253137e+01   2.4144504580e+01    0.1558553    0.1512576 -48.57 -7.631358e-05    1.006    0.006
        44 -10.1357     97.1559    125.7108   8.7356016979e+01   3.7586631418e+01    0.3180346    0.2599623   2.19  0.001530601    1.521    0.342
        45  -9.0191    116.1641    124.5819   8.1622469977e+01   3.4228815983e+01    0.2174749    0.1522298  26.99 0.0009349418    1.676    0.403
        46  -8.9825    163.4671    121.4560   6.8888837639e+01   2.4784392983e+01    0.1554704    0.1498312 -59.01 0.0001379086    1.027    0.026
        47 -10.0163    106.5114    119.0307   8.2980661393e+01   3.7447642209e+01    0.2123894    0.2080276  42.17 4.148948e-05    1.054    0.051
        48 -13.1477    246.8725    107.9721   5.0915164408e+01   9.9188180237e+00     0.821374    0.3827797 -35.75  0.003724651    1.920    0.479
        49 -11.2160    193.2767    195.3113   7.8673649015e+01   3.8577999153e+00    0.9195414    0.4871048 -63.99  0.002753577    5.788    0.827
        50  -9.2450    134.6040    105.2154   7.1578457256e+01   3.4716358626e+01    0.2319545     0.147616 -33.82  0.000956156    1.715    0.417
        51  -9.3750    135.0000    112.4785   7.3435525728e+01   3.3044398425e+01    0.3564918   0.08882996 -44.90 0.0009353344    3.940    0.746
        52 -10.1131    205.1445    110.2670   5.7828917311e+01   1.7842678108e+01    0.3436229    0.2435624  40.28  0.001055066    1.629    0.386
        53  -8.6054    120.3660    165.7097   8.9587855944e+01   2.3551216989e+01    0.1597847    0.1166495  70.95 0.0007025507    1.706    0.414
        54 -10.5600     52.9852     91.5071   9.3338673531e+01   5.2711289084e+01    0.2740806    0.1925549 -69.43 0.0008928129    1.612    0.380
        55 -10.1334      8.5085     86.4872   1.0887228664e+02   5.8021178851e+01    0.1283313    0.1018458 -54.02 7.567652e-05    1.021    0.020
        56  -9.6714    160.2473     82.7718   5.9290314223e+01   3.3251097320e+01    0.2040819    0.1815458  14.17 0.0006816669    1.326    0.246
        57  -8.9741    152.2761     83.6818   6.1267858971e+01   3.4980399955e+01    0.1538418    0.1175243 -72.90 0.0002346445    1.571    0.364
        58  -9.2811     71.8654     82.9138   8.4138258932e+01   5.1916948703e+01    0.2173222    0.1775248  78.85 0.0009935379    1.706    0.414
        59 -11.3647    243.6531     77.8863   4.4851493379e+01   1.5415055392e+01    0.2003497    0.1803698  61.91 0.0004467451    1.323    0.244
        60  -9.9125      5.3214     71.3181   1.0710263691e+02   6.1650307526e+01    0.1337174     0.069856 -39.40 0.0006805069    1.666    0.400
        61  -9.6690     46.1487     61.3679   8.7147675182e+01   6.0108370245e+01    0.1748836    0.1549572  12.18 0.0006085725    1.174    0.148
        62 -11.0246     13.4638     59.9121   1.0084812542e+02   6.3613661927e+01    0.2492407    0.1935144 -54.12 0.0004498932    1.182    0.154
        63 -13.5090    199.0887     44.5573   4.2584985921e+01   3.0060630824e+01     1.167964    0.6783265  44.21  0.002186691    2.244    0.554
        64 -14.4532     16.1767    216.2017   1.2089943932e+02   2.6380963343e+01     1.397596    0.8199013  49.47  0.002707345    1.481    0.325
        65 -11.0255     58.5110    220.8726   1.1241328573e+02   2.0465578552e+01    0.3331359    0.2888192  27.45  0.001930845    1.415    0.293
        66 -10.5054    135.5337     41.7942   5.2165000143e+01   4.5824285799e+01    0.2645227    0.2137989 -88.67 0.0003889152    1.385    0.278
        67  -9.8139    135.0355     33.7222   4.9660798602e+01   4.6989582263e+01    0.1978775    0.1955843 -77.19 0.0003473667    1.088    0.081
        68 -12.3855    216.6034     30.4817   3.7274209927e+01   2.7913582114e+01    0.4220643    0.3449181  43.35   0.00104067    1.636    0.389
        69  -9.6943    189.5059     14.9896   3.6348452051e+01   3.5937763662e+01     0.178373    0.1216471 -36.36  0.000737395    1.545    0.353
        70 -11.4341    163.1141    218.3503   8.9087221619e+01   4.7250374089e+00    0.3821636    0.2000511  19.40  0.001526402    2.751    0.637
