#   1 NUMBER                 Running object number                                     
#   2 MAG_AUTO               Kron-like elliptical aperture magnitude                    [mag]
#   3 X_IMAGE                Object position along x                                    [pixel]
#   4 Y_IMAGE                Object position along y                                    [pixel]
#   5 X_WORLD                Barycenter position along world x axis                     [deg]
#   6 Y_WORLD                Barycenter position along world y axis                     [deg]
#   7 A_WORLD                Profile RMS along major axis (world units)                 [deg]
#   8 B_WORLD                Profile RMS along minor axis (world units)                 [deg]
#   9 THETA_WORLD            Position angle (CCW/world-x)                               [deg]
#  10 FWHM_WORLD             FWHM assuming a gaussian core                              [deg]
#  11 ELONGATION             A_IMAGE/B_IMAGE                                           
#  12 ELLIPTICITY            1 - B_IMAGE/A_IMAGE                                       
         1 -17.1399    225.7374    176.3857   7.4113889008e+01   2.2171799762e+00     21.40001     12.57633 -61.04   0.07877578    4.155    0.759
         2 -16.6615    208.7231     56.2383   4.8655324620e+01   2.6198811974e+01     4.862325     2.515303 -42.77   0.02185258    1.807    0.446
         3 -17.1544    211.0902     77.0060   5.3599846026e+01   2.2445412496e+01     3.892467     3.113694  89.22   0.02062469    1.407    0.289
         4 -16.3175    224.6590     56.9998   4.6726911675e+01   2.2426576765e+01      3.65268    0.5003831 -36.28   0.01003588    5.078    0.803
         5 -15.8298    242.7075     37.6010   4.0233002629e+01   2.1122013768e+01      1.59364    0.6503915  61.50  0.007325942    2.504    0.601
         6 -16.3465    241.3286     46.7930   4.2426159018e+01   2.0202882126e+01     1.707291    0.9253957  42.44  0.007868958    2.720    0.632
         7 -17.1185    247.4779     66.4116   4.6166707626e+01   1.6149910626e+01     5.113008    0.6437633 -39.44   0.01460761    4.880    0.795
         8 -15.5294    218.0948     65.9552   4.9792285605e+01   2.2582000770e+01     1.331308    0.4701936 -37.93  0.005030975    2.516    0.602
         9  -9.3753    174.7723     17.1963   4.2779100278e+01   3.9412240850e+01    0.4028246    0.2297873 -22.34   0.00121112    2.030    0.507
        10  -9.7269    250.4190     18.4254   3.5446685325e+01   2.1845157648e+01    0.2514791     0.176796 -53.41  0.001598361    1.187    0.158
        11 -10.3394    199.5854     16.4322   3.9598283964e+01   3.3450581915e+01    0.3907804    0.1989514  55.62  0.001471672    1.954    0.488
        12  99.0000    198.1857     11.8208   3.8575119731e+01   3.4271827105e+01     0.371335    0.1723467 -85.03   0.00117679    2.791    0.642
        13 -11.4016    190.6993     11.8961   3.9397444002e+01   3.6062444644e+01    0.3560471    0.2615868  51.50  0.001003896    1.438    0.304
        14  -8.5202    219.1730      9.9244   3.6120365406e+01   2.9576398864e+01    0.1357968   0.09248234  83.64            0    1.341    0.254
        15  -8.8890    208.6160      8.1831   3.6653769274e+01   3.2185439219e+01    0.3240322    0.1765209 -79.10  0.001597114    1.956    0.489
        16  -9.1760    202.7485      4.4575   3.6290876169e+01   3.3928940129e+01    0.2530258    0.1407325 -73.47 0.0009253739    1.887    0.470
        17  -9.9649    211.2599      4.3678   3.5507714862e+01   3.1956206108e+01    0.1767163    0.1407952  42.42 0.0004507154    1.575    0.365
        18 -12.7640    207.2238      2.3276   3.5373467122e+01   3.3089616439e+01    0.3706601    0.2012594  72.95  0.001017961    1.647    0.393
        19  -9.1792    201.4194      9.1273   3.7570865666e+01   3.3778840048e+01    0.2279003    0.1526447  86.91  0.000939603    1.382    0.276
        20  -8.2282    215.4590      7.4615   3.5870318008e+01   3.0679434850e+01    0.2205974     0.177023  49.50  0.001079265    1.487    0.327
        21  -7.8183    172.0187      7.3304   4.0331825953e+01   4.1066654779e+01    0.2501262    0.1674613 -14.42  0.001331259    1.840    0.456
        22  -7.6504    167.7909      7.9706   4.1047010641e+01   4.2047527024e+01    0.1715436    0.1372267 -72.05 -0.000275831    1.272    0.214
        23  -8.4080    166.4532      4.5353   4.0222749590e+01   4.2688415626e+01    0.5054682    0.2732278  24.63  0.002200098    2.904    0.656
        24  -8.9360    227.5626      7.1523   3.4796505717e+01   2.7985915503e+01    0.1442933    0.1182089  -9.83  0.000615378    1.659    0.397
        25  -7.6973    179.0000      5.9828   3.9128802319e+01   3.9482184602e+01    0.1668973   0.07458829 -24.94 0.0004215649    2.500    0.600
        26  -8.7956    236.8670      5.3035   3.3689178468e+01   2.6149832393e+01    0.1104757   0.06396756 -47.85 0.0006178912    1.499    0.333
        27  -8.9460    160.8138      2.6075   4.0375058698e+01   4.4241825635e+01    0.3145424    0.2168631 -55.77  0.001743429    1.578    0.366
        28  -7.5879    220.8671      2.1944   3.4213979524e+01   2.9984885486e+01    0.1500086      0.11228 -11.89 0.0009001149    1.815    0.449
        29  -8.5584    175.5851      1.4935   3.8282971489e+01   4.0720294519e+01    0.1517116    0.1158006 -47.92 0.0006830953    1.362    0.266
        30  -8.9351    103.5443    145.2033   9.5478206862e+01   3.1782121875e+01    0.4224231    0.2840342  72.99   0.00179993    2.092    0.522
        31  -9.6460     13.8688    209.1578   1.2475693122e+02   2.8527469094e+01    0.1814926    0.1187827  70.09   0.00035595    1.222    0.182
        32 -10.0811     44.0872    142.9955   1.1152225885e+02   4.0673029144e+01    0.3527295     0.232659  65.59  0.001844685    1.683    0.406
        33  -9.8780     52.1050    135.8058   1.0818619779e+02   4.1553449438e+01    0.3722156    0.2258243  59.57  0.001249925    1.969    0.492
        34  -9.3076    104.2884    133.9214   9.2885896763e+01   3.4356837029e+01    0.3863093    0.2945382 -38.35  0.001875737    1.372    0.271
        35  -8.7470    108.5381    137.5527   9.2504572817e+01   3.2729743667e+01    0.2644975    0.2525561  55.77 0.0005958717    1.068    0.064
        36  -9.1474     89.5264    131.6753   9.6592522758e+01   3.7400120753e+01    0.3816153    0.2773241  15.74  0.001263014    1.734    0.423
        37  -7.5769     24.6929    134.7173   1.1576993440e+02   4.4533331450e+01    0.1259772    0.0848034 -45.70 0.0002246585    1.562    0.360
        38  -8.6989     14.8790    127.1860   1.1759131393e+02   4.7108197124e+01    0.1847949    0.1448306  85.41 0.0003788221    1.209    0.173
        39  -8.6907     27.5165    124.5212   1.1360547826e+02   4.6774137079e+01    0.2981025    0.1357842  55.09  0.001262268    2.931    0.659
        40  -8.9324     19.0959    123.8752   1.1597369826e+02   4.7598907226e+01    0.2852221    0.1616258 -84.16  0.001476239    1.694    0.410
        41 -16.8847    241.0076     91.7684   5.2770445876e+01   1.3580300077e+01     1.918701     1.707285  -6.43   0.01153121    1.271    0.213
        42  -9.5218      8.3906    121.2306   1.1873305498e+02   4.8965570300e+01    0.2454316   0.09155343 -68.56 0.0007360068    2.023    0.506
        43 -10.4617      2.8326    111.4681   1.1920962100e+02   5.1603255125e+01    0.5304086    0.2084349 -88.53  0.002172463    3.059    0.673
        44  -9.8052      4.2271    120.3966   1.1982706429e+02   4.9413996571e+01    0.2133735    0.1738764 -87.74  0.001445642    1.122    0.109
        45  -7.2222     41.3033    119.7022   1.0871361425e+02   4.6681590853e+01    0.1324378   0.09682823  74.37 0.0002444291    1.583    0.368
        46 -16.0097    235.0543     78.9551   5.0603796428e+01   1.6844493869e+01     1.221956    0.8920872 -68.85  0.006520615    1.534    0.348
        47 -15.7972    240.4473    121.8543   5.9728369416e+01   8.7395049778e+00     2.516127     2.188967  42.04   0.01497658    1.294    0.227
        48  -9.1375     16.1595    112.8184   1.1535702069e+02   5.0470122457e+01    0.1778287    0.1241595 -49.10 0.0005708602    1.332    0.249
        49  -9.7703    169.9041    197.9263   8.9590277047e+01   8.2978815430e+00    0.3320121    0.2070737 -39.71  0.001631728    1.713    0.416
        50  -7.8309     83.4232    107.7924   9.2969798310e+01   4.4131675430e+01    0.2048063    0.1293216 -42.89 0.0003695184    1.525    0.344
        51  -7.5938     41.1367    106.8249   1.0643203297e+02   4.9834035017e+01    0.1820686    0.1357672 -42.22 0.0002986488    1.284    0.221
        52 -10.1185     10.8150    105.3963   1.1597257035e+02   5.2585354070e+01    0.4006165    0.1534937  15.29  0.001800873    3.377    0.704
        53  -9.9017      3.9870    104.7210   1.1802025558e+02   5.3131836695e+01    0.2231694    0.2009893 -47.36  0.001459401    1.215    0.177
        54 -15.6140    236.2998     63.7949   4.6895081573e+01   1.8879508465e+01    0.9258426    0.5304863 -35.93  0.004603581    1.596    0.374
        55  -9.9776      4.9721     99.7204   1.1703729196e+02   5.4254510848e+01    0.2302025    0.1362032 -84.18 0.0009669724    1.617    0.382
        56  -8.5378     15.4867     99.0297   1.1350369290e+02   5.3800723485e+01    0.2007257     0.103004 -67.32 0.0009471883    1.577    0.366
        57  -8.3389     95.1719     96.3691   8.6267237220e+01   4.4780881036e+01    0.2645055    0.2012513  47.12  0.001273406    1.435    0.303
        58  -8.3265     44.1888     95.2170   1.0300376861e+02   5.2299175708e+01    0.1969225    0.1616541 -43.07 0.0004919444    1.099    0.090
        59  -6.9808     38.3096     95.7043   1.0514411667e+02   5.2770222468e+01    0.1269743   0.09944301  75.87 0.0004251667    1.592    0.372
        60  -8.3107     49.2139     88.8121   9.9744449736e+01   5.3252739431e+01    0.1919487    0.1718536 -57.22  0.000465493    1.107    0.097
        61  -7.7886     64.4950     88.0091   9.4138297763e+01   5.1534296382e+01    0.2114113    0.1291144 -53.19 0.0003775033    1.510    0.338
        62 -10.8393      6.8420     85.0200   1.1415702799e+02   5.7572385615e+01    0.6006944    0.2062257 -54.90  0.002686115    2.057    0.514
        63  -9.6639      1.7844     84.7700   1.1589665525e+02   5.7876475204e+01      0.24998    0.1848462 -74.45  0.001185783    1.197    0.165
        64  -9.2573      1.9563    194.9050   1.2625420847e+02   3.2563440748e+01    0.3498929    0.1210476  78.60  0.001508026    3.191    0.687
        65  -7.4942     83.2616    219.9285   1.1161488286e+02   1.8120252298e+01    0.1470117    0.1043778 -75.94 0.0008633143    1.470    0.320
        66  -9.6957     29.8940     79.0170   1.0448966002e+02   5.7394078218e+01     0.337942    0.1947954 -41.07     0.000469    1.534    0.348
        67  -9.5882      6.3721    218.1284   1.2665279041e+02   2.7395808103e+01    0.1913624    0.1439749  70.29 0.0002148203    1.060    0.056
        68  -7.8697     56.0214    216.9680   1.1695842921e+02   2.2329031728e+01     0.140392    0.1128535  82.09            0    1.100    0.091
        69  -7.6222     43.7377     61.3799   9.4246122552e+01   5.9889130345e+01    0.1704555    0.1186653   5.65 0.0007278117    1.581    0.368
        70 -10.0275     68.0464     43.0175   7.8013975099e+01   6.0015604870e+01    0.2380691    0.2076872 -11.30  0.001455193    1.055    0.052
        71  -7.6908     70.6514     39.2781   7.5546759474e+01   6.0193373324e+01    0.1198976     0.110054  81.38 0.0002621791    1.639    0.390
        72  -8.4570     83.9136     37.8833   7.0269623843e+01   5.8024796448e+01    0.2301389    0.1843643 -22.36 0.0005259272    1.213    0.175
        73  -7.5442    162.5209    193.5503   9.0401350112e+01   1.0441339226e+01    0.1407337    0.1292011  29.63 9.337434e-05    1.036    0.035
        74  -8.1245      2.7136    230.6588   1.2789171975e+02   2.5285748210e+01   0.09356409   0.07273732 -64.81 0.0003215603    1.640    0.390
        75  -9.4083    243.2697     19.0795   3.6144470743e+01   2.3264889840e+01    0.2095082    0.1319802  26.07 0.0009824609    3.299    0.697
        76  -7.6062     50.5481    215.5008   1.1794550609e+02   2.3297514763e+01    0.1205847   0.09891337  72.15 6.722773e-05    1.022    0.022
        77  -8.5275    168.1877    186.1896   8.7791687752e+01   1.0827367327e+01    0.2070412    0.1860006   0.98 0.0004387289    1.103    0.093
        78 -10.1730    171.4640    182.1127   8.6288133612e+01   1.1009653529e+01    0.3609949    0.2802577  51.23  0.001150267    1.406    0.289
        79 -11.3802    245.0891     13.9067   3.4904156778e+01   2.3469472910e+01    0.1963272    0.1494357  71.92 0.0005196214    1.369    0.270
        80 -15.4646    228.1478     87.4164   5.3585394704e+01   1.6966933726e+01      1.13343    0.6709421  41.51  0.005250681    2.055    0.513
        81  -9.1063    204.5511     12.7190   3.8151102068e+01   3.2668052029e+01    0.1274751    0.1194619  50.42 0.0004055143    1.264    0.209
        82  -9.5437     22.5922    226.6856   1.2415291539e+02   2.4137026942e+01     0.187121    0.1618015 -48.67  0.001399587    1.706    0.414
        83  -7.8994    143.8746    209.0980   9.7114866737e+01   1.0733391704e+01    0.1797374    0.1531576   4.96 0.0004105266    1.310    0.237
        84  -7.5520    120.7481    174.0238   9.6549161348e+01   2.2052269503e+01     0.176499    0.1246538 -55.97 0.0002324096    1.462    0.316
        85  -8.4532     85.5681    172.5526   1.0501569731e+02   2.8156393848e+01    0.3160624    0.2416451  -0.07 0.0005654668    1.907    0.476
        86  -9.4038    165.0707    169.7600   8.5239603651e+01   1.4679892638e+01    0.3236239    0.2864567 -59.92 0.0008985564    1.282    0.220
        87  -8.3341    154.7998    164.2998   8.6475416367e+01   1.7813041423e+01      0.25204    0.2002598 -56.31 0.0005992698    1.379    0.275
        88  -9.5156    180.7600    155.9977   7.8810527672e+01   1.4356152582e+01    0.6665127    0.3369065 -31.48  0.002561949    2.290    0.563
        89 -10.0592    178.3545    151.6468   7.8366073148e+01   1.5714499736e+01    0.4709111    0.4438661  60.32  0.001780335    1.192    0.161
        90  -9.1302    154.3042    157.3230   8.5116699100e+01   1.9397811039e+01    0.3281848    0.2376641 -44.55 0.0009129507    1.398    0.285
        91  -9.8402    144.5061    155.0911   8.6990888591e+01   2.1827105496e+01    0.4818472    0.4027979 -18.67  0.002340138    1.341    0.254
        92  -8.4617     95.1324    157.8225   1.0013207073e+02   3.0162685390e+01    0.2190562    0.1881862  77.29  0.000440174    1.203    0.169
        93 -10.2824     68.1304    145.4776   1.0526969330e+02   3.7169830688e+01    0.5754109    0.3226083  62.94  0.002426457    2.383    0.580
        94  -9.2121     61.7915    150.4438   1.0779994344e+02   3.6779130900e+01    0.2607244    0.2338241 -10.80  0.001222909    1.383    0.277
        95  -9.8572     63.0460    146.6492   1.0686282682e+02   3.7549424036e+01    0.2933735    0.2344063  55.69  0.001640569    1.297    0.229
        96  -8.5044     52.6416    150.4902   1.1026802899e+02   3.7883333438e+01    0.2271626    0.1153358 -66.54 0.0007675495    1.761    0.432
        97  -8.6587     21.3662    149.7391   1.1837589018e+02   4.1196549185e+01    0.1987065    0.1487526 -24.36 0.0007279819    1.838    0.456
        98  -7.5716     50.5769    233.5331   1.1938066210e+02   1.9690649995e+01    0.1182746   0.08905431  66.64  7.52924e-05    1.055    0.052
