#   1 NUMBER                 Running object number                                     
#   2 MAG_AUTO               Kron-like elliptical aperture magnitude                    [mag]
#   3 X_IMAGE                Object position along x                                    [pixel]
#   4 Y_IMAGE                Object position along y                                    [pixel]
#   5 X_WORLD                Barycenter position along world x axis                     [deg]
#   6 Y_WORLD                Barycenter position along world y axis                     [deg]
#   7 A_WORLD                Profile RMS along major axis (world units)                 [deg]
#   8 B_WORLD                Profile RMS along minor axis (world units)                 [deg]
#   9 THETA_WORLD            Position angle (CCW/world-x)                               [deg]
#  10 FWHM_WORLD             FWHM assuming a gaussian core                              [deg]
#  11 ELONGATION             A_IMAGE/B_IMAGE                                           
#  12 ELLIPTICITY            1 - B_IMAGE/A_IMAGE                                       
         1 -10.3517     25.5790      7.4239   1.1568732558e+02   7.3126310854e+01    0.4242063    0.2529323 -45.82  0.001844807    1.474    0.322
         2 -11.1979      6.5070     22.5346   1.3478842777e+02   7.1435249368e+01    0.3296636    0.2270885 -49.43 0.0002745252    1.123    0.110
         3 -11.1784     14.8547     21.9223   1.2942307577e+02   7.1077025211e+01    0.5461349    0.2556324 -53.44  0.001665625    1.629    0.386
         4 -12.5420     18.0413     12.9375   1.2356899134e+02   7.2764746953e+01    0.6566854    0.3842303  -6.23  0.001333679    2.054    0.513
         5 -10.6084    247.6041      9.7534   6.3855922516e+01   2.2772785877e+01    0.5322114    0.2957611  23.16  0.002526775    2.644    0.622
         6 -10.6429     87.7354     11.6562   8.8662872348e+01   6.1685873354e+01    0.4269335     0.297287  14.60  0.001540629    1.509    0.337
         7  -8.4580    197.7860      8.2593   6.7413918241e+01   3.4251392994e+01    0.2118314    0.1074187  -3.83 0.0008664599    2.387    0.581
         8 -10.7352    163.2353      4.1677   6.9836849477e+01   4.3406304556e+01    0.4099138    0.1908325  44.24  0.001347503    2.217    0.549
         9  -9.6120     50.9391      3.8744   9.8831371927e+01   7.0097892426e+01    0.2007239    0.1648746  -5.57 0.0003488105    1.025    0.024
        10  -8.4729    143.5000      2.4281   7.1875448276e+01   4.8732216637e+01     0.143554    0.1338114  37.48 6.610771e-05    1.024    0.023
        11 -10.4388     69.1841      4.0536   9.0935979516e+01   6.6618272694e+01     0.245137    0.2067452 -24.39 0.0002750926    1.213    0.176
        12  -9.6818    235.1309    228.6992   1.1332290679e+02   1.0080833031e-01      0.26201    0.1336048 -24.89  0.001569205    2.030    0.507
        13 -15.7119    195.0460     90.4527   9.2314325294e+01   2.4574572701e+01     7.364436     5.232506   5.78   0.03575694    1.564    0.361
        14  -8.6685    215.3976    187.2640   1.0996437456e+02   7.1513790046e+00    0.1494844    0.1059334 -33.43 0.0009395123    1.674    0.403
        15 -10.5557    215.8248    234.1653   1.1719536474e+02   1.9744242521e+00    0.3203297    0.2349451 -19.56  0.001548912    1.531    0.347
        16  -9.7725    211.0526    181.8095   1.0976319890e+02   8.4695532114e+00    0.3859085    0.1722807 -27.45  0.001910449    2.324    0.570
        17  -9.5476    210.5570    175.7508   1.0875351392e+02   9.3132063148e+00    0.3085314    0.1302744 -35.93  0.001258378    2.505    0.601
        18  -8.8105    218.7340    178.1205   1.0775246648e+02   7.7649358398e+00    0.1746223    0.1387653 -24.91 0.0008324782    1.417    0.294
        19  -8.5045    214.6379    176.8328   1.0823068162e+02   8.5476475127e+00    0.1557669    0.1065478 -32.44 0.0008751595    1.620    0.383
        20  -8.5937    215.4243    173.2199   1.0742393025e+02   8.8818555961e+00    0.2064858    0.1083564 -29.14 0.0009380574    1.881    0.468
        21  -8.5277    205.2710    177.6327   1.1004552370e+02   9.8892365835e+00    0.1048023    0.1008763 -53.10 0.0003805926    1.666    0.400
        22  -9.3753    197.6226    176.0669   1.1116174581e+02   1.1293961815e+01    0.2854178     0.138522 -36.13  0.001431423    2.194    0.544
        23  -9.2174    205.1702    169.5088   1.0856029141e+02   1.0979621828e+01    0.2309832    0.1583719 -44.81  0.001292003    2.005    0.501
        24  -8.5211    233.2604    169.6199   1.0370626268e+02   6.5974079119e+00    0.1071616   0.09173047 -34.19 0.0004715045    1.672    0.402
        25  -9.3166    230.6985    198.5151   1.0930385565e+02   3.6961563051e+00    0.2379347    0.1583781 -33.22  0.001499937    1.856    0.461
        26 -14.1661    245.9136    214.1896   1.0942364434e+02   1.2297242617e-01      4.23869     1.071507 -32.46   0.01909482    4.177    0.761
        27  -9.7310    212.5986    163.6325   1.0609295118e+02   1.0568835272e+01    0.3134847     0.195135 -36.25  0.001207868    1.779    0.438
        28  -8.8347    199.4779    165.0549   1.0875987097e+02   1.2510581226e+01    0.1864119    0.1183132 -29.44  0.001028486    1.581    0.368
        29 -13.0499    246.4742    165.6248   1.0081248851e+02   5.0955196474e+00     2.633971    0.4399845 -34.29  0.008344975    5.822    0.828
        30  -9.4978    205.1453    161.7413   1.0706869827e+02   1.2038291817e+01     0.324531    0.1796428 -31.40  0.001690434    1.799    0.444
        31 -10.1448    177.0988    160.0439   1.1213339008e+02   1.6994366717e+01    0.3482499    0.2334894 -51.16  0.001812705    2.026    0.506
        32  -9.0975    196.8627    157.0883   1.0768788535e+02   1.4077685534e+01    0.2582021    0.1614207 -33.08  0.001384031    1.629    0.386
        33  -9.1500    216.1466    156.5853   1.0406510913e+02   1.0924499097e+01    0.2134343    0.1591583 -29.42   0.00128135    1.417    0.294
        34 -14.7339    245.1259    123.9190   9.2317283706e+01   1.0273252845e+01     4.718872      2.33559 -20.84    0.0231365    1.798    0.444
        35  -9.0080    205.6944    154.2186   1.0546294040e+02   1.2990036888e+01    0.1894809    0.1560037 -31.23 0.0008641892    1.387    0.279
        36  -9.9912    217.1432    224.2548   1.1557296593e+02   2.7974452510e+00    0.2509152    0.2074929 -34.00  0.001217479    1.849    0.459
        37  -8.5098    211.6112    151.7977   1.0389365596e+02   1.2325562869e+01    0.1736862    0.1135763 -36.18 0.0006577739    1.665    0.399
        38  -8.7941    202.4489    151.0981   1.0542144577e+02   1.3985208895e+01    0.1963687    0.1203018 -29.35  0.001027195    1.590    0.371
        39  -9.5729    215.4379    149.2807   1.0269071687e+02   1.2022334094e+01    0.2817184    0.1903484 -41.03  0.001210675    1.819    0.450
        40  -8.9594    196.6913    150.1871   1.0631486546e+02   1.5113593779e+01    0.1967239    0.1635048 -34.49  0.001001565    1.386    0.279
        41 -10.9842    191.0055    148.3013   1.0701547805e+02   1.6391460393e+01    0.3295884    0.2663121  50.57  0.001697919    1.550    0.355
        42 -12.1532    182.1931    142.8154   1.0760181254e+02   1.8821052320e+01    0.6227852    0.4974583 -87.26  0.003129182    2.373    0.579
        43 -10.0759    224.8709    249.5259   1.1781666877e+02  -5.4514501125e-01    0.2344028    0.2008543  10.52   0.00205548    1.548    0.354
        44 -11.0845    173.1759    139.1115   1.0865835660e+02   2.1074224377e+01    0.3138608    0.2593528 -55.97  0.001231829    1.602    0.376
        45 -10.6189    229.2166    249.4167   1.1712696206e+02  -1.0434578057e+00    0.4069479    0.1793059  28.65  0.002623339    1.642    0.391
        46 -11.1217    156.3326    144.5247   1.1342893032e+02   2.3203699243e+01    0.4417991    0.2564127 -46.69  0.001728447    1.912    0.477
        47  -9.0839    207.8425    144.9226   1.0313285656e+02   1.3930433774e+01    0.2405837    0.1644957 -27.82   0.00133008    1.408    0.290
        48  -9.6324    211.8219    228.0021   1.1699110469e+02   3.0998346053e+00    0.2258707    0.1625686 -11.47 0.0009212571    1.385    0.278
        49 -10.3033    206.2935    236.9285   1.1913316414e+02   2.8971722205e+00     0.278921    0.2092208  32.34  0.001414091    1.390    0.280
        50  -9.5205    202.0331    232.3492   1.1922559754e+02   3.9085003508e+00    0.2180764    0.1551992 -28.70  0.001381146    1.697    0.411
        51  -9.3026    214.1662    142.4332   1.0146462341e+02   1.3178093768e+01    0.2437056    0.1555086 -40.55 0.0008311856    1.839    0.456
        52  -9.4122    207.5873    231.6685   1.1820571148e+02   3.2669792961e+00    0.2272058    0.1233837 -13.15  0.001108317    2.152    0.535
        53 -11.3708    166.5700    140.7598   1.1041303739e+02   2.2007934455e+01    0.3550197    0.2599895 -60.84  0.001770591    2.011    0.503
        54 -11.5481    163.1329    136.3154   1.1019801322e+02   2.3410092950e+01    0.3365259    0.2528294 -41.24  0.001202259    1.415    0.294
        55  -9.9717    199.2125    226.8748   1.1895228513e+02   4.8581617023e+00     0.263146    0.1854971 -32.72  0.001835734    1.766    0.434
        56 -10.7612    156.0824    136.5522   1.1180818036e+02   2.4671385081e+01    0.4178437    0.2103566 -50.73  0.001726376    2.470    0.595
        57  -9.1585    201.5936    221.2360   1.1775063380e+02   5.1602190492e+00    0.2275161    0.1014079 -30.64  0.001278299    2.545    0.607
        58  -9.4088    138.9547    143.5560   1.1717968097e+02   2.6449114811e+01     0.303806     0.188634 -44.46  0.001495599    1.685    0.406
        59 -10.5649    180.6487    134.3725   1.0606825792e+02   2.0467874950e+01    0.3971497    0.2991807 -60.87  0.001988739    2.042    0.510
        60 -11.2290    209.2008    247.2096   1.2000155543e+02   1.5360211595e+00    0.4546373    0.3449259   9.01   0.00305068    1.181    0.153
        61  -9.3809    142.8971    131.6445   1.1377810860e+02   2.8006669990e+01    0.2697979    0.2069479 -48.71 0.0008789839    1.412    0.292
        62  -9.5232    202.3525    249.9451   1.2145064052e+02   2.1066813914e+00    0.2598248    0.1329802  14.21  0.001615358    2.009    0.502
        63 -10.4028    201.9789    242.0831   1.2051985680e+02   2.9212011673e+00    0.3149405    0.1770956 -36.10  0.002122493    2.283    0.562
        64 -10.9244    193.2855    246.8678   1.2255365380e+02   3.5202606106e+00    0.4228632    0.2320897 -30.55  0.002925722    2.201    0.546
        65  -9.9392    134.7030    126.4040   1.1460117690e+02   3.0527798578e+01    0.3088727    0.2279211 -49.25  0.001316012    1.433    0.302
        66 -10.4625    186.6628    247.4858   1.2372570567e+02   4.2778886179e+00    0.3579035    0.2117704  -6.25  0.002367475    2.124    0.529
        67  -9.9041    167.9788    250.0201   1.2714952219e+02   6.3281539361e+00    0.2259352    0.1116453  28.83 0.0004167817    1.561    0.359
        68 -10.5626    225.0196    241.6996   1.1675226728e+02   1.3541647378e-01    0.5241382    0.4479952  30.93  0.004361738    1.739    0.425
        69  -8.7049    145.8027    230.3825   1.2883293232e+02   1.1497519450e+01    0.1537178   0.08278402  27.96  0.000341432    1.589    0.371
        70  -9.4165    229.1268    228.1802   1.1419929407e+02   8.9121285205e-01    0.2242815    0.1309548 -28.34  0.001356352    1.931    0.482
        71  -9.6839    228.1349    222.2617   1.1348509834e+02   1.5885394771e+00    0.2491478    0.1604277  39.91  0.001445117    1.817    0.450
        72  -9.2955    206.0071    226.1507   1.1770080607e+02   4.0461702281e+00     0.174905    0.1370065  -2.95 0.0009039677    1.252    0.201
        73 -10.7652    220.0406    114.8854   9.4187534644e+01   1.5948470163e+01     0.319456    0.1980959 -37.40   0.00111634    1.656    0.396
        74  -9.1162    190.5080    225.7669   1.2029543170e+02   6.1312613130e+00    0.2166751     0.106353 -38.46  0.001085455    2.504    0.601
        75  -9.0628    184.5005    227.0246   1.2151007495e+02   6.7865216973e+00    0.1453829    0.1031049 -25.15  0.001036941    1.611    0.379
        76  -9.2714    216.7504    228.6198   1.1626608331e+02   2.4066577838e+00     0.167803    0.1123522   8.13 0.0005360607    1.217    0.179
        77  -7.9458    185.3193    221.3268   1.2059426374e+02   7.3400988895e+00    0.1160629   0.07156896   9.83 0.0003824012    1.681    0.405
        78  -9.2204    150.5376    110.3393   1.0694655641e+02   3.0588676770e+01    0.2685493    0.1406615 -43.93 0.0009062348    1.956    0.489
        79  -9.3298    210.8509    218.5890   1.1579053372e+02   4.2151415645e+00    0.2380541    0.1441663 -35.53  0.001552031    2.053    0.513
        80  -9.0056    193.2519    215.7352   1.1840497504e+02   6.9153218504e+00    0.2256321    0.1358815 -12.77   0.00137836    1.907    0.476
        81  -9.1555    219.5515    216.9377   1.1408745890e+02   3.2386768278e+00    0.3113483    0.1304184 -36.79  0.001531836    2.917    0.657
        82  -9.5535    216.7972    211.9592   1.1378494098e+02   4.1340652856e+00    0.2441889    0.1529108 -27.87  0.001350918    1.738    0.425
        83  -8.7603    205.1937    217.5199   1.1659378684e+02   5.0884244134e+00     0.186937    0.1399711 -15.16   0.00136092    1.380    0.276
        84  -8.7797    228.1322    217.1661   1.1271415719e+02   2.0953810820e+00    0.1361061    0.1109411   8.78 0.0005387293    1.293    0.227
        85 -10.2686    160.2262     99.9360   1.0197911005e+02   3.0500548098e+01    0.3601974    0.2043582 -34.97  0.001200289    1.713    0.416
        86  -8.9030    200.6024    215.3007   1.1705722445e+02   5.9595867745e+00    0.1784481    0.1041673 -35.64  0.001117348    2.043    0.511
        87  -8.6612    225.9474    213.2494   1.1246582712e+02   2.7795103223e+00    0.1550338    0.1124788  12.19 0.0006680537    1.024    0.024
        88  -8.9717    157.8666     90.0948   9.9774077200e+01   3.2774999382e+01    0.2786111    0.1979822 -25.17  0.001199417    1.393    0.282
        89  -9.3887    224.7286    207.9732   1.1183556581e+02   3.4941966614e+00    0.2623131    0.1371787 -39.17  0.001322831    2.630    0.620
        90  -9.4040    192.9461    209.7813   1.1758151924e+02   7.6653923186e+00    0.2200186      0.15967 -52.31   0.00138472    2.344    0.573
        91  -9.0009    205.7445    207.4700   1.1497711216e+02   6.1491305108e+00    0.2611586    0.1216609 -21.00  0.001341395    2.621    0.618
        92  -9.3476    126.8662    207.6191   1.2976719893e+02   1.7247951114e+01    0.2356918    0.1215698 -36.32  0.001232099    2.733    0.634
        93  -8.9958    197.1753    204.0987   1.1595985748e+02   7.7554014986e+00    0.2381216    0.1400159 -17.69  0.001403454    1.880    0.468
        94  -8.9033    223.5015    201.0803   1.1092356514e+02   4.4061637383e+00    0.1592505   0.09975258 -20.62 0.0007964179    1.557    0.358
        95  -9.5114    223.8843    183.9686   1.0792616288e+02   6.2972599938e+00    0.2782516    0.1545878 -33.68  0.001378288    1.964    0.491
        96  -9.8792    230.0698    187.1306   1.0744955084e+02   5.0396079415e+00    0.3278536     0.156801 -34.43  0.001771019    2.291    0.564
        97  -9.8231    230.2432    180.4061   1.0621598138e+02   5.7828471705e+00    0.6237835    0.2363898 -19.60  0.002595448    3.388    0.705
        98  -9.0679    150.5205     78.6931   9.8089581255e+01   3.6447396562e+01    0.2939965    0.1478937 -29.26  0.001120027    2.054    0.513
        99  -9.8251    167.3682     76.5483   9.3712472121e+01   3.2968723384e+01    0.4349091    0.2643956 -11.80  0.001464303    2.039    0.510
       100  -9.5812    223.4847    173.1134   1.0600845979e+02   7.6571987552e+00     0.335918    0.1648315 -38.37   0.00145589    2.411    0.585
       101 -10.0991    226.6568    177.7005   1.0632192885e+02   6.6278969547e+00    0.4748044    0.2150172 -19.10  0.002295872    2.407    0.585
       102  -9.3140    163.3921     70.5115   9.2691254592e+01   3.4882518015e+01    0.3133591    0.1782181 -27.42  0.001302046    1.723    0.419
       103  -9.4130     26.5322     70.4053   1.3662373482e+02   5.8782708250e+01    0.2162738    0.2023437  55.32 0.0006609507    1.233    0.189
       104  -9.7070    227.6924    171.6663   1.0502270680e+02   7.1936874640e+00    0.2928728    0.1729322 -43.48  0.001367051    2.534    0.605
       105  -9.8449    231.1463    193.8315   1.0843660535e+02   4.1429702498e+00    0.3087393    0.1651239 -28.42  0.001834582    1.886    0.470
       106 -14.2459    248.0836     85.2459   8.2826651621e+01   1.4522340382e+01     6.002431    0.8510043 -28.17   0.01642371    5.260    0.810
       107  -9.0374    176.1684    197.7096   1.1882343472e+02   1.1629714173e+01    0.1846402    0.1566045 -37.24 0.0008925545    1.478    0.324
       108  -8.7940     19.5730     59.5027   1.3737520098e+02   6.1941790055e+01    0.1316365    0.1056543 -60.81 5.925731e-05    1.020    0.019
       109  -8.8658    202.2021    197.2068   1.1396544213e+02   7.8733974780e+00    0.1629029   0.08737057 -42.52 0.0008726642    2.498    0.600
       110  -8.9189     11.7034     58.2914   1.4058485899e+02   6.2702062826e+01    0.1209686   0.08792443  72.15 0.0006978115    1.558    0.358
       111  -9.1715    184.0188    196.4939   1.1716163492e+02   1.0631874354e+01    0.2443093    0.1480853 -42.02  0.001424517    2.032    0.508
       112 -11.3359    193.2228     38.4777   7.7338824024e+01   3.2215003020e+01    0.5297599    0.2928571  12.73  0.002021237    2.714    0.632
       113  -8.9579    133.4737    196.0145   1.2697282628e+02   1.8137482465e+01     0.159559    0.1205417 -51.45 0.0007711582    1.584    0.369
       114  -9.4399    224.2411    192.1230   1.0929345248e+02   5.3039400789e+00    0.3051393    0.1518141 -28.93  0.001703315    2.025    0.506
       115  -9.6593    219.7720    239.9395   1.1734816671e+02   9.3342851444e-01    0.2498364    0.1398787 -31.75 0.0009695012    2.166    0.538
       116  -9.0573    215.0000    191.9258   1.1083722569e+02   6.6529182906e+00     0.169812   0.06228619 -32.58 0.0006470375    2.838    0.648
       117  -9.4969    214.2432    241.0106   1.1838056711e+02   1.5090237996e+00    0.1907269    0.1477682  -6.64  0.000964307    1.354    0.261
       118  -8.8253    178.8358    188.8407   1.1690882334e+02   1.2451869436e+01    0.1535407    0.1459149  36.09 0.0007155079    1.384    0.277
       119  -8.9847    220.4057    187.7920   1.0919373380e+02   6.3557416983e+00    0.2018079    0.1044074 -33.39   0.00103032    2.072    0.517
       120  -8.9397    149.3181     34.4814   8.3281803396e+01   4.3734720989e+01    0.2717629    0.1345953 -26.07 0.0008314371    1.951    0.487
       121 -11.7221    239.6823     32.4440   7.0310302974e+01   2.2253121047e+01    0.5393614    0.3417441  11.73  0.002708179    1.986    0.497
       122  -8.5182    151.4820    249.5275   1.2990236160e+02   8.4265590457e+00    0.1053825   0.07617968  28.92 0.0008096238    1.027    0.026
       123 -10.7278    176.7080    244.7440   1.2507126871e+02   5.8125388398e+00     0.370552    0.2090977 -14.80  0.002300097    2.517    0.603
       124 -11.0716     10.0582     29.5630   1.3482304931e+02   6.9640217727e+01    0.5228481    0.2586265 -44.45   0.00183144    1.654    0.395
       125 -11.0657      4.6653     29.1117   1.3779484950e+02   7.0007952730e+01    0.2701092    0.1944193 -50.56   0.00028718    1.105    0.095
       126  -8.6584    157.3167    245.3546   1.2845696957e+02   8.1835635500e+00    0.1057388   0.06823429   9.75 0.0007045903    1.744    0.427
       127  -8.6560    217.8884    183.3425   1.0884127150e+02   7.2559410096e+00    0.1787603    0.1581644 -12.84 0.0009448071    1.397    0.284
       128  -9.5989    236.5239     29.0215   6.9698615328e+01   2.3279035050e+01    0.2085617    0.1154665 -22.84  0.000953881    1.584    0.369
       129  -9.0812     42.1687     27.9160   1.1643178158e+02   6.7110598275e+01    0.1907771    0.1639234 -45.20 0.0003007597    1.174    0.148
       130 -10.9211    243.6593     23.4942   6.7639686597e+01   2.2314819245e+01    0.3954233    0.2266331  -0.05  0.001903641    2.147    0.534
       131  -9.2874     68.0739     23.3071   1.0202014442e+02   6.3962526963e+01    0.1902026    0.1709492   6.18 0.0003662959    1.094    0.086
       132 -10.6295    218.5327    247.7721   1.1858433260e+02   3.6108718388e-01    0.3542615    0.2377746 -33.91   0.00271091    2.088    0.521
       133  -8.3035     78.5337     15.4795   9.3843085379e+01   6.3153519742e+01    0.1448666    0.1263448  -0.34 0.0003379663    1.009    0.009
       134 -10.4904    170.2146    240.5791   1.2569110735e+02   7.0983633862e+00    0.2721946    0.1576196   2.73  0.001607902    2.433    0.589
       135 -10.6495    190.5086    234.8237   1.2150011300e+02   5.1294592295e+00    0.3701858    0.2868576 -39.60  0.002745559    1.842    0.457
       136  -9.6832     29.7304     13.0148   1.1615696256e+02   7.1588983365e+01     0.200357    0.1665693 -12.10 0.0003361225    1.134    0.118
       137  -9.7782    229.7051    235.7781   1.1519463059e+02   1.1018715114e-01     0.270266     0.153034 -28.92   0.00188926    2.035    0.509
       138  -8.9068    225.4284    231.4825   1.1526689391e+02   1.0362930616e+00    0.1652027   0.09276595 -30.50 0.0006228662    2.076    0.518
       139  -9.3519    223.1182    226.9070   1.1498127649e+02   1.7683652687e+00    0.1939739    0.1390602  -5.94 0.0009055148    1.288    0.224
       140 -10.4402    183.5712    238.7271   1.2317707276e+02   5.5965952996e+00    0.3544838    0.1925236 -32.30  0.002338881    2.235    0.552
