#   1 NUMBER                 Running object number                                     
#   2 MAG_AUTO               Kron-like elliptical aperture magnitude                    [mag]
#   3 X_IMAGE                Object position along x                                    [pixel]
#   4 Y_IMAGE                Object position along y                                    [pixel]
#   5 X_WORLD                Barycenter position along world x axis                     [deg]
#   6 Y_WORLD                Barycenter position along world y axis                     [deg]
#   7 A_WORLD                Profile RMS along major axis (world units)                 [deg]
#   8 B_WORLD                Profile RMS along minor axis (world units)                 [deg]
#   9 THETA_WORLD            Position angle (CCW/world-x)                               [deg]
#  10 FWHM_WORLD             FWHM assuming a gaussian core                              [deg]
#  11 ELONGATION             A_IMAGE/B_IMAGE                                           
#  12 ELLIPTICITY            1 - B_IMAGE/A_IMAGE                                       
         1 -11.5082    111.8232     19.1055   5.4067241806e+01   5.5528171609e+01    0.6182398    0.4454474  52.73  0.003083532    1.325    0.245
         2 -11.3647    101.8490     16.4887   5.5343181404e+01   5.8372595724e+01     0.488363    0.4436483  27.79  0.001467447    1.093    0.085
         3 -10.9992    156.9916      9.0117   4.2243488845e+01   4.4703769411e+01    0.5586506    0.3246543  38.90   0.00248276    2.055    0.513
         4 -10.3071    154.7355     17.2034   4.5436997871e+01   4.4450651735e+01    0.5748785    0.2518197 -10.80  0.001979877    3.342    0.701
         5 -10.8218     37.8702     17.5354   8.2329577168e+01   7.1392586568e+01    0.4287956    0.2473898  19.97  0.001482413    2.111    0.526
         6 -10.3365     87.0026     17.2784   6.0015818564e+01   6.1869920283e+01    0.3151912    0.2108774 -24.42 0.0008403336    1.531    0.347
         7 -10.8331     57.3198     13.7441   6.9627564082e+01   6.8742445768e+01     0.528094    0.3234717  27.51  0.001663263    1.847    0.459
         8 -10.2315     78.7257     14.8285   6.1506879879e+01   6.4100934815e+01    0.4131523    0.2100327 -22.50  0.001749196    2.158    0.537
         9 -10.1831     10.4794     15.1959   1.0022628949e+02   7.4842213276e+01    0.2919436    0.2829202 -88.46  0.002073631    1.276    0.216
        10 -11.4296    181.1964     13.2437   4.0920251244e+01   3.7982315707e+01     1.002997    0.3524242  48.96  0.003517752    3.397    0.706
        11  -9.7379    185.9930     13.5048   4.0517387206e+01   3.6742051858e+01    0.2409011    0.1883107 -40.43 0.0008467009    1.195    0.163
        12 -11.6099    122.2389     11.0926   4.8371069907e+01   5.3733581212e+01    0.5603666    0.3470113  49.41  0.001278275    1.566    0.361
        13  -9.6843     67.2080     12.9181   6.4804651044e+01   6.6873327431e+01    0.2756124    0.1586377  28.89  0.001040524    2.059    0.514
        14 -10.2797    210.9095     10.3426   3.7455632106e+01   3.1007837460e+01    0.4134005    0.2438451 -47.68  0.002021027    1.484    0.326
        15 -10.4582    212.8107      6.1788   3.6194064822e+01   3.0973437977e+01    0.3192797    0.2077823 -34.44 0.0008522235    1.368    0.269
        16  -9.5814     19.1394     10.9199   9.1370763487e+01   7.4969706837e+01    0.1863329    0.1583386 -30.28 0.0004936492    1.026    0.025
        17 -11.0980     11.9856      6.8601   9.4821059338e+01   7.6440297155e+01     0.511389    0.4299899 -88.65  0.003292228    1.688    0.408
        18  -9.4358      7.1457      3.2201   9.6989357078e+01   7.7549017593e+01    0.1811671    0.1606964 -46.41 0.0004500028    1.184    0.155
        19  -9.8544    127.6591      5.0304   4.4865534495e+01   5.2897196739e+01    0.2794336     0.195177  58.93 0.0008037281    1.339    0.253
        20  -9.0417     93.0877     10.2588   5.4640407396e+01   6.1278055483e+01    0.1996435    0.1743944  56.78 0.0004875918    1.116    0.104
        21  -9.6878     47.0729      9.3958   7.2140418446e+01   7.1293684904e+01    0.2808626    0.2339642   5.78  0.001693846    1.141    0.124
        22  -8.7887     40.2507      8.6306   7.5523530370e+01   7.2568726431e+01    0.1321605    0.1150754 -12.90 0.0003166003    1.026    0.026
        23 -10.4909     38.3521      4.8578   7.4159209218e+01   7.3469986243e+01    0.3211957    0.2254093 -24.62 0.0002563671    1.337    0.252
        24 -10.5891     24.9223      5.6998   8.3815801535e+01   7.5282431233e+01    0.4479731    0.3342535 -61.69  0.001297764    1.836    0.455
        25 -10.3321     78.6236      6.4790   5.6947464033e+01   6.5159804057e+01    0.3367331    0.2265948  32.95  0.001701255    1.510    0.338
        26  -9.7801    216.8403      8.0899   3.6423819214e+01   2.9858481562e+01    0.2725812    0.1990384 -18.59  0.001569558    1.453    0.312
        27  -8.8302     57.3720      7.1897   6.5610940590e+01   6.9673830818e+01    0.1854094     0.116676 -38.93 0.0005904821    1.671    0.402
        28  -9.7003    108.3832      6.1523   4.8935911987e+01   5.7854555410e+01    0.4191657    0.2108495 -43.91  0.001759746    2.194    0.544
        29 -10.1483    103.2714      1.5241   4.7808612500e+01   5.9608296723e+01    0.5099818    0.2361324  79.68  0.001259021    2.694    0.629
        30  -9.0691      2.1807      5.1514   1.0255542158e+02   7.7479248504e+01    0.1485413    0.1395724 -84.87 0.0005675245    1.329    0.248
        31 -10.1865     90.7510      3.5804   5.1810086167e+01   6.2565247941e+01    0.3281769    0.2434263  68.82 0.0007079915    1.374    0.272
        32 -10.7718     84.7317      1.4404   5.2281682937e+01   6.4244849223e+01    0.4303289    0.1892726  70.84  0.001659872    2.703    0.630
        33  -9.7320     17.2898      3.1787   8.8124738172e+01   7.6630080041e+01     0.287989    0.2107347 -55.87  0.001651639    1.556    0.357
        34 -10.2715    185.5236      1.9831   3.7057905362e+01   3.7976906402e+01    0.2675658    0.2028019  43.80 0.0009721898    1.533    0.348
        35 -11.0737    149.8210     18.5701   4.6647360974e+01   4.5601053263e+01    0.3639649    0.3203374 -57.59 0.0005768409    1.122    0.109
        36  -9.3754     66.8725      1.7367   5.8237950213e+01   6.8347688459e+01    0.3633447    0.1732012  69.37  0.001406602    3.079    0.675
        37  -8.4729     42.3583      2.2699   6.9991524489e+01   7.3171581355e+01    0.1340556   0.09061428  13.43 0.0006996325    1.643    0.391
        38  -8.5997    242.1879      1.3722   3.3243811264e+01   2.4967880004e+01    0.1554779    0.1000972 -75.27 0.0003883437    1.519    0.342
        39  -8.4145    170.3542      1.2915   3.8176944108e+01   4.1916189491e+01     0.142853   0.09652634  43.75 0.0007028807    1.681    0.405
        40  -9.7059     28.9657    109.5512   1.1240418196e+02   5.0448629308e+01     0.259973    0.1563641 -57.26 0.0007542695    1.593    0.372
        41  -8.9511    128.3120    109.3241   8.0782256983e+01   3.5109693999e+01     0.153723    0.1212759  -2.70 0.0005416825    1.658    0.397
        42  -9.0156    100.4718    109.0229   8.8561925986e+01   4.0656863958e+01     0.225619    0.1464164 -53.82 0.0005630723    1.537    0.349
        43  -9.0339     91.5757    109.2056   9.1324827337e+01   4.2214034621e+01    0.2105235    0.1357469 -45.15  0.000942059    1.619    0.382
        44 -10.5316      6.1720    107.0505   1.2001782976e+02   5.2737422219e+01    0.4199316    0.1932847  71.00  0.001434144    2.173    0.540
        45 -10.1785      8.9504    103.7270   1.1878349998e+02   5.3405556338e+01    0.4014646     0.219156 -44.27  0.002027451    2.081    0.520
        46  -9.4626    123.2286    103.9744   8.0772230164e+01   3.7313798438e+01    0.3124192     0.116934 -44.18  0.001042252    2.705    0.630
        47  -8.5516     72.4059    107.4689   9.7123152013e+01   4.5768673547e+01    0.1448373    0.1343838 -84.14 0.0001107111    1.023    0.022
        48 -10.8140     79.9126    103.9406   9.3861797674e+01   4.5456467707e+01    0.3938454    0.3571608  52.46  0.001516179    1.110    0.099
        49  -9.8937    142.8692    103.3277   7.5540091544e+01   3.3264703132e+01    0.3782797    0.2383735 -10.35  0.001370093    2.912    0.657
        50  -9.8889    108.3322    103.2676   8.4805108453e+01   4.0483552216e+01    0.3481643    0.2477488  27.33 0.0006185138    1.633    0.388
        51  -9.1706     64.8809    103.9203   9.8939725846e+01   4.7754549060e+01    0.2041264    0.1834436 -46.25  0.001138858    1.173    0.148
        52  -8.9151     16.5087    104.5220   1.1619349845e+02   5.2712595978e+01    0.1310812    0.1116289 -88.16 0.0001530755    1.003    0.003
        53 -10.7266     53.6957     98.7064   1.0185089257e+02   5.0567918470e+01    0.4654958    0.3169736 -47.80  0.002326751    1.500    0.333
        54  -9.3183     95.0433    101.8462   8.8484294734e+01   4.3336660858e+01    0.2368238    0.2033182  79.50 0.0009534183    1.271    0.213
        55  -9.4758    188.9722    101.5004   6.5288539672e+01   2.3547559110e+01    0.2173762    0.1423859  49.78  0.001038016    1.605    0.377
        56  -9.8502      1.3495    100.7429   1.2122433930e+02   5.4567114840e+01    0.2183344    0.1006074 -86.94 0.0005593443    1.856    0.461
        57 -10.3442     69.6384     97.1725   9.5818135162e+01   4.8737690062e+01    0.3698536    0.2846387 -81.08 0.0009414683    1.385    0.278
        58  -9.1626     21.9171     97.6752   1.1344509999e+02   5.4053301377e+01    0.2134849    0.2065293  27.06 0.0003982642    1.208    0.172
        59 -10.0563     17.0003     96.0080   1.1507885014e+02   5.4837161676e+01    0.3833098    0.2070738  64.49  0.001843274    1.984    0.496
        60  -8.4423     28.6659     97.7502   1.1093907169e+02   5.3480942687e+01    0.1300391   0.09512703 -38.33 0.0002177011    1.557    0.358
        61  -9.2951    147.7987     96.1894   7.2435476026e+01   3.3593948038e+01    0.2068351      0.17762  13.08 0.0003607715    1.315    0.239
        62 -10.4164     78.5237     95.7068   9.2384769373e+01   4.7690628397e+01    0.5378429    0.2935675  26.43  0.002166187    2.277    0.561
        63 -10.5528     35.6474     95.1874   1.0791741497e+02   5.3490250941e+01    0.4142213    0.2616881 -34.13  0.001736446    1.958    0.489
        64  -9.6961     88.7522     92.9273   8.8226655030e+01   4.6587251516e+01     0.396071    0.3062081  -3.52  0.001849936    1.787    0.440
        65  -9.6057     86.5993     88.7510   8.7826409647e+01   4.7962804322e+01    0.3257329    0.2206483 -72.34  0.001247089    1.798    0.444
        66  -9.3605      1.3999     93.9688   1.2069803949e+02   5.6256021970e+01    0.1892803    0.1031265 -81.14 0.0003918741    1.521    0.343
        67  -9.9838    132.3678     92.9951   7.5358640115e+01   3.7673963446e+01    0.2646772    0.2198547  65.03 0.0009364337    1.314    0.239
        68  -9.0806     51.9660     91.8761   1.0110235631e+02   5.2513906345e+01    0.2215853    0.1568553  69.73 0.0004785313    1.626    0.385
        69  -8.9991     15.7669     89.6073   1.1478076795e+02   5.6548813427e+01    0.2522588    0.1279824 -62.79  0.001230291    1.681    0.405
        70 -11.1127    120.1281     87.8008   7.7165132334e+01   4.1446713619e+01    0.4973626    0.4011899  30.88  0.001250015    1.351    0.260
        71 -10.2807    124.5301     85.5134   7.5274973555e+01   4.0958571750e+01     0.363022    0.2773305 -12.24  0.001064869    1.701    0.412
        72  -9.1759     47.7103     88.9879   1.0212763772e+02   5.3764292833e+01    0.1976477    0.1636734 -65.28 0.0002254675    1.105    0.095
        73  -9.1634     32.4662     89.4774   1.0818946727e+02   5.5253929854e+01    0.1370999    0.1206834 -85.59 2.391088e-05    1.048    0.046
        74  -8.8474    139.8318     88.3784   7.2152036572e+01   3.6929339536e+01    0.2237796     0.141426  39.03 0.0009474535    1.701    0.412
        75 -11.7565    132.0432     86.5548   7.3587233692e+01   3.9061171358e+01     0.380264    0.3175294  20.69 0.0003826637    1.374    0.272
        76  -9.2909    109.2214     88.2189   8.0448687474e+01   4.3676825747e+01    0.2531719    0.1804497  88.19 0.0009604223    2.108    0.526
        77 -10.8413    175.1721     82.3545   6.2754737371e+01   2.9845784665e+01    0.4456512    0.2916538 -11.01  0.001897694    2.058    0.514
        78  -8.9519     81.5476     84.8524   8.8494600203e+01   4.9784580467e+01    0.2192625    0.1422991 -52.45 0.0004010832    1.483    0.326
        79 -10.3507     76.0953     83.1728   8.9975022725e+01   5.1122555017e+01    0.3035414    0.2421483 -62.80 0.0005433051    1.238    0.192
        80 -10.0138     46.3641     82.8484   1.0133822266e+02   5.5475567325e+01    0.4602992    0.1623761 -49.04  0.001414698    2.752    0.637
        81  -9.0676     33.8125     84.1004   1.0669213016e+02   5.6499016865e+01    0.2147895    0.1693259  74.30 0.0008283497    1.325    0.245
        82 -11.5245    156.0505     81.2979   6.6328914738e+01   3.4506921657e+01    0.5903705    0.4117553 -72.78   0.00175663    2.038    0.509
        83  -8.6326     71.2935     83.6419   9.1862315283e+01   5.1799093435e+01    0.1523818    0.1136177  81.85 0.0007030719    1.695    0.410
        84  -9.5202     22.3406     80.7540   1.1085676685e+02   5.8336981639e+01    0.2767367    0.2347823 -52.77  0.001688485    1.160    0.138
        85  -9.9820    143.5580     80.7657   6.9005236362e+01   3.7544486064e+01     0.267339    0.2161361  52.61  0.000625387    1.257    0.205
        86 -11.2108    104.4513     78.7211   7.9059856093e+01   4.6752268173e+01    0.4934888    0.3950337   3.58  0.001662232    1.621    0.383
        87 -10.0384    107.5069     75.0081   7.6943740075e+01   4.6899247357e+01    0.3914263    0.2386961 -23.57  0.001494952    2.385    0.581
        88  -9.4831    110.5054     71.5470   7.4911439415e+01   4.6967988416e+01     0.300449    0.1932328 -40.00 0.0006279387    1.554    0.356
        89  -9.9233     55.3461     80.3020   9.7129124061e+01   5.4977052346e+01    0.3269681    0.2089758 -44.54  0.001334071    1.579    0.367
        90  -9.2717     50.3976     79.8572   9.9012633403e+01   5.5733747464e+01    0.4445282    0.2275654 -85.64  0.001514524    3.396    0.706
        91 -10.1646      7.0375     80.1500   1.1717086789e+02   5.9458369535e+01     0.200549    0.1755658 -81.83 0.0003313441    1.044    0.042
        92 -10.4847     97.5826     77.1203   8.0751751073e+01   4.8519775522e+01    0.4753675    0.3695912 -34.40  0.002305802    1.356    0.262
        93  -8.8146     43.7982     78.8098   1.0147886202e+02   5.6790686003e+01    0.1867967    0.1554771  83.31 0.0005261809    1.267    0.211
        94 -11.4691     77.0138     75.1322   8.7309779908e+01   5.2866241757e+01    0.6063158    0.3172376  31.19  0.001722603    2.222    0.550
        95  -8.9760      4.9787     75.9784   1.1756083377e+02   6.0610064283e+01    0.1565036    0.1264886 -77.76  0.000414441    1.033    0.032
        96 -10.0375    129.7148     75.5787   7.0847786577e+01   4.1784028965e+01    0.3463138    0.2467292  31.98  0.001116352    1.626    0.385
        97 -10.1608     57.4230     72.1909   9.4129125965e+01   5.6679968512e+01    0.5438412    0.3383845 -14.71  0.002165845    2.699    0.630
        98 -10.5146     65.0720     70.9386   9.0650291678e+01   5.5835716690e+01    0.4194286    0.2559945  49.08   0.00104841    1.845    0.458
        99  -9.8397     45.5362     72.9871   9.9349482367e+01   5.8041988069e+01    0.2378894    0.2137439  27.59 0.0004567915    1.221    0.181
       100  -8.7328     30.5062     72.5929   1.0582343779e+02   5.9725137530e+01    0.1338337     0.121115 -81.11 0.0001919124    1.069    0.065
       101 -10.0672     97.3880     69.3388   7.8298329754e+01   5.0251830153e+01     0.408154    0.2683692 -60.27  0.001749067    1.771    0.435
       102 -10.8072    152.3821     73.6219   6.4826573550e+01   3.6762776698e+01    0.3359931    0.2853942 -41.56 0.0008246346    1.152    0.132
       103  -8.9797     18.1085     69.2872   1.1077249927e+02   6.1547659749e+01    0.2605507    0.1347573 -83.82   0.00107694    1.965    0.491
       104  -8.4399     52.0000     68.8977   9.5482795910e+01   5.8227880370e+01    0.2342755   0.07583644 -58.69 0.0007893483    2.852    0.649
       105  -9.3892    121.3625     67.7847   7.0546696668e+01   4.5253116160e+01    0.2969585    0.2327111   2.56  0.001092138    1.666    0.400
       106 -10.3023     89.2047     67.2567   8.0376175723e+01   5.2366577697e+01    0.4005023    0.2864941  80.62 0.0008961876    2.104    0.525
       107 -10.6288    154.3384     66.1850   6.2100299077e+01   3.7585572763e+01      0.40693    0.2564705  19.89  0.001549126    2.582    0.613
       108 -10.1670    110.0142     63.7015   7.2399019447e+01   4.8665099793e+01    0.5131434    0.3896382 -83.74   0.00231355    1.793    0.442
       109 -11.1081    137.0971     70.4999   6.7369956449e+01   4.1009458318e+01    0.5349277    0.3843232 -48.99  0.001428174    1.424    0.298
       110  -8.8033     49.2540     65.4375   9.5690674968e+01   5.9428415489e+01    0.1843854    0.1317477  43.90 0.0007771873    1.531    0.347
       111 -10.1067     44.3912     62.3716   9.6994721624e+01   6.0782063853e+01    0.3822945    0.3109167 -60.20  0.002142267    1.134    0.118
       112  -9.2112     32.6139     63.7895   1.0285685481e+02   6.1725566252e+01    0.2494491    0.1707783 -75.64  0.001296128    1.454    0.312
       113 -10.0072    172.4082     62.5109   5.7484889692e+01   3.3751039501e+01    0.2840562    0.1789348 -29.46 0.0009505435    1.576    0.366
       114 -10.0661     68.8725     62.4019   8.6392400151e+01   5.7199720291e+01    0.5723616    0.2432079  32.17  0.002014519    2.788    0.641
       115  -9.1665      2.4470     62.4855   1.1704334728e+02   6.4096324797e+01    0.2417684    0.1588771 -61.87 9.681511e-05    1.274    0.215
       116 -11.8919      7.5000     57.2857   1.1378654258e+02   6.5166021269e+01    0.3605132    0.2117622 -32.77  0.001913328    1.837    0.456
       117 -10.3239    141.5549     69.0000   6.5824419894e+01   4.0211017690e+01     0.412725    0.2015465  54.46  0.001574264    2.087    0.521
       118 -10.0726     97.3774     61.1452   7.5463599608e+01   5.1967968637e+01    0.3211531    0.2394232 -46.17  0.001219652    1.326    0.246
       119 -10.6147     95.2542     56.8302   7.4594882157e+01   5.3296539378e+01    0.5715588    0.4313592  27.89   0.00273115    1.507    0.337
       120 -10.2930     50.7673     59.5545   9.3229996704e+01   6.0631942267e+01    0.2359424    0.2045573 -60.31 0.0002780618    1.106    0.096
       121  -9.5095    159.4808     57.1863   5.8212868282e+01   3.7793000860e+01     0.295019    0.2256583  28.66 0.0008365145    1.553    0.356
       122 -10.6179    150.8057     57.7736   6.0132577178e+01   3.9871607854e+01    0.2839434    0.2749603 -54.30 0.0002676127    1.012    0.012
       123  -9.9210    147.2940     54.9637   5.9933543102e+01   4.1213618761e+01    0.4351701    0.2371236  29.26  0.001501389    3.034    0.670
       124  -9.9991     59.6016     57.5116   8.8619156814e+01   5.9817627732e+01    0.3632268    0.2589628   9.46  0.001744757    1.812    0.448
       125  -9.1550     34.3025     57.6954   1.0045005886e+02   6.3049796501e+01    0.2416894    0.1578275 -75.82 0.0008050606    1.636    0.389
       126  -9.7593    200.6232     55.6908   5.1123055867e+01   2.8004642941e+01    0.3486786    0.2304084  10.78  0.001144752    2.261    0.558
       127 -10.4915    203.6080     51.6513   4.9609440274e+01   2.7863525841e+01    0.6479574    0.3449352 -62.84  0.002635859    2.542    0.607
       128  -9.3908    207.4967     49.9074   4.8642871198e+01   2.7198895679e+01    0.2313816    0.1862622 -83.78 0.0006276676    1.364    0.267
       129  -9.5191     69.4438     55.6632   8.3786935155e+01   5.8603262296e+01    0.3962102    0.2386817 -49.07  0.001798908    1.589    0.371
       130  -9.1701    105.0778     56.2525   7.1220486549e+01   5.1238363736e+01    0.2099634    0.1890323  49.80 0.0002994749    1.124    0.110
       131  -8.5809     26.0001     56.2469   1.0419431074e+02   6.4187293657e+01    0.1546223    0.1153939  18.56 0.0004174106    1.517    0.341
       132  -9.0313     22.2471     56.0047   1.0603685303e+02   6.4554485283e+01    0.1862877    0.1484113 -58.50   0.00110023    1.083    0.077
       133  -9.4100     80.3109     54.3370   7.8993085662e+01   5.6873330307e+01    0.3654857     0.234423   0.48  0.001352829    3.004    0.667
       134  -9.0015     81.9878     50.8370   7.7009396568e+01   5.7260175011e+01    0.2816245    0.2028367 -50.65  0.001356239    1.419    0.295
       135 -10.0231     84.7467     47.9579   7.4840379610e+01   5.7270249936e+01    0.3217189    0.2620397 -37.58 0.0008033518    1.201    0.167
       136  -9.9894    162.7697     52.8824   5.6220397264e+01   3.7637363771e+01    0.3314299    0.2436967 -49.40  0.000764754    1.365    0.267
       137  -9.1028     86.0385     53.9312   7.6714492072e+01   5.5813555673e+01    0.2753426    0.2022702 -36.34  0.001329785    1.358    0.263
       138  -9.0337     36.5250     53.5821   9.8154548433e+01   6.3802724856e+01    0.3012578    0.1722364 -74.54  0.001004523    2.077    0.519
       139 -11.1947     44.4353     49.2884   9.2806713997e+01   6.3861437185e+01    0.7938735    0.3802537 -33.32  0.003065538    2.780    0.640
       140  -9.7622     49.4939     49.4775   9.0406219747e+01   6.3135886936e+01    0.2699767    0.2086919 -17.71 0.0006729298    1.464    0.317
       141  -9.7152    173.9802     52.6759   5.4216225557e+01   3.4860774341e+01    0.3160724    0.1703615 -16.09  0.001205334    2.468    0.595
       142 -10.2980    136.5408     51.3828   6.1058142531e+01   4.4510096391e+01     0.383698    0.2924789 -40.78  0.001850873    1.297    0.229
       143  -8.3985     29.4843     52.4915   1.0140937392e+02   6.4783897661e+01    0.1358405    0.1182378 -51.12 0.0001151396    1.022    0.021
       144  -9.6231    126.5156     50.3195   6.3065077754e+01   4.7195036489e+01    0.2592345    0.2144919   0.19 0.0002581639    1.424    0.298
       145 -11.1657    107.0697     50.7144   6.8528449614e+01   5.1818328518e+01    0.4513933    0.2602868  46.12 0.0004409915    1.748    0.428
       146 -10.0035     17.3799     51.1271   1.0741103242e+02   6.6105346021e+01    0.4057869    0.1908689   9.19  0.001833109    2.661    0.624
       147  -9.0464    211.9205     49.6757   4.8048360692e+01   2.6221284677e+01    0.1886167    0.1739626 -69.97   0.00110527    1.109    0.098
       148  -9.0218     55.3166     50.3164   8.7971577749e+01   6.2096976898e+01    0.2127834    0.1315697 -37.44 0.0006675672    1.650    0.394
       149 -10.6592     58.9613     47.6590   8.5292258683e+01   6.2109032864e+01    0.3004425    0.2666017  -7.04 0.0005112994    1.179    0.152
       150  -9.2397    121.9807     48.9840   6.3722145576e+01   4.8542904198e+01     0.246394    0.1842043 -70.63 0.0007974184    1.676    0.403
       151  -8.7048     25.9070     51.7865   1.0307124506e+02   6.5279561672e+01    0.1547888    0.1096366  14.45 0.0003850105    1.612    0.380
       152  -9.7893      6.0042     48.0552   1.1291454341e+02   6.7503444852e+01    0.1823708    0.1563111 -63.67 0.0003215622    1.027    0.026
       153  -9.1266     34.5924     46.9006   9.7024109283e+01   6.5588343789e+01    0.2299789     0.127506  60.77 0.0009137541    3.138    0.681
       154  -9.6840    153.2906     46.2035   5.5779146611e+01   4.1057674239e+01    0.2621514    0.1921257  52.22  0.001019351    1.380    0.276
       155 -10.5958    142.6404     43.6941   5.7011677767e+01   4.4171165290e+01     0.606524    0.3605256  23.76  0.002269607    2.692    0.628
       156 -10.1161    167.1443     43.6949   5.2508706964e+01   3.7876871088e+01    0.3493041    0.2865074  20.67  0.001120226    1.450    0.310
       157  -9.8195    109.2048     43.8582   6.5221872357e+01   5.2524283745e+01    0.2772001    0.2498798 -86.02  0.000801532    1.232    0.189
       158  -8.6964     19.2937     43.3057   1.0432072572e+02   6.7849730711e+01    0.1368214   0.08297053 -39.08    0.0002484    1.580    0.367
       159  -8.8691      9.2954     42.8318   1.0995331165e+02   6.8605883591e+01     0.269337    0.1117391 -21.71  0.001081783    3.337    0.700
       160  -9.6740    204.8458     41.5917   4.6664976872e+01   2.8889620703e+01    0.2382977    0.1767046 -35.28  0.001282064    1.222    0.182
       161  -9.5410     56.4455     41.7254   8.4064370493e+01   6.3777707777e+01    0.2264973     0.168525  49.40 0.0002945144    1.544    0.352
       162  -9.9830    149.2780     38.2273   5.3780812416e+01   4.3252021649e+01    0.5727236    0.2015378 -28.84  0.001921562    2.871    0.652
       163 -10.5377     63.0777     40.8034   8.0626437702e+01   6.2850581139e+01    0.3987141    0.2330788  45.67  0.000825356    1.854    0.460
       164  -8.6457     27.8858     41.1388   9.8756352283e+01   6.7616214662e+01    0.1872844     0.133155 -37.84 0.0004274809    1.324    0.245
       165  -9.0044    112.4890     39.8853   6.2711386510e+01   5.2387381493e+01     0.227658     0.148335 -32.42  0.001018775    1.550    0.355
       166  -8.9187      4.2736     40.2381   1.1232044857e+02   6.9467247126e+01    0.1785831   0.08573948  29.81 0.0008790417    2.374    0.579
       167  -9.7342     36.2613     38.6683   9.3168365414e+01   6.7273139031e+01    0.2470643     0.185139 -37.16 0.0003319214    1.240    0.194
       168  -9.6074     32.2048     38.4840   9.5366519610e+01   6.7776534040e+01    0.2334031     0.180522 -73.67 0.0003837301    1.463    0.317
       169  -9.5713     33.4603     34.7975   9.3218727359e+01   6.8454766067e+01    0.2795276    0.1974813 -16.78 0.0007212951    1.600    0.375
       170  -9.8712    161.6809     37.8952   5.1502047468e+01   4.0081359942e+01    0.2705245    0.2123107  78.10   0.00053522    1.318    0.241
       171  -8.9537    133.3313     37.8351   5.6837445127e+01   4.7443069396e+01    0.3175105    0.1153264 -38.53   0.00108546    2.628    0.620
       172  -9.0335     74.7786     37.7392   7.4319086392e+01   6.1248630219e+01    0.1858532    0.1686163 -81.37 0.0004718066    1.326    0.246
       173  -9.2341     48.3034     37.1578   8.6129260307e+01   6.5993345989e+01    0.3478492    0.2134278 -77.84  0.001313755    3.496    0.714
       174  -9.8947    127.3496     36.7333   5.7749631373e+01   4.9143015833e+01    0.2988924    0.2555494  88.14  0.001011911    1.266    0.210
       175  -9.1852     69.1648     36.8505   7.6231869694e+01   6.2510890654e+01    0.1982018    0.1646956  -4.48 0.0005091687    1.307    0.235
       176  -9.9103     82.7235     35.7337   7.0368285540e+01   5.9967613967e+01    0.3629434     0.239468 -55.13 0.0009303007    1.842    0.457
       177 -10.6523     78.5390     31.7426   7.0097430379e+01   6.1549426955e+01    0.3832358    0.2809254  -4.23  0.001138042    1.682    0.405
       178  -9.2755     62.5057     36.6325   7.9048168764e+01   6.3780816727e+01    0.2394235    0.1340954  39.85 0.0008458979    1.855    0.461
       179  -9.0353    216.2984     34.9343   4.3618138354e+01   2.7066554717e+01    0.1883104    0.1640102 -34.20    0.0011367    1.088    0.081
       180  -9.6386    192.5840     33.9808   4.5932617693e+01   3.2779303971e+01    0.3642162    0.2055435  42.19  0.001599798    2.195    0.545
       181  -9.5199    106.9684     35.0189   6.2231897739e+01   5.4510883266e+01    0.2156842     0.208763  20.23  0.001196389    1.028    0.028
       182  -9.8712    238.3145     22.4744   3.8560201193e+01   2.3662114449e+01    0.3212703     0.230375  49.32   0.00190365    1.724    0.420
       183 -10.6569    236.8910     31.2788   4.0831579841e+01   2.2994824132e+01    0.4688277    0.3195604 -49.83  0.001919601    1.287    0.223
       184  -9.1014    237.4883     26.5322   3.9616142292e+01   2.3396294882e+01    0.1816583    0.1436891 -44.95 0.0005804922    1.053    0.050
       185  -9.2729    114.2490     32.3592   5.9163363578e+01   5.3114184939e+01    0.2432549    0.1806173 -68.83 0.0005169507    1.671    0.401
       186  -9.8312    110.7992     29.5796   5.8882601864e+01   5.4383528266e+01    0.2801911     0.250845 -61.77 0.0007496714    1.203    0.168
       187  -9.8441     43.0787     29.4648   8.5440598150e+01   6.8336409026e+01    0.2911422    0.1588702 -43.08  0.001084903    1.680    0.405
       188  -9.0145    229.9641     29.7374   4.1018173627e+01   2.4642400541e+01    0.1742256    0.1462567 -53.95 0.0002455908    1.070    0.065
       189  -8.6590    151.2847     30.3326   5.0636420829e+01   4.3793277018e+01    0.1499707    0.1119289  26.69 0.0007011051    1.618    0.382
       190  -9.9916     65.8749     29.7572   7.4318163735e+01   6.4446981424e+01     0.276579     0.259809  49.20  0.001404008    1.179    0.152
       191 -10.1188    181.7864     27.4942   4.5283143724e+01   3.6251578624e+01    0.5902282    0.3044323  31.97  0.002197625    3.149    0.682
       192  -8.4187    158.3490     29.2816   4.9118350052e+01   4.2075541769e+01    0.1518063    0.1075132  35.97 0.0007014443    1.647    0.393
       193  -9.4920     47.5984     28.6464   8.2604010807e+01   6.7825698664e+01    0.2313488    0.2047894   4.44 0.0005112049    1.126    0.112
       194  -8.7641    215.6009     28.2091   4.1885587749e+01   2.8008468623e+01    0.1860738    0.1231588 -15.65 0.0009515684    1.661    0.398
       195  -9.4320     16.2901     27.7481   1.0112936619e+02   7.1670992468e+01    0.3451395    0.1228512 -38.17  0.001353026    2.982    0.665
       196 -10.5073    120.8309     25.7146   5.4820732674e+01   5.2366689741e+01    0.4254247    0.3169059  72.89  0.001269315    1.402    0.287
       197  -9.9390     81.6837     26.5300   6.6434857577e+01   6.1730242598e+01    0.3017417    0.2686158  86.83 0.0009736082    1.359    0.264
       198  -9.1454    206.5282     26.0907   4.2166878354e+01   3.0357397773e+01    0.2039091      0.12586 -26.42  0.001014964    1.552    0.356
       199 -10.1610     30.1738     23.2260   9.0099776925e+01   7.1292187625e+01    0.3491731    0.2069014 -37.34  0.001260165    1.568    0.362
       200  -9.7528     29.6138     17.8239   8.7719260681e+01   7.2440902865e+01    0.3148004    0.1873776 -32.68 0.0009778625    1.632    0.387
       201  -8.9133     14.8575     24.1306   1.0072948250e+02   7.2584117672e+01    0.1810848    0.1190097 -40.85 0.0004123767    1.321    0.243
       202  -8.7738    226.9710     23.1964   3.9598167707e+01   2.6018884433e+01    0.1615428   0.09981068  77.67 0.0005448826    1.756    0.431
       203  -9.8911    179.3678     22.5848   4.4044489199e+01   3.7435941472e+01    0.2858738    0.2497965  29.33  0.001563087    1.327    0.247
       204 -10.1073    164.3383     22.4157   4.5903067147e+01   4.1336763932e+01    0.2869144    0.2372219  34.24 0.0009127123    1.373    0.272
       205 -10.4241    142.2296     21.0001   4.8762664885e+01   4.7335690336e+01    0.3696831    0.3119744 -18.34  0.001624537    1.261    0.207
       206  -9.7677      2.1824     22.0185   1.0905345604e+02   7.3806536573e+01    0.2700235    0.2013608 -82.53   0.00152386    1.418    0.295
       207  -8.9535    218.1650     21.7905   3.9949351540e+01   2.8138972178e+01    0.1626507     0.150009  20.56 0.0002259022    1.311    0.237
       208  -9.9624    104.2948    248.7414   1.0760169016e+02   1.2608102682e+01    0.3685909    0.1644447  25.21  0.001912448    2.411    0.585
       209 -13.1920     76.1260    219.3772   1.1077388887e+02   2.0788123498e+01     1.312191    0.6716754  23.31  0.006736387    2.263    0.558
       210  -9.0647      7.9822     22.5158   1.0499817692e+02   7.3403059641e+01    0.1654575    0.1199858   5.88  0.000779368    1.527    0.345
       211  -9.5954    131.4886     20.2363   5.0388468266e+01   5.0268850268e+01      0.34455    0.2058471 -57.31  0.001472103    1.983    0.496
       212  -8.9841    222.0498     20.4954   3.9292058315e+01   2.7402412866e+01    0.1777243    0.1252808  77.38 0.0005023489    1.508    0.337
       213 -12.4086     69.4378    217.5333   1.1202944486e+02   2.1926484893e+01    0.4750526    0.3491351  41.69  0.001389573    1.115    0.103
       214  -8.9866    164.4836    212.0456   9.1868322018e+01   9.8270641271e+00     0.151146    0.1182035 -38.73 0.0006950157    1.524    0.344
       215  -9.1367     69.6757     19.4850   6.7438602193e+01   6.5396472065e+01    0.2322053    0.1253585 -32.37  0.001030274    1.834    0.455
       216  -9.3255     63.9353     19.7208   6.9996168098e+01   6.6523888558e+01    0.1821587    0.1701584  19.82 0.0002029209    1.067    0.063
       217  -8.4604     51.5971     20.2731   7.6175529971e+01   6.8721040283e+01    0.1295774    0.1091612  82.13 0.0003937534    1.756    0.431
       218  -9.9960    119.7609     18.8902   5.2191919168e+01   5.3505606718e+01     0.294256    0.2254105  69.64 0.0005901179    1.298    0.230
       219 -10.9681     60.8854    208.6949   1.1318479648e+02   2.4561841756e+01    0.3955504    0.2533331  59.46  0.002482045    1.370    0.270
       220 -10.6043    134.3874    205.1181   9.6973871588e+01   1.5299642454e+01    0.3056436    0.2093345  17.40  0.001771824    1.580    0.367
       221 -10.5056     85.0116     14.2282   5.9083643765e+01   6.2734835103e+01    0.2261637    0.1845238  29.70 0.0006612195    1.215    0.177
       222  -9.5610     55.4577     17.5616   7.2726891684e+01   6.8490056401e+01    0.2153296    0.1848224   6.91 5.772683e-05    1.129    0.114
       223  -9.1583      1.3406    185.7178   1.2511950889e+02   3.4971086880e+01    0.2104512   0.08697044  87.64  0.001117975    2.164    0.538
       224  -9.0712      6.1882    168.8083   1.2341730565e+02   3.8174799961e+01    0.1529152    0.1290442 -71.23  0.001084187    1.364    0.267
       225  -9.3556     23.0045    162.4889   1.1889462775e+02   3.8184907340e+01    0.1789488   0.06521795  49.73  0.000366167    2.296    0.565
       226 -10.5909      2.7384    152.7851   1.2363517948e+02   4.1994502943e+01    0.3186851    0.2464433 -15.60  0.002067932    1.864    0.463
       227  -9.9458     21.9275    141.9461   1.1777203050e+02   4.3051361292e+01    0.1940832    0.1623304  54.11 0.0003512304    1.142    0.124
       228  -8.9032     20.9738     15.1875   9.2312541032e+01   7.3935200799e+01     0.216177    0.1290989 -14.16  0.001086659    2.045    0.511
       229  -9.2029    144.6170     14.1085   4.5789667175e+01   4.7472240224e+01    0.1981986    0.1841562 -18.31 0.0008058409    1.146    0.127
       230 -10.0155     37.1583    140.9435   1.1329321150e+02   4.1873993607e+01    0.2861986     0.213401  -0.13   0.00144254    1.856    0.461
       231  -8.9299      5.5716    140.8971   1.2232386801e+02   4.4549728753e+01    0.1786089    0.1015601 -83.39  0.000518251    1.519    0.342
       232  -9.8386     29.8583    137.9791   1.1514477688e+02   4.3300030454e+01    0.2623914     0.187251  16.51 0.0008622432    1.699    0.412
       233 -10.5270    226.6925    134.5454   6.6544761160e+01   1.1191905230e+01    0.3670645    0.2666759  52.14    0.0021273    1.709    0.415
       234  -8.9237     34.5256     12.4453   8.1457924991e+01   7.2795097361e+01    0.1295411    0.1133224 -16.02 9.413718e-05    1.012    0.011
       235  -8.8944     12.7142    136.3182   1.2002654986e+02   4.5130223067e+01    0.1330201   0.07518774  62.84 0.0002269938    1.590    0.371
       236  -8.8324    179.5603    131.4707   7.4278711122e+01   2.0341864007e+01    0.1399701    0.1299326  -1.59  0.000162122    1.008    0.008
       237  -8.2913     12.3191    128.3377   1.1960378992e+02   4.7087070863e+01      0.12707   0.08470619 -50.22  0.000704947    1.707    0.414
       238 -11.0601    230.9770    124.0159   6.3619999288e+01   1.1935071186e+01    0.6258067    0.3237355 -32.81  0.003131597    1.704    0.413
       239  -9.9567     48.4570    125.6247   1.0806433711e+02   4.4412724807e+01    0.2985854    0.2334172 -17.29  0.001613609    1.733    0.423
       240  -8.9879     38.1869    125.2996   1.1127151500e+02   4.5606746933e+01    0.1861148    0.1534285 -68.89 0.0007313878    1.180    0.152
       241  -8.8877     19.2284     21.7868   9.6719424135e+01   7.2731668494e+01    0.1736686    0.1230966 -34.59 0.0003402327    1.269    0.212
       242  -8.3203     23.2979    125.3135   1.1596966488e+02   4.6981407282e+01    0.1275023   0.09012596 -48.50 0.0002277531    1.604    0.377
       243  -9.1322      4.7352    130.9964   1.2203695642e+02   4.6956985027e+01    0.1743082    0.1309199  83.50 0.0003486264    1.097    0.088
       244  -9.6212     94.0001    122.7744   9.3527843443e+01   3.8577634242e+01    0.2482059    0.2049864 -64.16 0.0004616163    1.217    0.178
       245  -9.6291     90.0762    122.0193   9.4539085426e+01   3.9416795225e+01    0.2353152    0.2031148  44.11 0.0003286254    1.146    0.127
       246  -9.4728     78.1325    123.1579   9.8381008181e+01   4.1048668894e+01    0.1971315    0.1582421  67.71 0.0002960346    1.279    0.218
       247  -8.7542     31.2549    123.3900   1.1325673867e+02   4.6757989092e+01    0.1357912   0.08782326 -50.57  0.000696176    1.683    0.406
       248  -8.8793      9.0051    123.4563   1.2028202708e+02   4.8506502405e+01    0.1606387   0.09519512 -29.63 0.0004455735    2.417    0.586
       249  -8.9636     73.6563    122.2630   9.9600380323e+01   4.1938000345e+01    0.1487639    0.1020439  63.51 0.0006974998    1.599    0.375
       250  -9.6688     70.0370    118.0451   9.9971178936e+01   4.3502670967e+01    0.2215344    0.2074613 -83.88 0.0006082769    1.031    0.030
       251 -10.3074     57.6641    117.6575   1.0390292937e+02   4.5284544376e+01    0.2638835    0.2241006  74.15 0.0006361437    1.136    0.119
       252  -9.7556     98.5105    117.1965   9.1013746134e+01   3.9103006877e+01     0.250916    0.2017903  40.40 0.0003382662    1.239    0.193
       253 -10.4178     26.2193    116.6646   1.1415973753e+02   4.8891567420e+01    0.3147446    0.2111526  35.00  0.001094205    1.540    0.351
       254 -11.4504     11.4515    114.4482   1.1883026635e+02   5.0567440887e+01    0.2343359    0.2232239  71.45 0.0001761381    1.170    0.145
       255  -9.7444     38.7362    114.7665   1.0974860321e+02   4.8194739453e+01    0.1959601    0.1407539  64.37  0.001052795    1.380    0.276
       256  -8.4145      2.3697    114.3308   1.2178748455e+02   5.1149292075e+01     0.130438   0.07946278 -49.00 -4.294494e-05    1.827    0.453
       257  -9.6287     49.7922    112.4108   1.0566479489e+02   4.7573105932e+01    0.2617089    0.1779583 -69.67 0.0007215775    1.365    0.267
       258  -8.9575     63.2594    111.3494   1.0094450272e+02   4.6121699200e+01    0.1437451    0.1040205 -39.15 0.0002248136    1.604    0.377
