#   1 NUMBER                 Running object number                                     
#   2 MAG_AUTO               Kron-like elliptical aperture magnitude                    [mag]
#   3 X_IMAGE                Object position along x                                    [pixel]
#   4 Y_IMAGE                Object position along y                                    [pixel]
#   5 X_WORLD                Barycenter position along world x axis                     [deg]
#   6 Y_WORLD                Barycenter position along world y axis                     [deg]
#   7 A_WORLD                Profile RMS along major axis (world units)                 [deg]
#   8 B_WORLD                Profile RMS along minor axis (world units)                 [deg]
#   9 THETA_WORLD            Position angle (CCW/world-x)                               [deg]
#  10 FWHM_WORLD             FWHM assuming a gaussian core                              [deg]
#  11 ELONGATION             A_IMAGE/B_IMAGE                                           
#  12 ELLIPTICITY            1 - B_IMAGE/A_IMAGE                                       
         1 -14.9113     68.6069    144.2579   1.0628450865e+02   3.7144043439e+01     5.916829     2.853861  65.61  0.003690989    3.721    0.731
         2 -14.2612    197.8491     38.1664   4.7182667501e+01   3.1026121660e+01     1.488537     1.292552  -5.37  0.005992813    1.386    0.279
         3 -14.6736    208.3958     26.9557   4.2911049206e+01   2.9881592353e+01     1.820593     1.284216   9.79  0.002495992    2.185    0.542
         4  -9.1848    152.3398      8.7013   4.4892730371e+01   4.5732033996e+01     0.138795   0.09665205 -69.08 0.0004623129    1.663    0.399
         5  -9.4087    120.7174      8.7256   5.0361612221e+01   5.3421212715e+01    0.2105103    0.1131732  78.15 0.0009024395    2.409    0.585
         6 -10.9475     61.3094      7.8676   6.6255303644e+01   6.5892238261e+01    0.1982812    0.1588949  39.78 0.0004386065    1.325    0.245
         7 -12.7037    234.6071      2.8929   3.4741572902e+01   2.6523846295e+01    0.7094771    0.3795088  58.38  0.002716648    2.046    0.511
         8 -12.3298    229.7741      2.5920   3.5028875775e+01   2.7630450136e+01    0.4628187    0.2239191  75.87  0.001683312    1.936    0.483
         9 -11.1592     60.7409      2.2493   6.3652165432e+01   6.6567358958e+01    0.2645504   0.09869261  43.25  0.001219457    2.341    0.573
        10 -10.5817     41.1717      2.3951   7.1505828386e+01   6.9718893691e+01    0.1521138     0.106109  43.69 0.0009537821    1.726    0.421
        11 -10.0831    204.7399    176.7527   8.0596824185e+01   5.3962067186e+00    0.2813897    0.1895492 -45.08  0.001409995    1.610    0.379
        12 -10.5851    139.7182    249.5315   1.0540979635e+02   4.2781124639e+00    0.2303364    0.1684751  72.63  0.001428954    1.731    0.422
        13 -11.3740    117.1420    249.3778   1.0960201808e+02   7.7246077685e+00    0.3254383    0.2227335  86.36   0.00198101    1.881    0.468
        14 -13.0810     72.5521    173.2417   1.0969838910e+02   2.9655214667e+01    0.9699543    0.4843412 -35.23  0.003128183    4.609    0.783
        15 -15.1295     86.2203    227.3762   1.1317593623e+02   1.6173192317e+01     2.061344     1.677806  79.10  0.005891128    1.139    0.122
        16 -13.4525     17.7735    191.6930   1.2365618778e+02   3.1876553915e+01     0.532638    0.2780114  46.71 0.0009594328    1.771    0.435
        17 -15.0631     48.0247    221.7919   1.2002828233e+02   2.2312550666e+01     1.927757     1.039814  69.19  0.008162458    1.725    0.420
        18 -16.6571     49.7017    198.2596   1.1766432587e+02   2.6994661880e+01     15.52457     8.030227  81.59   0.02797485    2.122    0.529
        19 -10.3423     84.1646    174.5270   1.0712557333e+02   2.7672673036e+01     0.324285    0.2001617 -49.15  0.001104461    1.775    0.437
        20  -9.2467    188.5260    175.4801   8.3590662259e+01   8.6629645985e+00    0.1427434    0.1322543   6.85 0.0001344913    1.004    0.004
        21 -15.9949     45.1802    249.7278   1.2251596685e+02   1.7406562807e+01     5.597218     1.487972  30.88   0.01478038   11.041    0.909
        22 -11.5629    140.5928    172.8878   9.3545335982e+01   1.8367429426e+01    0.4677726    0.3129928  59.19  0.001993625    1.723    0.420
        23 -12.9574     55.5017    146.6690   1.1013614122e+02   3.8254454652e+01     2.404733    0.9109712 -47.29  0.009028401    3.080    0.675
        24 -13.8153     71.4803    156.7065   1.0754850615e+02   3.3724074120e+01    0.5916552    0.5112489 -40.92  0.002064673    1.357    0.263
        25 -13.9855     58.4071    242.6518   1.1972551123e+02   1.7059696603e+01    0.3799832    0.2619767  80.32  0.001184245    1.286    0.222
        26 -13.0878     83.0476    161.7045   1.0542954813e+02   3.0847189217e+01     1.270822    0.5425593  58.41 0.0004135652    3.613    0.723
        27 -10.4969    146.2761    182.3216   9.4017625733e+01   1.5332032520e+01    0.2504243    0.2182575   8.08 0.0006436319    1.290    0.225
        28 -10.9391     99.0279    180.9940   1.0460361161e+02   2.3886345136e+01    0.3441879    0.2765782 -13.43  0.001477393    1.829    0.453
        29 -12.2318     89.8502    154.7433   1.0254184483e+02   3.1456920930e+01    0.6250204    0.4537064 -25.96  0.002341158    1.963    0.490
        30 -16.8628      6.1973    211.0856   1.2705856716e+02   2.8915426014e+01     5.261768    0.7518088 -68.17   0.02009234    4.751    0.790
        31 -11.3780    133.6884    144.7183   8.9413142915e+01   2.5934171526e+01     1.123448    0.2984087 -54.21  0.002789351    5.092    0.804
        32  -9.0064    112.4773    150.5570   9.5975526107e+01   2.8611215645e+01    0.1480627    0.1407083 -89.95 0.0001299986    1.019    0.018
        33 -10.8388    174.3182    148.7095   8.0832343546e+01   1.6717608281e+01    0.3534044    0.2828442 -70.90  0.001392977    1.591    0.372
        34  -9.8075     40.7517    147.0079   1.1401750869e+02   3.9860141456e+01    0.2394951    0.1833785 -82.75  0.000993144    1.122    0.109
        35 -10.4815     44.1864    144.1303   1.1273537286e+02   4.0186461198e+01    0.2987704    0.2322364  34.71  0.001178137    1.488    0.328
        36 -10.3782    143.6993    145.7086   8.7189822814e+01   2.3698757566e+01    0.3197484     0.188978 -67.67  0.001181687    2.555    0.609
        37 -10.2725     84.7501    144.1563   1.0195984546e+02   3.4811820909e+01    0.2373202     0.205714  46.91 0.0005761542    1.213    0.175
        38 -10.9799    103.2467    139.9278   9.6198949113e+01   3.2776748460e+01    0.5264944    0.3342789 -29.73  0.002190531    2.215    0.549
        39 -12.3874     90.8106    139.8483   9.9510165476e+01   3.4896748931e+01    0.2962383    0.2605378 -53.22 0.0004352364    1.119    0.106
        40  -9.2486     79.9825    140.2077   1.0250562375e+02   3.6501485533e+01    0.1892268    0.1780923  86.59 0.0003494064    1.062    0.058
        41 -11.5078    136.0039    129.0475   8.5195855728e+01   2.9019417694e+01    0.7523658    0.2214496 -50.00  0.002144093    3.575    0.720
        42 -10.4519    112.1998    130.3916   9.1717534043e+01   3.3423696021e+01     0.317287    0.2570586   7.22  0.001001409    1.580    0.367
        43 -12.0104     44.7485    129.5787   1.1041057409e+02   4.3680916450e+01    0.3903235    0.2818656  79.10  0.002148481    1.491    0.329
        44  -9.3942     97.4784    189.9985   1.0628265973e+02   2.2141157029e+01    0.1962098    0.1288488 -61.83  0.001014017    1.543    0.352
        45 -10.4553    160.7914    127.8009   7.8893247827e+01   2.3983072054e+01    0.3594678    0.2590597 -53.15  0.001625421    1.455    0.313
        46 -11.6061    119.1441    123.5272   8.8229097020e+01   3.3699430425e+01    0.6654566    0.4126752 -19.07  0.002393994    2.869    0.651
        47 -11.0725     99.3729    126.4972   9.4331670243e+01   3.6678854567e+01    0.2858048    0.2397864 -24.10 0.0002922392    1.382    0.276
        48 -10.8092    159.1930    162.3566   8.7190590506e+01   1.6984250338e+01     0.315352    0.2633103 -84.80 0.0006557477    1.508    0.337
        49 -10.5707    105.9774    130.7302   9.3473159203e+01   3.4489583234e+01    0.3561664    0.3057531 -81.66  0.001268281    1.241    0.194
        50 -10.0586    108.2853    119.1435   9.0116592335e+01   3.6811251064e+01    0.2245951    0.2058591  20.04 0.0002811863    1.196    0.164
        51 -11.6011     44.1936    114.7759   1.0804341416e+02   4.7362954312e+01    0.6929095    0.1385788  39.79  0.002150664    5.120    0.805
        52  -9.9319    168.3291    113.1104   7.3410785359e+01   2.5362642748e+01    0.3549945    0.2559345 -78.95  0.001358726    2.059    0.514
        53 -10.2423    134.6343    112.0677   8.1218312773e+01   3.3110768813e+01    0.3634999     0.146558 -44.48  0.001229897    2.405    0.584
        54 -11.6415     33.0965    108.9934   1.1039869629e+02   4.9866774252e+01    0.5312811    0.1923019 -64.65  0.002202308    2.257    0.557
        55 -11.7187    118.2776    109.6181   8.4916094151e+01   3.7070058527e+01    0.6803561    0.5146811  85.87  0.003023702    1.850    0.459
        56  -9.9726    205.6150    110.1193   6.5091948218e+01   1.7464554990e+01    0.2666858    0.2197036  41.96 0.0005911464    1.299    0.230
        57 -12.1741     43.5886    109.0198   1.0715041007e+02   4.8826129962e+01    0.4285073    0.3728853  71.06  0.002097543    1.281    0.219
        58 -10.0497    134.8968    104.8491   7.9189891536e+01   3.4633514491e+01    0.6035917    0.1854806 -38.30   0.00166622    3.748    0.733
        59 -10.9329    241.3142    100.4484   5.6881483146e+01   1.1498947986e+01    0.3591641    0.1146411 -35.79  0.001263104    2.727    0.633
        60 -10.5898     33.3379    100.1210   1.0869205906e+02   5.1975637580e+01    0.2283068    0.1920207  44.69  0.001259733    1.408    0.290
        61 -11.5460     52.6609     93.0038   1.0076363631e+02   5.1638607407e+01    0.5428124    0.3620245 -66.21  0.002796554    1.484    0.326
        62  -9.7693     32.0896     96.1779   1.0833026659e+02   5.3026395439e+01    0.1936056    0.1506222 -45.66  0.000231176    1.184    0.156
        63 -10.8635     41.9023     91.4654   1.0403888698e+02   5.3193709988e+01    0.2922275    0.1842404 -32.48  0.001497398    1.735    0.424
        64  -9.8245    157.7806     81.2140   6.6818550631e+01   3.4129703454e+01    0.2154267    0.1853122   6.45 0.0006320605    1.332    0.249
        65  -8.9335    184.6646     77.2789   6.0207669235e+01   2.8293557879e+01    0.1550243     0.116691 -73.81 0.0003093451    1.612    0.380
        66 -10.0430     59.1068     67.7538   9.1511739795e+01   5.6462071285e+01    0.2480683    0.1818492  44.51  0.001064857    1.659    0.397
        67 -11.4323     13.2823     59.7628   1.0709949910e+02   6.2712194947e+01    0.2516514    0.2087401 -67.86 0.0005155457    1.267    0.211
        68 -17.3551      8.6763    244.2646   1.2824672617e+02   2.2355100113e+01     2.118037     1.668791  38.60    0.0141524    1.646    0.393
        69 -12.3606    165.5013    217.1073   9.5874455443e+01   5.3873797904e+00    0.6774413    0.2421114  31.57  0.002367048    3.519    0.716
        70 -13.7606    188.0054     45.6340   5.0666110200e+01   3.2444891507e+01     1.168085    0.8540879  35.15  0.001009339    1.648    0.393
        71 -10.8824    148.7164     44.7205   5.7324983053e+01   4.2409668550e+01    0.2774329    0.2389704 -76.86 0.0003382842    1.303    0.233
        72 -11.5718     22.7278     33.9568   9.4906472390e+01   6.7158877160e+01    0.3084294    0.1603971  30.86   0.00151871    2.247    0.555
        73 -11.8325    147.1854     51.3200   5.9805565616e+01   4.1811572811e+01    0.5483453    0.3543693 -79.56   0.00218844    2.526    0.604
        74  -9.7015    189.6661     15.0229   4.1876520162e+01   3.5811349568e+01    0.1843118    0.1687633 -49.98 0.0006920944    1.133    0.118
        75  -9.9847    113.2217    207.6537   1.0530636026e+02   1.5923789961e+01    0.2152678    0.1701545 -87.65 0.0006945663    1.375    0.273
        76 -11.7032    207.7915    196.3001   8.3858961943e+01   1.5690515420e+00    0.3627864    0.2379512  -1.31  0.001801751    1.878    0.467
        77 -12.6627    194.6622    196.5603   8.6468492035e+01   3.8115025910e+00     1.242565    0.8279935 -68.44  0.005440285    3.005    0.667
        78 -10.6777    108.3209    203.1645   1.0573720453e+02   1.7623773818e+01    0.2326741    0.1735385  35.23  0.001304848    1.371    0.270
        79 -10.1289    152.2122    197.2321   9.5355267774e+01   1.1293807873e+01     0.263592     0.197205 -61.68  0.001401962    1.577    0.366
        80 -10.1293    111.9537    197.2270   1.0410586630e+02   1.8262278163e+01    0.2091403    0.1603362   4.89 0.0009252305    1.953    0.488
