#   1 NUMBER                 Running object number                                     
#   2 MAG_AUTO               Kron-like elliptical aperture magnitude                    [mag]
#   3 X_IMAGE                Object position along x                                    [pixel]
#   4 Y_IMAGE                Object position along y                                    [pixel]
#   5 X_WORLD                Barycenter position along world x axis                     [deg]
#   6 Y_WORLD                Barycenter position along world y axis                     [deg]
#   7 A_WORLD                Profile RMS along major axis (world units)                 [deg]
#   8 B_WORLD                Profile RMS along minor axis (world units)                 [deg]
#   9 THETA_WORLD            Position angle (CCW/world-x)                               [deg]
#  10 FWHM_WORLD             FWHM assuming a gaussian core                              [deg]
#  11 ELONGATION             A_IMAGE/B_IMAGE                                           
#  12 ELLIPTICITY            1 - B_IMAGE/A_IMAGE                                       
         1 -18.7902    225.6250     80.5586   6.8258166276e+01   1.8916979549e+01     4.971755     4.500851 -60.16   0.01753396    1.146    0.127
         2 -12.1741    153.3061     56.0621   7.4017074792e+01   3.9255444972e+01    0.7522544    0.3534771 -34.66  0.002290879    2.329    0.571
         3 -10.2182    202.3863     18.9606   5.7887894877e+01   3.2752241411e+01    0.3690055    0.2779612 -35.50  0.002361674    1.588    0.370
         4 -10.1422    210.6914      1.9141   5.3610630057e+01   3.2782707794e+01    0.1996293    0.1332538  82.27  0.000350373    1.211    0.174
         5  -9.0916    250.0950    239.0907   9.5938269668e+01  -1.3276271535e+01    0.1741859    0.1448093  -7.31 0.0004779989    1.090    0.083
         6 -11.8785    232.6089    250.0735   1.0096193445e+02  -1.2594727868e+01    0.2209038    0.1640246  23.97 0.0004445091    1.255    0.203
         7 -12.2608      7.3951    247.4288   1.4497442375e+02   2.0859513876e+01    0.8877039    0.4288377  42.01  0.005283364    1.946    0.486
         8  -8.8071     17.3179    217.7052   1.4106729058e+02   2.6165255180e+01    0.1284477     0.072638  68.89 0.0003082651    1.607    0.378
         9 -10.2254      8.7100    208.0013   1.4201303223e+02   2.9222715933e+01    0.1831667     0.166344   9.02  0.001297405    1.646    0.393
        10  -8.3804    203.6782    206.7195   9.8761483758e+01  -1.0176083122e+00    0.1392292    0.1023181  -1.81 0.0002589966    1.587    0.370
        11 -10.2170    191.7718    192.8051   9.8494327408e+01   3.7905340388e+00    0.7884409    0.3705461 -61.88  0.002348347    4.710    0.788
        12 -10.1308    180.7375    198.6434   1.0195970823e+02   4.6211815214e+00    0.4561599    0.2430847  54.49  0.001240236    2.484    0.597
        13  -8.6768    171.5230    194.0847   1.0306938759e+02   7.2822261209e+00    0.2059578    0.1915644  35.72 0.0003997553    1.073    0.068
        14 -10.3811     80.3705    249.2402   1.3142472241e+02   1.1186833716e+01    0.4009827    0.1105789  50.67   0.00138926    3.679    0.728
        15 -10.5858    224.8446    180.3703   8.9510380389e+01   3.5507835045e-01    0.2576114    0.2492692  38.81 0.0005233916    1.189    0.159
        16  -8.5402     44.8872    150.8586   1.2685787071e+02   3.9211194452e+01    0.1900044    0.1483294  89.68 0.0004046259    1.300    0.231
        17  -9.8326    156.6147    148.5881   9.6858343661e+01   2.0404113050e+01    0.3282213    0.2625339 -79.45   0.00068754    1.483    0.326
        18  -9.3316    134.0090    148.3507   1.0228329145e+02   2.5163423407e+01    0.5167139    0.2221398 -57.84  0.001388679    2.800    0.643
        19  -9.3708    132.9090    140.9054   1.0085428070e+02   2.7144534638e+01    0.7690346    0.2118496 -55.58  0.001733484    5.767    0.827
        20 -11.0392    222.4738    171.2127   8.8090176200e+01   2.5204103144e+00     0.451317    0.1761941 -43.14  0.001197163    2.319    0.569
        21 -10.4612     67.8892    143.9440   1.1921937621e+02   3.7959594460e+01     0.710457    0.4383559  68.42  0.003001538    2.337    0.572
        22 -10.4379     62.8048    125.3212   1.1691129498e+02   4.3224852036e+01    0.3850134    0.2505216 -49.33   0.00175483    1.390    0.280
        23 -12.0152     64.1902    133.6740   1.1824582026e+02   4.1011592750e+01    0.6134497    0.5870511 -77.21 0.0006763028    1.075    0.070
        24 -12.3828     75.7354    129.8663   1.1405084818e+02   4.0255229309e+01      1.06357    0.9654226  10.89  0.003341835    1.229    0.186
        25 -11.3526     43.6950    142.9332   1.2587905363e+02   4.1310791844e+01    0.7094494    0.3612775  46.31  0.003205391    2.262    0.558
        26 -12.4567     45.6610    137.6573   1.2440099766e+02   4.2383679905e+01    0.7821364     0.625446  63.31  0.004428272    1.418    0.295
        27  -9.4710    157.0587    142.6600   9.5393126724e+01   2.1655001553e+01    0.3772686    0.1943645  56.69  0.001352122    2.392    0.582
        28  -9.9884    166.2512    133.9148   9.1250464473e+01   2.1616438898e+01    0.2865524    0.2559313  78.25 0.0004968224    1.190    0.160
        29  -9.9718     31.9778    126.9959   1.2651217949e+02   4.6423277727e+01    0.2121507    0.1745259 -60.43 0.0006329385    1.028    0.028
        30 -10.7985    237.6596    173.5822   8.5860334453e+01  -5.3571525066e-01    0.4690614    0.2721181  26.41  0.001408676    2.315    0.568
        31  -9.4987     20.5404    125.9815   1.2972561408e+02   4.7698279738e+01    0.2036828    0.1072309 -64.60 0.0004297409    1.565    0.361
        32  -8.9045    143.8652    121.8916   9.3538553235e+01   2.9154480663e+01    0.3242843    0.2171191  58.78  0.001399663    1.662    0.398
        33 -10.6991      6.8429    112.3592   1.3162095640e+02   5.1885107752e+01    0.2370077    0.1499447  88.34  0.001291603    1.921    0.479
        34  -9.1903      3.3290     97.3199   1.3016434065e+02   5.5464599974e+01     0.130406   0.06885386 -40.19 0.0003924328    1.688    0.407
        35 -11.8020    230.2952    167.5760   8.5937314407e+01   1.8419589704e+00    0.5634639    0.4195304 -65.24   0.00284308    1.687    0.407
        36 -10.4695    239.2511    167.8351   8.4436012466e+01   2.6251319976e-01    0.3528956    0.2649232 -55.64  0.001339678    1.427    0.299
        37 -10.6390    240.9574    163.3814   8.3252521476e+01   8.0134417309e-01    0.3560276    0.2957504  -7.42  0.001106182    1.346    0.257
        38 -11.2599    200.7590    163.7300   9.0678594635e+01   8.0569851288e+00    0.5872102    0.3897741 -77.60  0.001808367    2.632    0.620
        39  -9.5462    126.6872     81.1577   8.6936701255e+01   4.1179319148e+01    0.3389807    0.2113753 -51.11  0.001111569    1.766    0.434
        40  -8.3051     94.5336    166.9592   1.1636723078e+02   2.8023111380e+01    0.2062187    0.1421245 -58.66 0.0001275893    1.381    0.276
        41  -8.1140    112.4620     77.4634   8.9567366046e+01   4.4869009751e+01    0.1419919    0.1355402  18.59 0.0001342505    1.019    0.019
        42 -10.2352    130.8354     74.2766   8.3959578444e+01   4.1484102647e+01    0.4218597    0.2936194   6.94 0.0009787939    2.254    0.556
        43 -10.4192    139.4666     69.8109   8.0692981831e+01   4.0298466963e+01    0.3751348     0.214303  64.73  0.001364533    1.998    0.500
        44 -10.1213    130.3376     58.2762   7.9453749326e+01   4.4175130759e+01    0.3566875    0.2643706  53.78  0.001906441    1.260    0.206
        45 -10.3747    125.8019     55.4372   7.9662767625e+01   4.5603526099e+01    0.2318126    0.2275111  70.75 0.0002634007    1.072    0.067
        46 -12.1670    140.1549     59.9621   7.7766908190e+01   4.1703821499e+01     1.296796    0.5352334  37.44  0.004237863    3.836    0.739
        47 -10.5985    135.1356     59.1134   7.8618493090e+01   4.2971719317e+01    0.4325747    0.3108623  23.95  0.001312161    1.771    0.435
        48 -10.5587    136.6392     52.6692   7.6441093424e+01   4.3578019178e+01    0.4424176    0.3299331 -13.24   0.00233535    1.703    0.413
        49 -10.8590    140.1193     42.5734   7.2845745564e+01   4.4158014050e+01    0.6768989    0.3320964 -15.40  0.002496872    3.935    0.746
        50 -10.9910    144.3897     32.4893   6.9212770009e+01   4.4422845899e+01    0.5110331    0.3582233  -2.01  0.001673109    2.070    0.517
        51 -10.0013    144.6636    226.5760   1.1477645272e+02   5.3679450331e+00    0.2414126    0.2326618  10.78 0.0003469485    1.093    0.085
        52  -8.9831    250.1209    178.0251   8.4626549001e+01  -3.3367641952e+00    0.1976943    0.1565819 -70.05  0.001119807    1.764    0.433
        53  -8.4716    116.9803     57.0079   8.2259143069e+01   4.7288432114e+01    0.1620744    0.1557558  23.15 0.0009402593    1.046    0.044
        54  -8.7417     63.0487     56.6989   9.8208226956e+01   5.7350623674e+01    0.1718971    0.1474108   6.86 0.0003225967    1.053    0.050
        55 -10.2507    142.6312     49.4300   7.4282653337e+01   4.2666336058e+01    0.2582255    0.1690463 -40.21  0.001243994    1.639    0.390
        56 -10.7598    230.8343    159.6000   8.4209475520e+01   3.2676309275e+00    0.3469452     0.249579 -33.82  0.001006892    1.298    0.230
        57  -9.4005    118.9687     48.1020   7.9058468711e+01   4.8138129462e+01    0.2579226    0.1894059 -22.13 0.0006188341    1.545    0.353
        58 -10.9726    235.7334    158.2786   8.3097574698e+01   2.6541354730e+00    0.3871161    0.2815835 -38.47  0.001380823    1.212    0.175
        59 -11.4269    146.7086     41.5800   7.1305298288e+01   4.2776091029e+01    0.4258433    0.3539294  10.18  0.002483432    1.527    0.345
        60 -10.7045    155.2442     36.3449   6.8369923961e+01   4.1463329845e+01    0.3662287    0.2294839  43.90 0.0008603605    1.712    0.416
        61  -8.7647    102.8587     33.2637   7.8293163904e+01   5.3420520660e+01    0.2462283    0.1562062  11.43  0.001232855    2.135    0.532
        62 -10.3785    234.1682    154.6335   8.2615327599e+01   3.6208793561e+00    0.2817557    0.2477262  36.85 0.0008822443    1.296    0.228
        63 -10.7398     74.9946    245.6711   1.3212466547e+02   1.2710588605e+01     0.222526    0.1804769 -45.87  0.001357413    1.645    0.392
        64 -10.8434    221.8080    158.8420   8.5651672460e+01   5.0496446045e+00    0.3712082    0.2850955 -24.91  0.001027615    1.370    0.270
        65  -9.2784    111.4542     19.6485   7.1888335681e+01   5.3087179612e+01    0.2027877    0.1734069  46.02 0.0002978744    1.018    0.017
        66 -13.1939      8.4117    151.4321   1.3660973296e+02   4.2581396015e+01    0.6941708    0.4493659  -7.79   0.00252112    2.352    0.575
        67 -11.1805    203.9816    153.3096   8.7807822534e+01   9.5710857971e+00    0.3868666    0.3328512 -12.64  0.000493231    1.311    0.237
