#   1 NUMBER                 Running object number                                     
#   2 MAG_AUTO               Kron-like elliptical aperture magnitude                    [mag]
#   3 X_IMAGE                Object position along x                                    [pixel]
#   4 Y_IMAGE                Object position along y                                    [pixel]
#   5 X_WORLD                Barycenter position along world x axis                     [deg]
#   6 Y_WORLD                Barycenter position along world y axis                     [deg]
#   7 A_WORLD                Profile RMS along major axis (world units)                 [deg]
#   8 B_WORLD                Profile RMS along minor axis (world units)                 [deg]
#   9 THETA_WORLD            Position angle (CCW/world-x)                               [deg]
#  10 FWHM_WORLD             FWHM assuming a gaussian core                              [deg]
#  11 ELONGATION             A_IMAGE/B_IMAGE                                           
#  12 ELLIPTICITY            1 - B_IMAGE/A_IMAGE                                       
         1 -14.9660    160.1405     43.1400   8.2047005303e+01   4.0322863272e+01     1.416581     1.082026 -20.20   0.00391549    1.427    0.299
         2 -14.7701    173.1776     10.4763   6.9224259678e+01   4.0840669497e+01     1.267131     1.042558  56.64  0.004720381    1.156    0.135
         3 -12.2816    189.9489     14.5726   6.8286698816e+01   3.5977464218e+01    0.2789067    0.2214304 -29.65 0.0009343229    1.345    0.256
         4  -9.7418     12.4293    243.5686   1.5156009549e+02   2.4818452373e+01   0.09867069   0.06588506  69.57 0.0002394792    1.040    0.039
         5 -20.1494     79.4150    177.4238   1.3426093356e+02   2.9265103300e+01     16.01988     6.514878 -67.17    0.0712978    2.485    0.598
         6 -12.1831    138.8245    242.7429   1.3034758005e+02   8.0537267745e+00    0.3633624    0.2536437 -61.90  0.001691981    1.826    0.452
         7 -11.3136    133.5721    248.4730   1.3189173443e+02   8.0487494011e+00     0.150737    0.1003418  49.60 8.927824e-05    1.129    0.114
         8 -12.3029    134.0692    244.3926   1.3136777154e+02   8.5670535450e+00    0.2445762    0.1786854 -41.99  0.001275245    1.954    0.488
         9 -11.3563    126.9341    250.6253   1.3326102328e+02   8.7668761713e+00    0.1587364   0.08412717  45.26 0.0001497745    1.424    0.298
        10 -12.6084     30.9911    182.3089   1.4489032644e+02   3.4291198804e+01    0.2752927     0.190872  85.31  0.000464565    1.132    0.116
        11 -11.8764     28.0238    179.5080   1.4526943549e+02   3.5176496479e+01    0.2262044    0.1956951 -47.71  0.001085519    1.702    0.412
        12 -10.1287    163.2209    250.5967   1.2699493428e+02   3.0540871109e+00    0.1588264   0.08645428  37.07 0.0002703128    1.530    0.347
        13 -11.2762     16.4550    250.0154   1.5121333969e+02   2.3348690690e+01    0.1315237   0.07308135  87.84 0.0008494336    1.491    0.329
        14 -13.6532    195.7148    170.6693   1.0834028564e+02   9.2388960124e+00    0.6575515    0.4554869 -49.93  0.002010583    1.706    0.414
        15 -12.0097    194.2995    165.6493   1.0761006122e+02   1.0370860052e+01    0.3117654    0.2494179  74.34  0.000823045    1.641    0.390
        16 -10.7018    151.0489    241.8157   1.2807659661e+02   6.2166145741e+00    0.1690333    0.1530187  39.65 0.0006410485    1.211    0.174
        17 -13.4043    178.2178    170.9913   1.1189393534e+02   1.2707948396e+01    0.5241364    0.3948463 -53.27  0.002771858    1.531    0.347
        18 -11.3034     26.1586    172.6067   1.4511308405e+02   3.6802906076e+01    0.2902306    0.1672433  49.52 0.0007546352    1.602    0.376
        19 -11.1225     20.3421    166.6343   1.4585502736e+02   3.8622153921e+01    0.1951888    0.1604393 -84.78 0.0008455906    1.199    0.166
        20 -11.6831    201.2598    164.6609   1.0605043269e+02   9.1213811218e+00    0.4383939    0.2866622 -48.18   0.00178553    1.778    0.438
        21 -10.4390     28.6042    240.5565   1.4892293374e+02   2.3619029449e+01    0.1054141   0.06725082  68.32 4.904241e-05    1.074    0.069
        22 -11.1808     21.8388    239.1272   1.4991976849e+02   2.4589865730e+01    0.1238156   0.09373561 -84.68  0.000645216    1.440    0.306
        23 -12.8340    164.2197    157.6415   1.1217445896e+02   1.8047349273e+01    0.4157542    0.2557162  48.81 0.0008844446    1.534    0.348
        24 -14.7346    143.4871    143.5632   1.1387746672e+02   2.5187580786e+01     1.162391    0.5486045 -57.07  0.004356556    2.562    0.610
        25 -14.7220    134.0710    146.2218   1.1662400494e+02   2.6540641306e+01     1.773555    0.5199971 -57.16  0.004568573    5.553    0.820
        26 -14.5829    135.4974    128.7215   1.1250896834e+02   2.9997304475e+01     1.930146    0.4267491 -50.39  0.004906621    5.069    0.803
        27 -10.6350      7.7491    236.7100   1.5200269787e+02   2.6434504014e+01   0.08066681   0.06441611 -86.97 0.0004406565    1.479    0.324
        28 -10.6511     13.1887    155.9009   1.4654801509e+02   4.1544112311e+01    0.1799278    0.1324097 -40.24 0.0007404945    2.006    0.502
        29 -10.4066     17.6927    153.4736   1.4536564895e+02   4.1680168170e+01    0.1834276     0.104161 -62.51 0.0004290787    1.678    0.404
        30 -11.0318    222.3762    161.5087   1.0144274583e+02   5.3974815498e+00    0.3034731      0.21287 -59.45  0.001116864    2.135    0.532
        31 -10.8114     17.1438    224.4042   1.4997846669e+02   2.7636777188e+01   0.09039367   0.05538779 -75.43 0.0003118045    1.633    0.388
        32 -10.5546     30.8157    211.0752   1.4691639987e+02   2.8639002815e+01    0.1683066   0.09674894  67.21 0.0003507938    1.342    0.255
        33 -11.0065     16.5316    208.9082   1.4929827579e+02   3.0532961895e+01    0.1533559    0.1064113 -61.54  0.001106464    1.881    0.468
        34 -12.4363    174.0564    149.1042   1.0828276228e+02   1.7600044192e+01    0.3615837    0.3277844 -63.02  0.001381829    1.208    0.172
        35 -10.3384      7.6209    149.6611   1.4728699340e+02   4.3334943312e+01    0.1548695    0.1056548 -57.26 0.0006502107    1.631    0.387
        36 -12.4979    134.6712    109.8272   1.0813183662e+02   3.4228596225e+01     1.186406     0.147741 -45.99  0.002305523    8.093    0.876
        37 -12.8414     11.5716    205.9990   1.5000818765e+02   3.1563002949e+01    0.3994717    0.2279948  36.79  0.002026362    1.962    0.490
        38 -13.3587    154.4307    185.5294   1.1941849626e+02   1.4762293564e+01    0.5600373     0.281329  49.41  0.002525999    1.821    0.451
        39 -11.3592     27.4661    145.6405   1.4241342602e+02   4.2511636010e+01    0.2349403    0.1887773 -72.65 0.0007619904    1.201    0.167
        40 -12.9043    160.4243    128.1304   1.0651580540e+02   2.4716648510e+01     0.420766    0.3856802 -60.28  0.001721752    1.129    0.114
        41 -12.0983    155.0941    190.1462   1.2005083247e+02   1.3805888222e+01    0.3064922    0.2095468  38.17  0.001632235    1.369    0.270
        42 -13.5666    156.2602    199.2751   1.2127846729e+02   1.1993863811e+01    0.8060231    0.4949088 -82.57  0.003391173    3.330    0.700
        43 -11.7710    169.8315    195.2130   1.1793535377e+02   1.0163595438e+01    0.2047139    0.1871233 -80.28 0.0006549114    1.295    0.228
        44 -12.2563    163.7933    203.0441   1.2038454553e+02   9.9819578047e+00    0.3295527    0.2623901  62.97 0.0008052302    1.319    0.242
        45 -13.0142    161.3759    197.4449   1.1997333446e+02   1.1363388524e+01     0.453258    0.3455788 -86.94  0.001991541    1.791    0.442
        46 -12.9137    180.6408    193.5950   1.1554213156e+02   8.3969863021e+00    0.4267056    0.3387083 -78.36  0.001539771    1.790    0.441
        47 -10.7395    205.3995    110.1199   9.2719182368e+01   1.7678728886e+01    0.2566737    0.2048048  39.49 0.0006492027    1.286    0.222
        48 -11.4300     26.4701     97.7425   1.3656054258e+02   5.3442915556e+01    0.3235497    0.2538452 -17.90   0.00171148    1.675    0.403
        49 -14.9366    173.9729    187.3126   1.1576250945e+02   1.0708562041e+01     1.269102     0.657552 -49.01  0.005482362    2.265    0.558
        50 -13.8997    165.8173    188.9468   1.1767932235e+02   1.1988268536e+01    0.7801743    0.3933903  37.55  0.003510006    1.913    0.477
        51 -11.1059    139.3932    201.2079   1.2493405733e+02   1.4703243522e+01    0.2562774    0.2288416 -75.05 0.0005746287    1.253    0.202
        52 -10.9751    103.2256     81.9413   1.0900219443e+02   4.6623564988e+01    0.2314896    0.2060402  45.69 0.0005073964    1.177    0.150
        53 -11.1598    136.1970    196.8094   1.2493568859e+02   1.6064597753e+01    0.3569985    0.2265297  73.11  0.001748459    2.068    0.516
        54 -14.4368    149.3806     57.8668   8.9167071784e+01   4.0807344585e+01     1.174315    0.9946205  -3.95 0.0009943392    1.330    0.248
        55 -10.3970    160.1657    247.7801   1.2718803524e+02   3.9171870454e+00    0.2229622    0.1445673  16.53   0.00117872    2.372    0.578
        56 -13.2306    163.8410     34.8339   7.8612882732e+01   4.0496099108e+01    0.4620725    0.4311723  21.34 0.0009214946    1.140    0.122
        57 -10.6521     13.6527     59.9235   1.3381709546e+02   6.2696838749e+01    0.1668033    0.1196166 -61.97 0.0004577763    1.119    0.106
        58 -11.4113    150.6546     36.3182   8.1638633650e+01   4.3730311923e+01    0.2421035    0.1863432  82.65  0.001179652    1.468    0.319
        59 -10.9867    147.0402     34.9789   8.1913942255e+01   4.4837047492e+01    0.2996554    0.2074922  76.49 0.0006448452    1.648    0.393
        60 -11.3309    139.3510    250.1166   1.3106608107e+02   6.9073357203e+00    0.2390251    0.1680116  50.53  0.001639977    1.081    0.075
