#   1 NUMBER                 Running object number                                     
#   2 MAG_AUTO               Kron-like elliptical aperture magnitude                    [mag]
#   3 X_IMAGE                Object position along x                                    [pixel]
#   4 Y_IMAGE                Object position along y                                    [pixel]
#   5 X_WORLD                Barycenter position along world x axis                     [deg]
#   6 Y_WORLD                Barycenter position along world y axis                     [deg]
#   7 A_WORLD                Profile RMS along major axis (world units)                 [deg]
#   8 B_WORLD                Profile RMS along minor axis (world units)                 [deg]
#   9 THETA_WORLD            Position angle (CCW/world-x)                               [deg]
#  10 FWHM_WORLD             FWHM assuming a gaussian core                              [deg]
#  11 ELONGATION             A_IMAGE/B_IMAGE                                           
#  12 ELLIPTICITY            1 - B_IMAGE/A_IMAGE                                       
         1 -10.6564     85.7482     73.4037   7.7359673758e+01   5.0860298263e+01     2.580872    0.7857278 -47.50  0.008199367    3.525    0.716
         2 -13.2091     42.7032     45.6663   8.4008267785e+01   6.2583870589e+01    0.8241251    0.6299542  48.89 0.0008063801    1.926    0.481
         3 -11.6845     60.1409     46.4907   7.7186700042e+01   6.0036270976e+01     1.393897    0.7359399 -28.14  0.006554607    1.936    0.483
         4 -11.7778     61.2806     36.6128   7.2884761312e+01   6.1454591282e+01    0.7673001    0.5282035  -4.17  0.002894257    1.488    0.328
         5 -12.3398    124.9273     28.0302   5.0771188630e+01   4.9745917261e+01    0.9336995    0.5252709  50.88  0.003274806    1.582    0.368
         6 -12.3959    140.0746     23.7472   4.6369771370e+01   4.6679438870e+01     1.672986     1.150026  52.36  0.009110206    1.315    0.239
         7 -12.1520    130.8637     14.7264   4.5136522431e+01   4.9760744044e+01     1.512615    0.5828371  66.80  0.006083812    2.589    0.614
         8 -12.4359    120.5416     57.5583   6.1758788102e+01   4.6684990454e+01     2.254507     1.407777 -72.23  0.008138114    3.579    0.721
         9 -11.6428    164.5926     18.5410   4.0899880287e+01   4.1407333447e+01    0.7207736    0.4033118  21.31  0.003055741    3.131    0.681
        10 -12.8764    116.5361     42.0632   5.7547215020e+01   4.9884593488e+01    0.9602129    0.7179287 -81.16  0.004713756    2.037    0.509
        11 -11.3862    145.9254     47.4965   5.2674794968e+01   4.2348283107e+01    0.9923723    0.4146795 -22.51  0.003478113    3.354    0.702
        12 -11.5392      8.3671     32.4434   9.5253703453e+01   6.8274891691e+01     1.908204    0.4132791 -45.90  0.007845482    3.036    0.671
        13 -10.3555     47.1117     19.1119   7.1106022630e+01   6.6130012580e+01    0.3416203    0.2517115 -11.05  0.001488858    1.184    0.156
        14 -11.8711     27.0087     27.9688   8.4215739133e+01   6.7410527696e+01    0.5145448     0.406722   3.07  0.002211169    1.164    0.141
        15 -12.3225     48.4698     12.9334   6.7660923004e+01   6.6693950548e+01    0.6142992    0.2838304  40.65  0.001429268    2.047    0.512
        16 -12.0191     35.9346     17.5346   7.5344139036e+01   6.7912010624e+01    0.6515554    0.4033054 -24.97   0.00353498    1.440    0.305
        17 -11.8541     20.1188     21.4524   8.4874185437e+01   6.9160713392e+01    0.6898198    0.2431688 -40.99  0.003131701    2.421    0.587
        18 -12.6968     17.1693     12.6237   8.2404954508e+01   7.0789788296e+01     0.835287    0.5051543 -18.97  0.003691389    1.394    0.282
        19 -12.1221     22.9561     11.4279   7.8788160269e+01   7.0338537537e+01    0.5301269    0.3354457  -2.96  0.002335205    1.420    0.296
        20 -11.3555    105.9226     20.3778   5.2401991844e+01   5.4874700628e+01    0.4391945    0.3668731 -39.32  0.001339049    1.392    0.282
        21 -12.2077    113.4703     25.3764   5.2419459628e+01   5.2654548137e+01    0.7800151    0.3481521  48.66  0.002410511    1.956    0.489
        22 -10.7629    239.9763     31.0850   3.5576053819e+01   2.3146902281e+01    0.4074535     0.288976 -35.08  0.001556484    1.426    0.299
        23 -10.5729    214.2503     24.5556   3.6560904602e+01   2.9340982776e+01    0.5039589    0.3255942  32.62  0.002599322    2.463    0.594
        24 -11.0966     87.3249      7.5099   5.2126328155e+01   6.0096748460e+01    0.5220487    0.3438212  59.73  0.001873975    1.542    0.351
        25 -11.1980     90.9433     21.4738   5.6764390488e+01   5.7953277909e+01    0.5743503    0.3512827 -24.64  0.002313271    1.717    0.417
        26 -11.2995     86.1234     14.1567   5.5185789575e+01   5.9716221186e+01    0.7598058    0.4309007  19.19  0.003172464    2.060    0.515
        27 -10.9395    178.8960     21.1038   3.9692331620e+01   3.7763548107e+01    0.5491102    0.2642317  46.09  0.001692533    2.372    0.578
        28 -11.8601     68.1106     18.1349   6.2562931634e+01   6.2768066801e+01     0.489197    0.3844864  14.57  0.001930978    1.089    0.082
        29 -11.9325    234.2687      6.0475   3.0860329608e+01   2.7138370614e+01    0.8043651    0.3939674  89.29  0.004336925    2.056    0.514
        30 -10.8336    242.3604      3.4871   2.9793985621e+01   2.5777809062e+01    0.3701321    0.1887223  64.06   0.00200438    2.032    0.508
        31 -12.1272    238.2359     15.7445   3.2543578441e+01   2.5290590850e+01    0.8824599    0.3849715  76.91  0.004512753    2.296    0.564
        32 -11.1640    226.9389     15.2567   3.3346465008e+01   2.7671394468e+01    0.4779624    0.3060946 -85.71  0.001989106    1.482    0.325
        33 -11.9967    246.3208      8.0623   3.0424855863e+01   2.4517644321e+01    0.6958047    0.4761569  -2.55   0.00400561    2.753    0.637
        34 -10.7075    223.6486      1.9176   3.0777841865e+01   2.9751816424e+01    0.3191293      0.18494  73.76  0.001225008    1.592    0.372
        35 -11.4024    155.2889     22.9970   4.3565776068e+01   4.3147659738e+01    0.9691094    0.5186489  29.53   0.00409939    2.807    0.644
        36 -11.0588    218.8032      3.2415   3.1425169627e+01   3.0643977083e+01    0.3162634    0.2574423 -37.45  0.001023913    1.346    0.257
        37 -10.4681    211.3062     18.3099   3.5419347304e+01   3.0691661269e+01    0.2876563    0.1880387 -33.45  0.001076125    1.586    0.369
        38 -11.5934    192.2319      9.5704   3.5238916885e+01   3.5874945128e+01    0.8530718     0.470178 -10.86  0.004044072    2.812    0.644
        39 -12.1954    104.8472     12.9921   4.9902527954e+01   5.5847670019e+01    0.4630942    0.3608634 -10.65  0.001593889    1.384    0.278
        40  -9.7319     99.2187     10.7725   5.0395663094e+01   5.7282475832e+01    0.3451632    0.1810663  12.99  0.001525825    2.695    0.629
        41  -9.9613      4.9574     12.5278   8.9128936028e+01   7.1892686876e+01    0.2929622    0.1699377  20.00  0.001884794    1.763    0.433
        42  -9.2420      5.3384      9.3083   8.7429760324e+01   7.2355617346e+01    0.1792058    0.1017584 -28.10 0.0005918917    1.377    0.274
        43 -10.8439    211.5309     10.7754   3.3687055883e+01   3.1448049542e+01    0.3104024    0.2737253   3.16  0.001377169    1.552    0.356
        44 -10.3814    213.4286      5.7850   3.2410451604e+01   3.1543819744e+01    0.2313664    0.2136075 -21.05  0.001109834    1.379    0.275
        45 -10.2482     65.5993     10.2693   5.9937361259e+01   6.4081189855e+01    0.2667856    0.2139464  42.91  0.000868307    1.291    0.226
        46  -9.8823     62.7845      6.9066   5.9373753791e+01   6.4928181512e+01    0.3100737    0.1917133  22.79  0.001701311    1.494    0.331
        47  -9.7110    168.7446      9.8660   3.7953505527e+01   4.1285245645e+01    0.3120504    0.1358476  54.21  0.001438846    2.115    0.527
        48  -9.1201    163.0018      9.9804   3.8715060200e+01   4.2625740275e+01    0.2002386    0.1362591  40.04 0.0006258172    1.639    0.390
        49  -9.5322      1.1887      8.0977   8.9297478567e+01   7.2859100053e+01    0.2359927   0.06241705 -45.04  0.001064989    3.032    0.670
        50 -11.3411      2.6241      2.0035   8.5462693880e+01   7.3640605051e+01    0.3454189    0.1717279   6.96  0.001904296    2.020    0.505
        51 -10.3726     12.9143      1.7828   7.9312520609e+01   7.2712910834e+01    0.3111049    0.1381769  26.48   0.00139229    2.141    0.533
        52  -9.3489     78.4759      7.5289   5.4620253455e+01   6.1890993740e+01    0.2233179    0.1670675  48.40 0.0006788218    1.258    0.205
        53 -11.3000     74.8150      3.4716   5.3941787144e+01   6.2973198256e+01    0.6433204    0.3048399  44.34  0.003311829    1.734    0.423
        54 -10.8046    184.2901      4.7569   3.4862045957e+01   3.8150723576e+01     0.422454    0.3523977 -28.95  0.002785587    1.375    0.273
        55 -11.0519    177.1381      5.8361   3.5900286922e+01   3.9701241474e+01    0.3758347    0.1987519  81.02 0.0008131543    1.838    0.456
        56 -10.2605    122.5001      5.0804   4.3431804189e+01   5.2553059576e+01    0.3654117    0.1657943  63.10  0.000453195    1.906    0.475
        57 -10.2342    114.8866      3.2875   4.4231412522e+01   5.4436178520e+01    0.4139569     0.330246  64.09  0.002594213    1.164    0.141
        58 -10.0736    109.8260      1.8438   4.4706149924e+01   5.5689489559e+01    0.3079515    0.2070152  49.08  0.001135577    1.247    0.198
        59 -10.8770    105.2827      1.8212   4.5628251186e+01   5.6704025502e+01    0.4873676    0.3322828 -73.72  0.002368019    2.197    0.545
        60 -10.5933     41.5770      4.2998   6.6352547686e+01   6.8730379922e+01    0.3767471    0.2044337   8.89  0.001890455    2.083    0.520
        61 -12.0790    134.2402      2.5647   4.0619237863e+01   5.0033454724e+01    0.4289856    0.2527114  71.70 0.0005567418    1.573    0.364
        62 -10.1479    142.6216      3.3696   3.9598658566e+01   4.8006827176e+01    0.3829198    0.1823031  72.95  0.001797481    2.002    0.501
        63  -9.8557    158.3918      2.6482   3.7247691821e+01   4.4361513399e+01    0.3528672    0.1974765  45.31  0.001834904    1.862    0.463
        64  -9.4904     53.7096      3.5577   6.1076521223e+01   6.6847101950e+01    0.2449783    0.1503226 -40.74  0.001305646    2.293    0.564
        65 -11.1038    207.6615      2.5501   3.2169451756e+01   3.3114942301e+01    0.2520683     0.188916  85.24 0.0003433156    1.169    0.145
        66 -10.3360    203.5131      1.5356   3.2289680177e+01   3.4122414070e+01    0.2903683    0.1527054  62.96  0.001046031    1.785    0.440
        67  -9.5684    154.4985      7.2282   3.9066973667e+01   4.4881873945e+01    0.4356828    0.1533737  69.85  0.001759756    2.619    0.618
        68  -9.1844    151.7906      1.3444   3.7722920571e+01   4.6018982488e+01    0.2448258    0.1073357  72.98  0.000898267    2.108    0.526
        69  -9.1562    122.7850      1.3316   4.2109067408e+01   5.2783890308e+01    0.2427551    0.1077733  68.66 0.0008325597    2.116    0.527
        70 -10.4023     82.2493      1.3146   5.0905278904e+01   6.1662073458e+01    0.1981555   0.09610476  53.32 0.0003473435    1.754    0.430
        71  -8.8869     33.5514      1.5304   6.8526899314e+01   7.0206747584e+01    0.1206113   0.08716561   6.92  0.000806372    1.080    0.074
        72  -9.9391     27.3911    140.1802   1.1146535659e+02   4.2588928021e+01    0.3464248    0.2550965  86.46  0.001770646    1.360    0.265
        73  -9.8765    142.8298    249.8206   9.8768566637e+01   3.0865038072e+00    0.1737982    0.1319189  49.11  0.001079099    1.344    0.256
        74 -11.9274     29.9648    132.9702   1.0972597249e+02   4.4147916861e+01    0.6117667    0.3902926 -86.19 0.0003479155    1.633    0.388
        75 -10.4703     25.4880    135.4796   1.1137436376e+02   4.3913672304e+01    0.3575005    0.2187307 -67.82  0.001251553    1.366    0.268
        76 -10.4874    217.2094    138.2774   6.2804554563e+01   1.0845443221e+01    0.3895513     0.325012 -69.65  0.001462385    1.563    0.360
        77 -10.1931     40.0728    138.2316   1.0757188395e+02   4.1880137038e+01    0.2766926    0.2158235  31.90  0.001131932    1.448    0.309
        78 -10.0108     79.9849    137.3383   9.5759743773e+01   3.7123638919e+01    0.4374877    0.2760263 -24.94  0.001841039    2.214    0.548
        79  -9.6390     67.1241    136.1027   9.9286339729e+01   3.9243689722e+01    0.4861669    0.1649413 -46.94  0.001657831    2.930    0.659
        80 -10.2792     47.2502    135.6514   1.0506846580e+02   4.1768953570e+01    0.4934925    0.1658957 -63.36  0.001373403    2.591    0.614
        81 -10.6630     93.0529    131.3699   9.0687562122e+01   3.6542918980e+01    0.7471911    0.2509667 -57.61  0.002312304    3.268    0.694
        82 -10.3907     74.1724    132.5023   9.6492107979e+01   3.9166776452e+01    0.3316759    0.2114581 -28.87  0.001456436    1.980    0.495
        83  -9.9359     61.6726    132.2511   1.0017743908e+02   4.0914031401e+01    0.4190908    0.2886666 -27.59  0.002027698    1.756    0.431
        84 -10.8219     21.5537    136.2643   1.1259936559e+02   4.4043015612e+01    0.4851308     0.235315 -70.55  0.001794338    1.734    0.423
        85  -9.9869    103.9201    130.8776   8.7448093420e+01   3.4808690559e+01    0.2508871    0.2261954 -11.40 0.0002829118    1.177    0.150
        86 -10.7996     10.3206    127.6298   1.1472474820e+02   4.6977419482e+01    0.5985226    0.2186921 -58.44  0.002704569    2.085    0.520
        87 -10.0572    239.0028    125.0100   5.6218674753e+01   9.1790558489e+00    0.2679433    0.1497857 -32.10   0.00128212    1.624    0.384
        88  -9.0963    223.8364    126.7710   5.9061311322e+01   1.1667137924e+01    0.1906982    0.1537687 -54.27   0.00046595    1.335    0.251
        89 -10.0700     22.9334    127.0186   1.1094222992e+02   4.6210865307e+01    0.1947596    0.1604494 -63.59 0.0003249231    1.032    0.031
        90  -9.7276      2.2586    126.0534   1.1685441477e+02   4.7855268158e+01     0.258593    0.1751893  80.64  0.001026291    1.504    0.335
        91  -9.7625     82.0900    125.1984   9.2563560068e+01   3.9793118951e+01    0.3068662     0.249746  -8.29  0.001559719    1.435    0.303
        92  -9.7935     53.4166    124.6853   1.0125578472e+02   4.3805198201e+01    0.3424169    0.1924901 -60.16  0.001015953    1.576    0.366
        93  -9.6157     56.4717    122.4762   9.9876288201e+01   4.3989016705e+01    0.2556683    0.2008387 -40.69 0.0007728277    1.233    0.189
        94  -9.7137     49.3772    123.2492   1.0223834488e+02   4.4623942990e+01    0.3261918    0.2446941  -6.48  0.001424729    1.653    0.395
        95 -11.1845     45.1566    119.5398   1.0286695909e+02   4.6002938128e+01    0.6181074    0.3595989 -89.79  0.002593417    2.564    0.610
        96 -12.2701    103.9734    122.4230   8.5428105201e+01   3.6809483957e+01    0.4200288    0.3826084  -4.48 0.0007274453    1.150    0.131
        97  -9.2748     18.9291    122.6222   1.1151582976e+02   4.7599135912e+01    0.1695844    0.1508644 -76.08 0.0004512448    1.092    0.085
        98  -9.2587     71.5015    120.8781   9.4853295401e+01   4.2411448168e+01    0.2209155    0.1346356 -55.58 0.0005429239    1.505    0.336
        99  -9.1472    221.1913    120.4190   5.8064156625e+01   1.3300428153e+01     0.180934    0.1390537  67.10 0.0007844325    1.663    0.399
       100  -9.4347    185.3255    119.3258   6.4447826784e+01   2.0813234708e+01    0.1553748    0.1175142   1.08 0.0007049277    1.694    0.410
       101 -11.9398      7.1271     88.8108   1.1004049366e+02   5.6461925137e+01    0.6287874    0.4376273  28.10  0.001933518    1.755    0.430
       102 -11.5948     17.0124    100.9001   1.0871381929e+02   5.3003693687e+01     0.406188    0.3494427   7.73 0.0003393771    1.378    0.274
       103 -11.6594      9.7286     97.4530   1.1060674631e+02   5.4287126109e+01    0.7271501    0.5329748 -85.40  0.001253619    1.431    0.301
       104 -12.3527     42.8075     85.1834   9.6156367672e+01   5.4454642808e+01     1.156611    0.5150572  16.60  0.004734975    2.924    0.658
       105 -12.2937     34.6228     94.1549   1.0125413772e+02   5.3192460987e+01     1.333364    0.7087311 -21.86  0.005859177    2.521    0.603
       106 -11.5596     27.1702     85.3369   1.0200764091e+02   5.5898393986e+01    0.5683889    0.4408296   7.89  0.003441099    1.453    0.312
       107 -11.4504     18.7340    106.0495   1.0901544731e+02   5.1647421056e+01    0.2802148    0.2230788 -30.85 0.0002018603    1.310    0.237
       108 -11.8006     24.6812    113.7137   1.0835799588e+02   4.9338551587e+01     1.013672    0.4865496  15.09  0.004688575    2.640    0.621
       109 -12.2024     24.8906    108.2433   1.0736070443e+02   5.0653493269e+01     1.379188     0.654219  -7.64  0.005452018    3.669    0.727
       110 -11.6922     22.1778     94.8550   1.0581548379e+02   5.4070393379e+01    0.5516438    0.3703279  -3.30  0.003081161    1.787    0.440
       111 -11.9707     18.3758     90.1204   1.0624397180e+02   5.5458067460e+01    0.4618158    0.2462914 -62.10 0.0002933085    1.551    0.355
       112  -9.5803    210.3293    118.0001   5.9376373180e+01   1.5882158092e+01    0.2462775   0.09777287 -53.82 0.0007051387    4.340    0.770
       113  -9.0958     58.4978    118.0831   9.8344458580e+01   4.4824163677e+01    0.2238861    0.1279011 -57.28  0.001021893    1.559    0.359
       114  -8.7595     13.6828    118.7583   1.1256464029e+02   4.8914328521e+01    0.1247075   0.08191679 -41.56 0.0002699976    1.514    0.339
       115  -9.4540    113.5300    116.0728   8.1095892034e+01   3.6513299824e+01    0.2874759    0.2231782 -41.68  0.001381358    1.239    0.193
       116  -9.6493     79.5199    114.7459   9.0947374219e+01   4.2720066535e+01    0.3834028    0.2802714 -81.67  0.001776011    1.831    0.454
       117  -9.8227     66.9749    114.2132   9.4798220540e+01   4.4665293667e+01     0.328576    0.2288629  67.66   0.00150637    2.053    0.513
       118  -9.7403     66.6759    110.5260   9.4049656854e+01   4.5597733420e+01    0.3614185    0.2274933  22.59  0.001687857    1.823    0.451
       119 -10.4122      6.7135    114.0455   1.1405816780e+02   5.0494598373e+01    0.2911173    0.2170291 -79.67  0.001042454    1.204    0.170
       120 -12.6480      2.1922    111.3581   1.1509978375e+02   5.1391871050e+01    0.3806276    0.2204715 -69.82 0.0006075829    1.366    0.268
       121 -11.2683      3.9600    104.6469   1.1362800290e+02   5.2901004234e+01    0.4421646     0.352232  45.70  0.002169704    1.530    0.347
       122 -10.1970    107.5923    111.8859   8.1715800182e+01   3.8595149559e+01    0.4051642     0.297511 -64.56  0.001551286    1.614    0.380
       123 -10.8629    102.7410    108.9158   8.2363024990e+01   4.0172989646e+01    0.6817418    0.5401441 -27.74   0.00335836    1.300    0.231
       124  -9.5110     94.0071    112.4746   8.5912803200e+01   4.0902485875e+01    0.2938702    0.2144713 -67.60  0.001060129    1.632    0.387
       125  -9.8307     48.7483    112.3962   1.0030871385e+02   4.7367990023e+01       0.2497    0.2130888 -67.41  0.001307075    1.143    0.125
       126 -10.7749    170.2842    110.5016   6.5381873914e+01   2.5791612028e+01     0.443617    0.3444996 -32.53  0.001419682    1.264    0.209
       127 -10.5139    129.1569    110.1907   7.5241474222e+01   3.4711791295e+01    0.2658394    0.1935235  46.43   0.00102475    1.435    0.303
       128 -10.1163    120.4156    109.4047   7.7409822314e+01   3.6664188071e+01    0.3139373    0.2520553 -25.65  0.001457208    1.298    0.230
       129 -11.3954     79.7090    108.3299   8.9322405613e+01   4.4218921356e+01    0.6265978    0.3748445  32.54 0.0008977472    1.789    0.441
       130  -9.3854     58.9608    109.7068   9.6381981921e+01   4.6809357746e+01    0.2425057    0.1783873 -73.79 0.0006214516    1.526    0.344
       131 -10.7465    175.8324    107.4940   6.3425359464e+01   2.5163804574e+01    0.3991429    0.2889749  25.97  0.001697937    1.670    0.401
       132  -9.9741    157.3876    106.5066   6.7220577926e+01   2.9424387028e+01    0.3702013    0.2790661  -3.04  0.001666462    1.721    0.419
       133 -10.7452    143.3389    106.0060   7.0454355126e+01   3.2597971985e+01    0.3578373    0.3138905 -63.29  0.001358635    1.265    0.210
       134 -11.4574    145.3709    100.0145   6.8314187080e+01   3.3382462027e+01    0.4171696    0.3218921 -32.66 0.0002788946    1.294    0.227
       135 -10.4200     89.2843    104.6732   8.5352454848e+01   4.3519447018e+01    0.4060005    0.2624629 -40.32  0.000498317    1.484    0.326
       136 -10.6505     85.7205    103.6740   8.6213276526e+01   4.4344216672e+01    0.4138852    0.2812369 -23.05  0.001223289    1.753    0.430
       137  -9.6499     57.2389    102.4393   9.5280834185e+01   4.8768110576e+01    0.2755153    0.1808238 -52.97 0.0008576698    1.355    0.262
       138 -10.1023     57.4681     97.2253   9.3939329726e+01   4.9968560390e+01    0.3343313    0.2742422 -61.78  0.001852016    1.245    0.197
       139 -10.1400    209.2596     99.6435   5.5186336349e+01   1.9382620180e+01    0.4624212    0.2435774 -27.07 0.0008591182    2.205    0.546
       140  -9.3528    120.9523    101.0374   7.4968340072e+01   3.8376030951e+01    0.2541495    0.1900663  -3.51  0.001133133    1.712    0.416
       141 -11.3174     67.7654     95.7689   9.0034455726e+01   4.8923998879e+01    0.6013421    0.4651032  13.19  0.002688817    1.423    0.297
       142 -11.4843     76.5093     79.9205   8.2530766429e+01   5.1093994659e+01     1.589251    0.9004441 -61.43  0.006425878    2.536    0.606
       143 -11.0571     89.8889     89.6514   8.0986685820e+01   4.6769051025e+01    0.8047559    0.4230371 -27.42  0.002783355    2.589    0.614
       144  -9.8650     77.5393     96.5659   8.6966803005e+01   4.7284593876e+01    0.2863248    0.2564861  82.63 0.0001000398    1.401    0.286
       145 -11.0333     79.3774     93.0105   8.5380126840e+01   4.7795514686e+01    0.7577898    0.4289703  35.46  0.003364999    1.864    0.464
       146  -9.6238    140.8365     96.7752   6.8530916283e+01   3.5031731810e+01    0.4389124    0.2623541  18.97  0.001258204    2.858    0.650
       147 -10.6746     42.8376     94.6487   9.8444814992e+01   5.2264462884e+01    0.3391959    0.3128564 -46.27  0.001138525    1.088    0.081
       148 -10.0374    117.5631     93.6964   7.3826360031e+01   4.0619741783e+01    0.3703868    0.2877897 -15.47  0.001766297    1.451    0.311
       149 -11.0953    124.8748     93.7055   7.1808090221e+01   3.9096886475e+01    0.7841568    0.3148221  42.77  0.001877511    2.545    0.607
       150 -11.1934    120.9564     88.2635   7.1288396115e+01   4.1026526936e+01    0.6643658    0.4034517 -43.69  0.002299246    1.635    0.389
       151  -9.4554    160.7542     93.8765   6.3045947671e+01   3.1147597485e+01    0.2910231    0.2066682  82.87  0.001233758    2.103    0.524
       152 -10.9440    152.0869     91.9931   6.4483331384e+01   3.3465405203e+01    0.4400958    0.3361121 -56.63  0.001859667    1.456    0.313
       153  -9.5873    103.7833     92.9812   7.7634790975e+01   4.3503233451e+01    0.2914681    0.2200033 -67.00  0.001350606    1.721    0.419
       154 -10.6476     99.5097     90.8838   7.8323893450e+01   4.4758965341e+01    0.5804412    0.2816388  37.39  0.002286867    2.151    0.535
       155 -10.3766    104.9836     86.5082   7.5362114756e+01   4.4627752480e+01     0.531893    0.3177162 -16.38  0.001998292    2.623    0.619
       156 -10.9071    113.5641     83.5456   7.1949708915e+01   4.3505463461e+01    0.5804738    0.3954591 -33.80  0.002575161    1.466    0.318
       157 -10.6449    183.4863     85.5503   5.6186684174e+01   2.7497639925e+01    0.7522585    0.2726029 -44.52  0.002604439    2.744    0.636
       158 -10.3246     66.5417     88.7031   8.8547504139e+01   5.0700370111e+01    0.3260539    0.2258733 -18.68 0.0007862377    1.646    0.392
       159 -10.4636     67.1336     82.1325   8.6467983812e+01   5.2060828431e+01    0.3959796    0.3505714 -12.46  0.002283802    1.075    0.069
       160 -10.3140    165.6847     83.6963   5.9185511035e+01   3.1898877205e+01    0.3875385    0.3041357 -50.77  0.001381854    1.307    0.235
       161 -11.0906    143.0179     84.3074   6.4428440456e+01   3.6969773929e+01    0.3967128    0.3240433  36.96 0.0007503077    1.248    0.199
       162  -9.9424     60.4995     83.3812   8.9197971096e+01   5.2720065507e+01    0.2701884    0.2161042 -48.28 0.0007225202    1.189    0.159
       163 -10.3084     47.0965     75.1300   9.1825845456e+01   5.6206414302e+01    0.4350151    0.2459132 -52.10 0.0007851858    1.617    0.382
       164 -11.6153     53.0955     75.8544   8.9757916452e+01   5.5323181861e+01    0.6356189    0.3891433 -52.64  0.003164555    1.568    0.362
       165 -10.8681     58.1025     77.8798   8.8486230102e+01   5.4238977984e+01    0.3469946    0.3003145 -59.10  0.001069518    1.308    0.235
       166  -9.8714    127.4303     83.1741   6.8022321969e+01   4.0642360299e+01    0.3331543    0.2555099 -63.06  0.001435514    1.626    0.385
       167 -10.4683    126.9897     77.0800   6.6289382158e+01   4.1887731971e+01    0.3940586    0.2836961 -14.65 0.0003566853    1.662    0.398
       168 -11.8330     49.5188     99.2813   9.7181790210e+01   5.0440248312e+01     1.941437    0.7010949 -43.94  0.007271468    2.599    0.615
       169  -9.6299     21.1629     80.8439   1.0326064964e+02   5.7396881881e+01    0.1806966    0.1673712 -71.28 0.0005684557    1.236    0.191
       170 -11.5421    103.8787     75.1205   7.2171307791e+01   4.7109825808e+01    0.6499488    0.2918496 -38.50 0.0007261152    2.210    0.548
       171 -10.5422    233.1120     77.7666   4.6528626759e+01   1.8058944545e+01    0.3776783     0.234168 -43.13  0.001812663    1.402    0.287
       172 -11.8332     14.0414     74.7224   1.0464583291e+02   5.9269524470e+01    0.5410347    0.3746902 -62.95   0.00242387    1.311    0.237
       173 -10.0852     14.8533     67.3395   1.0259203487e+02   6.0843693052e+01    0.4625462    0.2346322   6.63  0.002353647    2.351    0.575
       174 -10.4587     94.4254     76.3766   7.5491972194e+01   4.8692127592e+01    0.5251397    0.3507072  29.80  0.001751763    1.568    0.362
       175  -9.6169    174.8284    246.9637   9.1977698526e+01  -1.1391575494e+00     0.239437    0.1591061  29.28  0.001421834    1.268    0.212
       176 -10.9213     78.6908     67.4545   7.7807283032e+01   5.3244350571e+01    0.8652941     0.546572 -45.84  0.004184929    1.607    0.378
       177 -11.8891     75.7666     56.8143   7.5176211852e+01   5.5714195545e+01    0.8407713     0.375558 -47.99   0.00336163    2.610    0.617
       178 -11.2274     72.9095     48.0104   7.2985787059e+01   5.7714740605e+01    0.8197969     0.795392 -23.00  0.002853628    1.282    0.220
       179 -11.6474      1.9655     71.3241   1.0868083433e+02   6.0698299811e+01    0.6728972    0.2243196 -67.12  0.002873403    2.625    0.619
       180 -12.6871      6.0597     62.3617   1.0504722716e+02   6.2448342449e+01    0.7284247    0.4368427  -8.79  0.003673807    1.834    0.455
       181 -12.2041    186.4455     70.6051   5.1722790258e+01   2.9322395029e+01    0.9060901    0.5810126 -39.67  0.002789696    1.497    0.332
       182  -9.9487    184.4205     61.2854   4.9593836217e+01   3.1242146902e+01    0.2896431    0.2126291 -43.97  0.001509979    1.324    0.245
       183  -8.9347     63.4179     76.1500   8.6021162715e+01   5.3874587909e+01    0.4473031    0.2659197 -72.01  0.001658809    3.546    0.718
       184  -9.3603     66.3919     74.2575   8.4360224772e+01   5.3838540190e+01    0.2628942    0.1937308 -15.51  0.001138121    1.418    0.295
       185 -10.3785    109.1090     80.8500   7.2414227090e+01   4.4946731890e+01    0.3708219    0.3376897 -20.08  0.001515764    1.053    0.051
       186  -9.3444    197.9688     74.2041   5.0748232846e+01   2.6126410372e+01    0.2355335    0.1598004  28.70  0.001086418    2.059    0.514
       187 -11.2398     40.8178     71.0728   9.3100676287e+01   5.7781599778e+01     0.504012    0.2807137 -50.87  0.001779322    1.583    0.368
       188 -11.6599     33.3317     72.1213   9.6357149845e+01   5.8313409447e+01    0.6781805    0.2640271  27.86  0.002949974    2.777    0.640
       189 -11.7735    123.0010     68.9133   6.4789843794e+01   4.4235494415e+01    0.5624489    0.4989929  23.07  0.001639723    1.116    0.104
       190  -9.8205    162.0943     70.8056   5.6301720730e+01   3.4956194890e+01    0.3015308    0.2363441 -61.07  0.001422349    1.427    0.299
       191  -9.7647    153.0881     72.8719   5.8785255008e+01   3.6709559484e+01     0.473501      0.16737  42.39  0.001498435    3.345    0.701
       192  -9.7527    172.4753     68.4961   5.3639933661e+01   3.2903865553e+01    0.3084001    0.2534896  11.99  0.001437358    1.494    0.330
       193 -10.1491    172.1835     65.1390   5.2764616600e+01   3.3506886417e+01    0.5201274    0.3597564 -79.10  0.001940434    1.959    0.490
       194  -9.5341     22.9421     66.2329   9.8976745341e+01   6.0491352832e+01    0.3756443    0.3322023 -55.04  0.002492297    1.226    0.184
       195 -11.4038    219.7341     66.6085   4.5714537151e+01   2.2536093627e+01    0.5176034    0.3301021  63.57  0.002083759    1.673    0.402
       196 -11.4941    233.5543     61.1938   4.2755138364e+01   2.0444873495e+01    0.7053281    0.3561248  57.16  0.003472107    2.147    0.534
       197  -8.6460    208.3117     68.3222   4.7707230349e+01   2.4751272963e+01    0.1334697     0.108176  15.56 0.0007038382    1.653    0.395
       198  -9.6910    192.4090     65.6402   4.9444882933e+01   2.8735030416e+01    0.2696996    0.2135045 -63.83  0.000753412    1.307    0.235
       199  -9.4723     53.1348     65.9902   8.6728019272e+01   5.7377353717e+01     0.252911    0.1816118  39.83  0.000928086    1.650    0.394
       200 -10.2893    200.0239     63.8855   4.7824152324e+01   2.7274181714e+01    0.5219497    0.3173903  88.49  0.002297214    2.317    0.568
       201  -9.7762     84.5531     61.7065   7.3864560920e+01   5.3290192906e+01    0.3297207    0.2306132 -35.27  0.001683965    1.382    0.276
       202 -11.5578     91.4833     63.1815   7.2095793964e+01   5.1740202655e+01    0.8158589    0.3985068  46.27  0.002994195    2.164    0.538
       203 -10.8202     87.7503     56.6984   7.1059825965e+01   5.3585133263e+01    0.6022204     0.231006 -35.83  0.001652094    2.638    0.621
       204 -10.5107     91.9540     57.4972   6.9983739733e+01   5.2648847405e+01    0.3406367    0.2727589  41.18  0.001052216    1.275    0.216
       205  -9.8811    105.8974     64.1058   6.7981690831e+01   4.8723147673e+01    0.2149231    0.2079162 -78.17  0.001226963    1.236    0.191
       206  -8.9949     64.8669     61.8866   8.0902198296e+01   5.6534089858e+01    0.3158399    0.2788027 -21.07  0.001209077    1.064    0.060
       207 -10.3964     59.6519     63.9622   8.3563339718e+01   5.6895929124e+01    0.3652641    0.2497515 -23.58  0.001206975    1.439    0.305
       208  -9.7562     57.3239     61.2998   8.3568495212e+01   5.7743866936e+01    0.2625187    0.1895779  -9.83 0.0005849096    1.427    0.299
       209 -12.2601     26.2721     56.5514   9.4801617523e+01   6.2232462480e+01     1.108681    0.6580301  11.99   0.00609303    1.839    0.456
       210 -11.3771     21.1023     46.6697   9.3973550734e+01   6.4634734252e+01    0.5039155    0.2887945 -32.52    0.0024207    1.476    0.322
       211 -10.5653     22.3102     36.7975   8.9958106617e+01   6.6367492148e+01     0.559257    0.3242061  46.51  0.002765267    3.123    0.680
       212 -11.6635     26.7091     47.4436   9.1682919109e+01   6.3987743716e+01    0.6999905    0.3281168 -25.72  0.003211182    2.382    0.580
       213 -11.1315     52.8486     49.2916   8.1123310398e+01   6.0607246621e+01    0.4619926    0.3710166  54.41  0.002639391    1.856    0.461
       214  -9.0701    163.5153    243.4988   9.3728680848e+01   1.0622282952e+00    0.1263447    0.1060961  23.24 9.766365e-05    1.019    0.019
       215  -9.7494     68.0376    240.4850   1.1280815057e+02   1.5219447297e+01    0.1810803    0.1047052  36.78 0.0009498054    1.582    0.368
       216  -8.6291    221.4971    239.4743   8.1837471397e+01  -6.5831198950e+00    0.1226831   0.09547083   4.54 3.102518e-05    1.009    0.009
       217 -12.2644     58.2300     29.8683   7.1290661165e+01   6.2939564733e+01    0.5359511    0.2871261  28.04 0.0007977107    1.857    0.461
       218 -11.7177     48.9076     30.4562   7.5333171295e+01   6.4269309644e+01    0.8038069    0.3342806  40.04  0.003662768    2.543    0.607
       219 -12.1870     47.5654     60.3029   8.7087927707e+01   5.9222120282e+01    0.7862349    0.5503663  23.03  0.004416876    1.490    0.329
       220 -11.0968     41.1091     57.0819   8.8668670179e+01   6.0623844098e+01    0.4157812    0.2403183  29.95  0.002171004    1.864    0.463
       221  -9.8254    156.9181     63.2211   5.5161441189e+01   3.7402348621e+01    0.3494853    0.1965207  44.48 0.0009048565    1.835    0.455
       222  -9.6393    160.9681     61.7639   5.3931801291e+01   3.6676520626e+01    0.2588846    0.2163914  66.74 0.0008023371    1.217    0.179
       223 -11.1280    148.1205    237.8671   9.6060465688e+01   4.3052654242e+00     0.472656    0.2488054  37.81  0.001732133    1.647    0.393
       224 -11.1503    156.6412     53.0629   5.2232057903e+01   3.9013580468e+01     1.110879    0.7974854 -23.27  0.005610247    1.540    0.350
       225 -10.8518    198.5199    233.0599   8.5138485372e+01  -2.4583525996e+00    0.3204215    0.2890212 -36.97  0.002149531    1.432    0.301
       226 -10.2220    242.6481    231.8133   7.6730915220e+01  -8.2847232347e+00     0.240269    0.2118473  43.50  0.001653025    1.872    0.466
       227  -9.3159     15.3075    234.0004   1.2242653585e+02   2.2411727316e+01    0.1586038    0.1182328  85.24  0.001148872    1.138    0.121
       228 -11.3211    155.8862     42.1458   4.9140582397e+01   4.0710375639e+01     0.808628    0.3922907  68.34  0.003316598    2.306    0.566
       229 -12.2871    153.0336     35.8940   4.7786284862e+01   4.2191009833e+01    0.3526126    0.2973456  47.56 0.0003835543    1.155    0.134
       230 -10.2151    247.3569    231.6347   7.5878665897e+01  -8.8487770503e+00     0.213458     0.162845 -24.48 0.0008650442    1.334    0.250
       231 -11.2692    127.6667    241.7539   1.0080942313e+02   6.6932721802e+00    0.3219568    0.2990529 -19.14  0.001759306    1.227    0.185
       232 -12.2465    159.8986     29.9007   4.4853973756e+01   4.1274902089e+01    0.4601335    0.3953557 -26.07   0.00114476    1.274    0.215
       233 -11.2157    164.1312     27.7658   4.3578077661e+01   4.0513159993e+01    0.2959834    0.2463754 -33.55 0.0004791893    1.287    0.223
       234  -9.7520    148.8298     61.0091   5.6186758805e+01   3.9653135289e+01     0.444707    0.1927886  61.31  0.001617004    2.656    0.623
       235 -10.1586    136.3844     55.7558   5.7313743692e+01   4.3372032661e+01    0.9167515    0.5345433 -33.17  0.004160376    1.765    0.433
       236  -9.4895     23.7437    231.6195   1.2071830819e+02   2.2046792728e+01    0.1580082   0.08320953  46.89 0.0007986043    1.611    0.379
       237 -10.9521    106.3831     58.4135   6.5923516553e+01   4.9595113459e+01    0.3572728    0.2659121  62.43  0.001045041    1.659    0.397
       238  -9.4806    238.2053     55.7083   4.1020757711e+01   2.0277950007e+01    0.2177235    0.1403669 -47.80 0.0003006505    1.338    0.253
       239  -8.6407    219.6652     56.7194   4.3406485859e+01   2.3998655636e+01    0.1239647    0.1021436  27.52 0.0005842317    1.614    0.380
       240 -10.2053     66.3183     53.8924   7.7562269652e+01   5.7788196926e+01     0.389133    0.2677119 -56.80  0.001940238    2.020    0.505
       241  -9.2829    187.9011     55.2626   4.7447635960e+01   3.1325500860e+01    0.2650472    0.1639917  57.38  0.001294119    1.605    0.377
       242  -9.0084      6.7062     54.7036   1.0285796870e+02   6.4029257542e+01     0.128227   0.06823733 -35.68  0.000262509    1.562    0.360
       243  -9.4926    211.7861     53.0049   4.3521273086e+01   2.6238019719e+01    0.2489953     0.168434 -90.00  0.001297395    1.677    0.404
       244 -11.2323    201.9747     48.7215   4.3757744976e+01   2.9022301598e+01     0.731399    0.3806475 -34.84  0.003452211    1.872    0.466
       245 -10.5725    240.1250     50.2991   3.9644649761e+01   2.0636191699e+01    0.3107877    0.2473118 -57.50  0.001191799    1.072    0.068
       246 -10.4621    245.6108     51.1748   3.9273092199e+01   1.9426551436e+01    0.2864028    0.1756839  77.97  0.001604876    1.808    0.447
       247  -9.8013    176.3005     43.3848   4.6062999447e+01   3.5693062661e+01    0.4231417    0.3590341  69.26  0.002462932    1.132    0.117
       248 -10.4306    175.1419     49.1606   4.7832473944e+01   3.5181203489e+01    0.3431434    0.3192697  86.70  0.001289579    1.036    0.034
       249  -9.7507    171.5208     47.5099   4.7971155424e+01   3.6266655733e+01    0.2798022    0.2528252  -8.15 0.0009326891    1.255    0.203
       250 -12.5423    119.2696     37.7273   5.5378669512e+01   4.9851807134e+01    0.8227051    0.5906346  88.03   0.00311786    2.059    0.514
       251  -9.2351    104.5297     52.9618   6.4581709737e+01   5.0868493241e+01    0.2084847    0.1216863  -8.24 0.0008097697    2.670    0.625
       252  -9.5112     91.1857     48.4471   6.6994832459e+01   5.4283411886e+01    0.2642681    0.1771123 -48.77  0.001292996    1.844    0.458
       253 -10.7906     12.7292     47.9765   9.8236739125e+01   6.5018896580e+01    0.3733473    0.1694285 -32.70  0.001479025    1.978    0.494
       254  -9.1175    190.1577    229.8389   8.6254802687e+01  -7.2893522872e-01    0.1818505    0.1330853   3.06 0.0006847446    1.326    0.246
       255  -9.6914    233.8475    223.1480   7.6788951304e+01  -5.9434702742e+00    0.1807802     0.121772  -1.60  0.001082974    1.346    0.257
       256 -10.8189     13.9692     23.5931   8.8967969025e+01   6.9382492973e+01    0.2877732     0.173731 -29.42 0.0002758508    1.319    0.242
       257 -10.4779    164.9059    212.4206   8.8547401357e+01   6.1934969298e+00    0.2905802    0.2180033  44.89  0.000784527    1.404    0.288
       258  -9.7180    153.0853    207.6168   9.0297223624e+01   9.0389876512e+00    0.2222652    0.1962467 -61.81 0.0006925314    1.347    0.258
       259 -10.6517     38.7022     22.0384   7.6132112660e+01   6.6915519575e+01    0.2621604    0.1743757 -21.45 0.0003921373    1.319    0.242
       260  -9.4578     61.1587    206.7739   1.1095356196e+02   2.3061523568e+01    0.1922001      0.15489  67.62 0.0008200057    1.129    0.114
       261 -10.6470    237.8409    204.3447   7.2657550947e+01  -3.7261063397e+00    0.2625374    0.2336719  25.72  0.001753905    1.411    0.291
       262 -11.3472      6.5773    195.7529   1.2179948442e+02   3.1211903059e+01     1.076796   0.05548409 -67.08  0.003349296    5.698    0.824
       263 -12.0396      4.8771    184.4755   1.2139278541e+02   3.3870929568e+01    0.6398676    0.4582634  79.87  0.003781484    1.165    0.142
       264 -10.7538    134.8667     45.8787   5.4505623206e+01   4.5170338360e+01    0.4107941    0.2188464  57.37  0.001011685    1.823    0.451
       265 -10.6893    139.8039     43.9241   5.2821898956e+01   4.4284259585e+01    0.3650917    0.2922974  58.33   0.00199586    1.200    0.167
       266 -10.6538     94.1212     41.1695   6.3407954243e+01   5.4792626690e+01    0.6640834     0.275516  45.72  0.002735118    2.255    0.557
       267  -9.2964     94.7779     36.0649   6.1299886714e+01   5.5369207890e+01    0.2703312    0.1753541  69.60  0.001231022    2.400    0.583
       268 -10.4990    189.0663     41.4226   4.3662770548e+01   3.2959461237e+01    0.4596111    0.1866519 -30.73  0.001719544    2.573    0.611
       269 -10.5309     82.2360     40.3093   6.6840018448e+01   5.7241327308e+01      0.69186    0.3750503  50.16  0.002745817    2.019    0.505
       270 -10.6087     77.9304     34.4777   6.6000767070e+01   5.8883120274e+01     1.013764    0.3249057  38.58  0.003684822    3.174    0.685
       271 -10.0190     81.2416     31.0073   6.3520450874e+01   5.8729502362e+01    0.3230739    0.2982044  66.63  0.001663655    1.440    0.306
       272  -9.8975     17.4636     41.5021   9.3941172343e+01   6.5919504853e+01    0.2708949    0.1678985 -24.72  0.001604461    1.410    0.291
       273  -9.3547     67.5871     41.4433   7.2416736448e+01   5.9674314437e+01    0.1350997    0.1129496  -0.66 -8.460738e-06    1.038    0.036
       274 -10.2627    231.4910     38.3938   3.7937153054e+01   2.3971792494e+01    0.3352808     0.193363 -43.06   0.00184591    1.526    0.345
       275  -9.6736    193.7570     38.8949   4.2379901798e+01   3.2201614171e+01    0.2089071    0.1691675  56.30 0.0004565935    1.279    0.218
       276 -10.7832    175.3801     30.7453   4.2751947154e+01   3.7498231317e+01    0.5299255    0.2392028  47.31  0.001467532    2.411    0.585
       277 -11.2475    176.7826     36.6005   4.4140388947e+01   3.6453812525e+01    0.3890699    0.3224386 -33.44  0.002280573    1.274    0.215
       278  -9.5236    133.2041     37.2674   5.2075435495e+01   4.6706943729e+01    0.3803505    0.2575428 -84.58  0.001747716    2.221    0.550
       279  -9.3395    206.8315     37.1222   4.0315553797e+01   2.9459629578e+01    0.1996082    0.1582956 -69.08 0.0006225369    1.187    0.158
       280 -10.6379    245.6658    200.8806   7.0635527957e+01  -4.2929395415e+00    0.2120139    0.1511278  11.41 0.0007337354    1.319    0.242
       281 -11.8330    106.0835     32.7667   5.6928683704e+01   5.3408875027e+01    0.6048719    0.3281413  20.64  0.002399506    2.723    0.633
       282 -10.8155    234.2846    196.9871   7.1904244066e+01  -2.0834146005e+00      0.40317    0.2872009  -0.74  0.001517165    1.331    0.249
       283  -9.2872    214.4961     34.5272   3.8835117544e+01   2.8089109639e+01    0.1269765    0.1116773 -71.98 0.0001003421    1.010    0.010
       284  -8.9566    216.6945     32.3007   3.8085898693e+01   2.7884297698e+01    0.1621123    0.1193987 -25.68 0.0003354158    1.560    0.359
       285  -9.0305    195.5512    199.7856   7.9859362516e+01   3.4560777802e+00    0.1788121    0.1283964 -48.22 0.0006747468    1.635    0.388
       286 -10.0669    145.5096     39.4719   5.0277052236e+01   4.3527167182e+01     0.226659     0.206296  -0.47 0.0005628762    1.192    0.161
       287  -9.1119     36.0559     31.7411   8.1520204267e+01   6.5770366873e+01    0.1688871    0.1371351   1.78 0.0005243985    1.115    0.103
       288 -10.8659    198.7709     29.0059   3.9287372967e+01   3.2272411035e+01    0.4334503    0.4009687 -46.13  0.002445838    1.160    0.138
       289  -9.3201    221.8154     29.6424   3.6960971023e+01   2.7102130622e+01    0.1925357    0.1581867 -35.48  0.000528749    1.300    0.231
       290 -10.6127    189.4545     27.5012   4.0029724243e+01   3.4586092990e+01     0.352576    0.2819776   1.95  0.001560879    1.676    0.403
       291 -11.4599    183.2784     25.4819   4.0284673347e+01   3.6253294927e+01    0.5285594    0.3231966  53.35  0.002686253    1.636    0.389
       292  -9.0251     99.5289     30.4857   5.7844235374e+01   5.5099048169e+01    0.1915462    0.1143653  41.73 5.340158e-05    1.522    0.343
       293  -9.7816     97.7097     26.6142   5.6876786854e+01   5.5951371285e+01    0.2651833    0.2207052 -40.72  0.001139893    1.418    0.295
       294 -10.4214    230.3486     27.1721   3.5607862055e+01   2.5594965602e+01    0.3433329     0.190824 -39.71  0.001183495    1.632    0.387
       295  -9.3103     82.7458    196.2282   1.0473646081e+02   2.2545822924e+01    0.3193206    0.2020203  16.61  0.001502806    2.156    0.536
       296  -9.7830    250.5081     26.5212   3.3763487333e+01   2.1612811771e+01    0.1940174    0.1112392 -22.93  0.001035065    2.327    0.570
       297  -8.9643      1.3384     27.0109   9.6962710631e+01   6.9705877567e+01     0.147547   0.09545375 -58.78 0.0009130717    1.747    0.428
       298  -9.8819    169.9235    191.4367   8.3684140756e+01   9.3204305548e+00    0.3651537    0.2191814  21.24  0.001595208    1.927    0.481
       299  -9.0425     16.4338    191.5115   1.1940365938e+02   3.1306485368e+01    0.1203097   0.09826248  89.39 5.867446e-05    1.042    0.040
       300 -10.2051    239.7759    184.6933   6.8548491351e+01  -9.4622872593e-01    0.2845984    0.1943856 -13.43  0.001042385    1.380    0.275
       301 -10.4134    250.3527    178.4913   6.5526558649e+01  -1.5198504487e+00    0.4735375     0.125429 -34.11  0.001647079    3.559    0.719
       302  -9.4880    168.6740     23.8732   4.1815488163e+01   3.9870818144e+01    0.2254163    0.1642988  55.03 0.0006769396    1.314    0.239
       303  -9.5132     59.6108     23.7696   6.8139279105e+01   6.3550122987e+01    0.1779761    0.1464593 -10.49 0.0006698541    1.139    0.122
       304  -9.7382     60.2776     19.9635   6.6212424356e+01   6.3922728412e+01     0.334912    0.2254741 -47.80  0.001412342    2.229    0.551
       305  -9.0912    223.2175     22.1875   3.5173182628e+01   2.7680065300e+01    0.1711483     0.120464 -69.36 0.0005520406    1.297    0.229
       306  -8.8880    157.4866    179.5665   8.4172713606e+01   1.3911029838e+01    0.1468028    0.1357572   3.99 9.122318e-05    1.029    0.028
       307  -9.6730     74.7189     19.4863   6.0907542790e+01   6.1389307527e+01    0.2497852    0.1731888  29.62 0.0008047174    1.274    0.215
       308 -10.3915     52.0034    173.3809   1.0923860600e+02   3.1908192006e+01    0.5449886    0.2498689 -88.83  0.001963706    3.436    0.709
       309  -9.7787     27.8536    175.8920   1.1543853751e+02   3.3865460823e+01    0.2228746    0.1695579  60.37 0.0008685016    1.277    0.217
       310  -9.7131    230.4571    175.4901   6.8360542403e+01   1.9965051971e+00    0.2326929    0.1287442  36.66 0.0006014003    1.933    0.483
       311  -9.9397    247.9652    173.9043   6.5013891813e+01  -4.4234514937e-01    0.4210477    0.1661308  27.57  0.001558067    3.960    0.747
       312 -10.4903     38.3384    172.9456   1.1258605220e+02   3.3522881515e+01    0.4519409     0.205012  50.39   0.00203862    2.337    0.572
       313  -8.7025    170.7247    171.9755   7.9645212598e+01   1.3054371838e+01    0.1872139    0.1261102 -40.79 0.0008783907    1.461    0.315
       314  -9.8880      9.1585    155.8587   1.1806936887e+02   4.0222984737e+01    0.2289156    0.1673652 -70.61  0.001434917    1.150    0.130
       315  -8.5724      1.3139     20.7042   9.4614218892e+01   7.0811136916e+01   0.09134702   0.08957816  14.25 0.0003494533    1.601    0.375
       316 -11.5610      9.6134    166.8901   1.1894921527e+02   3.7567298343e+01    0.4828749    0.3594419 -80.27  0.001766665    1.097    0.089
       317 -11.1315     13.5480    159.3028   1.1730222648e+02   3.9065280900e+01    0.5528477    0.2157871 -69.33  0.002561274    2.043    0.511
       318  -8.9641    198.2110     17.8719   3.6635442748e+01   3.3659476513e+01    0.1639056    0.1396506  47.68 0.0005703089    1.363    0.266
       319  -9.1703    205.3041     17.4328   3.5803250684e+01   3.2114636328e+01    0.2276783    0.1054991  66.32  0.000903111    1.991    0.498
       320  -9.3024    198.0974    167.8822   7.2958668604e+01   8.8522124154e+00    0.2077503    0.1946062 -32.75  0.000736997    1.168    0.144
       321 -10.3756    186.3606     15.2028   3.7269626064e+01   3.6651153379e+01    0.2333827    0.1948293  85.26  0.000291428    1.069    0.065
       322  -9.0963    174.4553     15.9969   3.8894729272e+01   3.9342059862e+01    0.1960077     0.149506  71.96  0.000534412    1.183    0.155
       323  -9.6045    188.8291    163.9837   7.4038149422e+01   1.1293930709e+01    0.3089558    0.1667292 -23.04   0.00117946    2.503    0.600
       324  -9.1852    156.4693    166.0914   8.1668036586e+01   1.6938459775e+01    0.2224549    0.1453386 -45.08 0.0005203738    1.524    0.344
       325  -8.7369    115.3341     13.2716   4.7684602297e+01   5.3476013266e+01    0.1374061   0.08419555  36.61 0.0006987104    1.595    0.373
       326  -9.1535     94.2789     12.5630   5.2331353688e+01   5.8174289465e+01    0.1663305    0.1490942  28.44 0.0008002883    1.070    0.065
       327  -8.9338    152.4531    166.5166   8.2699593340e+01   1.7600386598e+01    0.1502252    0.1415285  -6.73 8.901978e-05    1.022    0.021
       328 -10.2170     18.7988    164.8672   1.1654463757e+02   3.7305020995e+01     0.286339    0.2392031 -34.25  0.001663989    1.489    0.328
       329 -10.1352    205.0855    163.0013   7.0524343339e+01   8.5102177270e+00    0.4061768    0.2401397  50.15  0.001651351    2.076    0.518
       330  -9.6481    208.5686    160.7314   6.9358158182e+01   8.3055920402e+00    0.3019694    0.1289548 -42.54  0.001193713    2.223    0.550
       331  -9.4366     38.7608    160.5736   1.1101419932e+02   3.6480380072e+01    0.2659044    0.1797832  44.24   0.00146075    1.551    0.355
       332 -10.3745     27.7765    163.6001   1.1418137503e+02   3.6814953379e+01    0.2502806    0.2009481  62.74 0.0008449093    1.246    0.198
       333  -9.2752     78.9870    160.0047   1.0022844499e+02   3.1667083473e+01    0.2329838    0.1680023  75.42  0.001029169    1.673    0.402
       334  -9.8601    246.4988    158.9946   6.2235589799e+01   2.2012619593e+00    0.2140644    0.1117801 -35.85  0.001044136    1.623    0.384
       335  -9.5603    224.2420    157.3598   6.5709357738e+01   6.1544203846e+00     0.346471    0.1809233 -48.44  0.001509498    2.141    0.533
       336  -9.5633    215.6386    157.8531   6.7393997771e+01   7.5712448146e+00    0.2360734    0.1628278 -19.72  0.001180663    1.478    0.324
       337 -11.1284     22.3327    155.2867   1.1465913795e+02   3.9316563683e+01    0.5045123    0.3029721  35.69  0.001797829    1.816    0.449
       338 -11.4819     15.8811    147.7822   1.1552239530e+02   4.1667276760e+01    0.5389081    0.3421796  57.20  0.002555676    1.702    0.413
       339 -11.5925     12.8771    138.1870   1.1525773571e+02   4.4228546450e+01     1.114207    0.4788854 -82.76  0.004865424    2.362    0.577
       340 -10.9644     21.3054    150.6997   1.1441475169e+02   4.0521096749e+01    0.2035965    0.1668878 -62.68 0.0003547844    1.141    0.123
       341 -11.7119     24.0113    148.0180   1.1338193864e+02   4.0949425347e+01    0.3866013    0.2187027 -59.27     0.000966    1.520    0.342
       342 -10.4523    104.8691    154.1854   9.2186278863e+01   2.9034776994e+01    0.3953882    0.3155189 -33.79  0.001983306    1.341    0.254
       343  -9.3117     33.0331    154.4951   1.1176280307e+02   3.8540857489e+01     0.304418    0.1844322  27.30  0.001499414    1.890    0.471
       344 -10.5785     31.4965    151.5049   1.1179946043e+02   3.9422157978e+01     0.320461    0.2296262 -32.46  0.001582146    1.710    0.415
       345 -10.3519      3.8191    153.2329   1.1916204049e+02   4.1226737178e+01    0.3809938     0.199515  77.59  0.001946078    1.992    0.498
       346 -11.0408      3.6416    146.9338   1.1862843598e+02   4.2744025270e+01    0.3622461    0.2361992 -82.64   0.00137413    1.270    0.213
       347 -11.7466      2.5771    141.6042   1.1839435968e+02   4.4091035063e+01    0.8377696    0.4364428  61.62  0.004291476    2.189    0.543
       348 -11.1123     63.3567    150.5860   1.0292853164e+02   3.6123493134e+01    0.4984842    0.3206995   0.08  0.002076741    2.426    0.588
       349  -9.5907     41.6637    149.0105   1.0870306105e+02   3.9033909475e+01    0.2632711    0.2007209  35.77 0.0008956111    1.447    0.309
       350 -11.2570     46.7188    146.6554   1.0695637066e+02   3.9080046320e+01    0.6694383    0.3373077 -63.30  0.003076327    1.726    0.421
       351  -9.5603     71.6085    150.9664   1.0069682754e+02   3.4935011907e+01    0.3223926    0.2240656 -16.52  0.001489318    2.053    0.513
       352 -10.1490    234.6207    149.2822   6.2175239882e+01   5.7829817237e+00    0.4323362    0.2127324 -26.14  0.001824746    2.242    0.554
       353 -10.8401    249.6474    142.8796   5.8391291569e+01   4.3566149460e+00    0.6576572    0.2162273 -38.11   0.00257747    2.543    0.607
       354 -10.7494     33.5242    144.3665   1.1031318952e+02   4.0995158203e+01    0.4277351    0.2717512  52.71  0.001846697    1.751    0.429
       355  -9.8915    239.7719    146.6987   6.0768393682e+01   5.3529858662e+00    0.2431768    0.1933626 -33.06 0.0005793385    1.093    0.085
       356  -9.8237    133.0011    140.6210   8.1817115208e+01   2.7103170288e+01    0.3222278    0.2338006 -47.75 0.0009884808    1.353    0.261
