#   1 NUMBER                 Running object number                                     
#   2 MAG_AUTO               Kron-like elliptical aperture magnitude                    [mag]
#   3 X_IMAGE                Object position along x                                    [pixel]
#   4 Y_IMAGE                Object position along y                                    [pixel]
#   5 X_WORLD                Barycenter position along world x axis                     [deg]
#   6 Y_WORLD                Barycenter position along world y axis                     [deg]
#   7 A_WORLD                Profile RMS along major axis (world units)                 [deg]
#   8 B_WORLD                Profile RMS along minor axis (world units)                 [deg]
#   9 THETA_WORLD            Position angle (CCW/world-x)                               [deg]
#  10 FWHM_WORLD             FWHM assuming a gaussian core                              [deg]
#  11 ELONGATION             A_IMAGE/B_IMAGE                                           
#  12 ELLIPTICITY            1 - B_IMAGE/A_IMAGE                                       
         1 -11.5592    204.0878     29.9958   4.8713418077e+01   3.0041640488e+01    0.9041539    0.7672033 -57.61   0.00498927    1.125    0.111
         2 -10.8533    211.6193     22.4505   4.5690008572e+01   2.9034234907e+01    0.5685956    0.3815894  22.74  0.001077249    2.067    0.516
         3 -11.8638    219.9590     13.0593   4.2275189571e+01   2.8007481996e+01    0.7809871    0.6685537 -47.33  0.002902983    1.068    0.063
         4  -8.7133     32.4987      8.5018   8.3922282910e+01   7.1505278642e+01     0.230612   0.09337174 -30.43  0.001036167    2.365    0.577
         5  -8.4726     21.6527      7.3168   8.9174240495e+01   7.2957759010e+01     0.103185   0.09389537 -66.27 0.0007048143    1.725    0.420
         6  -9.8486      7.6084      8.2688   9.8078361152e+01   7.4071898731e+01    0.2268463    0.1548886 -22.74  0.001447847    1.288    0.224
         7 -10.3091     49.0164    243.5011   1.2370873641e+02   1.9847661915e+01    0.1878103    0.1661501  -3.25  0.001146728    2.154    0.536
         8 -10.4127    128.2520    240.9342   1.0990357989e+02   9.7040904151e+00    0.4619244    0.1129492 -49.53  0.001873249    5.310    0.812
         9 -11.8895    130.9812    236.7890   1.0897687456e+02   9.9068935282e+00    0.8110752    0.1702756  47.21  0.002849651    4.335    0.769
        10 -12.9350     30.9896    219.4945   1.2541788802e+02   2.5994515104e+01     1.669785    0.6642298  81.67  0.008776588    2.638    0.621
        11 -13.5958      2.0899     28.2984   1.0935801172e+02   7.0524617163e+01     16.63956      1.03973 -63.45   0.02416211   24.401    0.959
        12  -9.3744    145.0062    228.4963   1.0549172896e+02   8.9977541207e+00    0.1875949   0.09501921  41.89  0.000749814    1.582    0.368
        13 -10.6754     96.5945    226.5529   1.1413626415e+02   1.6536680890e+01    0.3903426    0.1748489  49.51  0.001821803    1.802    0.445
        14 -10.1849     83.9085    222.9102   1.1612700519e+02   1.8919805122e+01    0.3631291    0.1783136  71.27  0.001828624    2.580    0.612
        15 -10.6335    125.3195    229.8665   1.0923263625e+02   1.1800309615e+01    0.3900941    0.1525793  44.04  0.001946023    2.017    0.504
        16 -10.5790     32.9516    204.6738   1.2419067791e+02   2.8547432762e+01    0.4669175    0.1628298 -78.38  0.002343255    2.704    0.630
        17  -8.9128    194.6874    194.6628   9.1272420776e+01   5.8112190160e+00    0.2127739    0.1408446  11.70  0.001129143    1.789    0.441
        18 -12.0597    120.7762    248.5636   1.1196788582e+02   9.6872035611e+00    0.9224504    0.2649472  37.24  0.003952881    3.228    0.690
        19 -10.0739     65.1605    182.4681   1.1592730471e+02   2.9177698140e+01    0.3560554    0.2425995 -41.48  0.001696986    2.228    0.551
        20 -10.0405     70.0428    176.7173   1.1424736500e+02   2.9738293257e+01    0.2670717     0.248741 -31.93 0.0006590048    1.509    0.337
        21  -9.4954     73.1350    249.8911   1.2012808693e+02   1.5911097819e+01    0.1774702    0.1035916  59.55  0.001233133    1.334    0.250
        22  -9.6500     79.3206    166.8074   1.1095295029e+02   3.0576312291e+01    0.2472026    0.2038159 -70.66 0.0006307522    1.208    0.172
        23 -11.4711     66.6066    163.1733   1.1341188218e+02   3.3141493735e+01     0.420626    0.2611342 -48.05  0.001003453    1.994    0.498
        24 -10.8917     85.2992    160.4695   1.0868722672e+02   3.1087888914e+01    0.6061562    0.3947918 -41.51  0.001630566    2.039    0.510
        25 -10.4497     72.9698    153.8847   1.1067829515e+02   3.4357317569e+01    0.5137034    0.2771465 -87.61  0.002275473    2.335    0.572
        26 -13.6984      2.1715    180.9803   1.2871667525e+02   3.6202950095e+01     5.184676          nan -72.09   0.01489974    8.187    0.878
        27 -11.0418     68.4596    143.9548   1.1035225781e+02   3.7265587496e+01    0.7108582    0.3954887  66.31  0.003274963    2.137    0.532
        28  -8.9013    100.1613    143.7237   1.0235916107e+02   3.2476383950e+01    0.2982396     0.229771 -32.46   0.00153862    1.680    0.405
        29 -10.4082     87.8490    143.3320   1.0536511423e+02   3.4566146436e+01    0.2785176    0.2632582 -53.35  0.000442684    1.210    0.174
        30 -10.3635     57.9517    130.9548   1.1111171221e+02   4.1711811436e+01    0.7077191    0.2705624 -79.01  0.002252885    4.236    0.764
        31  -7.8228     82.3527    137.6758   1.0579183339e+02   3.6725755015e+01    0.1491004   0.09889924  74.33 0.0007047527    1.759    0.432
        32  -8.7760    110.0854    132.7027   9.7720905829e+01   3.3240233083e+01    0.1997839    0.1892106  47.55 0.0006392566    1.119    0.106
        33  -9.2264     97.6581    128.7837   1.0012353792e+02   3.6329987244e+01    0.2687127    0.2488722  -7.34 0.0008342564    1.330    0.248
        34 -14.3076      9.5170    241.4577   1.2993360955e+02   2.4381110189e+01     2.213548     1.356576  52.43  0.006182056    1.267    0.210
        35  -8.7438     66.2378    250.4024   1.2129876892e+02   1.6690307632e+01    0.1550837   0.06716029  49.40 0.0009491561    1.658    0.397
        36  -7.7207    107.4298    120.5154   9.5764749865e+01   3.6508854539e+01    0.1472928    0.1382622 -69.49 9.076956e-05    1.017    0.016
        37  -9.7873     59.6600    230.7702   1.2110243705e+02   2.0703455429e+01    0.2383339    0.1851896 -85.31  0.001039977    1.340    0.254
        38 -11.4812    117.7489    229.6894   1.1059097392e+02   1.2958514728e+01    0.5811964    0.1991179  40.76  0.002718392    2.361    0.576
        39 -11.3672     38.9941    211.4446   1.2350599475e+02   2.6600524217e+01    0.4099044    0.3144702 -54.13  0.001183249    1.879    0.468
        40 -10.4051     12.9089     60.5627   1.1290597898e+02   6.2841470250e+01    0.3041385    0.1346722 -63.05   0.00153658    1.695    0.410
        41  -9.7010     69.1503    240.5474   1.2014798935e+02   1.7892911156e+01    0.4308731    0.1807037  79.67  0.001965001    3.893    0.743
        42 -11.3689    196.4271     36.0347   5.1483293651e+01   3.1243951007e+01    0.6488984    0.5434589  36.23  0.002712147    1.338    0.253
        43  -9.6151    138.8012    249.1924   1.0894346756e+02   7.0050861741e+00     0.146828    0.1165673  25.78  0.001078281    1.363    0.266
        44 -11.0174     95.7997    249.0152   1.1626525991e+02   1.3086775009e+01    0.4478348    0.1775078  38.32  0.002417331    2.167    0.539
        45  -9.1942     53.0007    250.5640   1.2346197427e+02   1.8254231301e+01    0.1554637   0.07514054  44.62 0.0007098091    1.584    0.369
        46 -14.0592     48.6706    201.5677   1.2099166197e+02   2.7374474289e+01     5.719605     1.955514  67.86   0.02070788    4.727    0.788
        47  -8.4973    154.3588    229.3083   1.0390125482e+02   7.4263992969e+00    0.1174123   0.08280578  16.98 0.0007041375    1.733    0.423
        48  -9.7157     12.6858     22.8404   1.0170634204e+02   7.0958311983e+01    0.2502238    0.0690264 -49.79   0.00107981    2.493    0.599
        49 -10.4383     60.4006    245.1611   1.2192760544e+02   1.8229663990e+01    0.2751553    0.1179905  47.03  0.001688729    1.700    0.412
        50 -10.0419     66.2588    243.6068   1.2084798432e+02   1.7760558874e+01     0.331438    0.1720822  72.46 0.0006352729    1.926    0.481
        51 -13.2518      8.8475    206.8991   1.2868351006e+02   3.0537080975e+01     1.261602    0.8859338 -85.30  0.004806637    1.320    0.242
