#   1 NUMBER                 Running object number                                     
#   2 MAG_AUTO               Kron-like elliptical aperture magnitude                    [mag]
#   3 X_IMAGE                Object position along x                                    [pixel]
#   4 Y_IMAGE                Object position along y                                    [pixel]
#   5 X_WORLD                Barycenter position along world x axis                     [deg]
#   6 Y_WORLD                Barycenter position along world y axis                     [deg]
#   7 A_WORLD                Profile RMS along major axis (world units)                 [deg]
#   8 B_WORLD                Profile RMS along minor axis (world units)                 [deg]
#   9 THETA_WORLD            Position angle (CCW/world-x)                               [deg]
#  10 FWHM_WORLD             FWHM assuming a gaussian core                              [deg]
#  11 ELONGATION             A_IMAGE/B_IMAGE                                           
#  12 ELLIPTICITY            1 - B_IMAGE/A_IMAGE                                       
         1 -11.0136    159.1246     42.4148   8.5616229429e+00   3.9274452659e+01    0.2406588     0.155408 -41.87  0.001204092    1.524    0.344
         2 -12.7546     45.9201     25.9622   3.4283726751e+01   6.8010972412e+01    0.3552881    0.3220748 -43.27  0.001204615    1.360    0.265
         3 -12.3778     89.5852     22.1220   1.5678434683e+01   5.9181542894e+01    0.3407667    0.2313855  23.94 0.0004674253    1.762    0.432
         4 -10.7144    140.2800     11.9930   2.0541363521e+00   4.7518347506e+01    0.1755728    0.1583081 -74.54 0.0002781595    1.102    0.093
         5 -11.9787     92.0629      9.0175   9.4218990339e+00   5.9935203938e+01    0.3687246    0.1960299  48.31  0.001245356    1.673    0.402
         6 -11.6458     49.4765      8.4117   2.3026104434e+01   6.9665129707e+01    0.2174787    0.1782276  32.27 0.0005864328    1.024    0.023
         7 -11.2234     68.1092      5.4662   1.4308251291e+01   6.5945496953e+01    0.2093282     0.163385  20.79 0.0005062761    1.319    0.242
         8 -10.6125    106.4209      4.7942   4.7428669528e+00   5.6728090564e+01    0.1654972    0.1267569  11.79 0.0007551376    1.619    0.382
         9 -10.5185    128.8192      1.3937   9.4343963547e-02   5.1349266535e+01    0.1978779   0.09761908  62.41   0.00075206    1.712    0.416
        10  -9.9209     25.3295      1.3083   3.1669321058e+01   7.4893872960e+01    0.1293157   0.08063258  13.28 0.0007039766    1.662    0.398
        11 -11.5497    106.1483    246.8638   6.4575969210e+01   8.8786843300e+00    0.1715134    0.1314997  10.51 0.0005090977    1.330    0.248
        12 -11.9024    139.3582    248.5903   5.7531705560e+01   4.2422996465e+00    0.3558346    0.1932596 -44.62  0.001955273    2.159    0.537
        13 -11.0781    124.8361    249.7823   6.0797554563e+01   5.9409556174e+00     0.190829    0.1560452 -18.66 0.0008174512    1.380    0.275
        14 -11.4292    103.0172    249.8076   6.5579626589e+01   8.7697863942e+00    0.1968706     0.134694  42.64  0.000848416    1.294    0.227
        15 -12.1996     65.3242    249.6940   7.3923089923e+01   1.3482054341e+01    0.4840134    0.1718625  35.23  0.002248406    2.058    0.514
        16 -12.1828     69.0465    247.4396   7.2919467425e+01   1.3456804287e+01    0.5535039    0.2048158  53.19  0.002291651    3.046    0.672
        17 -12.0088     64.1814    245.4991   7.3852121719e+01   1.4405545435e+01    0.1923697     0.171838  77.32 0.0002766251    1.243    0.196
        18 -15.1370     16.0318    165.1244   7.9853730222e+01   3.7793074011e+01     2.025356    0.8007033  71.59  0.007450415    3.129    0.680
        19 -15.5081      7.6237    185.4781   8.3517723444e+01   3.3435156997e+01     2.544537    0.9376198  35.25   0.01066108    2.260    0.558
        20 -15.0072     34.5380    231.1989   7.9575416116e+01   2.0600509635e+01     1.986268    0.6513445 -74.70   0.00853596    3.285    0.696
        21 -15.0882     18.6849    209.4400   8.2043262045e+01   2.6887414413e+01     1.457547    0.8465161  82.89  0.004939994    1.679    0.404
        22 -14.4089     33.1111    247.4247   8.0816085596e+01   1.7517933780e+01     1.095227    0.5029294  25.53  0.004517182    2.045    0.511
        23 -13.8945     25.7333    227.0546   8.1353601586e+01   2.2372095921e+01     0.606415    0.4746833  70.62  0.001970827    1.166    0.142
        24 -13.8609      9.8947    208.7473   8.4127584576e+01   2.7840746206e+01    0.5019031    0.3131637 -78.50  0.001131209    1.595    0.373
        25 -14.6705     20.3054    247.6711   8.3555714354e+01   1.8766043122e+01    0.7524014    0.5467184  44.45  0.004071525    1.083    0.077
        26 -14.2807      2.5678    226.7314   8.6542760376e+01   2.4593955657e+01    0.5174518    0.2904037 -71.80  0.002367993    1.910    0.477
        27 -14.9746      4.1241    210.5189   8.5573229686e+01   2.7940286407e+01     1.275902    0.5185565  84.99  0.005974136    2.444    0.591
        28 -14.2109      3.9810    201.1448   8.5208309055e+01   3.0058218222e+01    0.6828861    0.4958459  -7.98  0.004034395    1.939    0.484
        29 -13.7360     19.6204    233.4754   8.3059909820e+01   2.1645188510e+01    0.3866116    0.2893308   6.09  0.001596461    1.754    0.430
        30 -15.7244     14.9893    227.1430   8.3799459223e+01   2.3395530784e+01      1.26155    0.5881795  76.05  0.006447073    2.158    0.537
        31 -13.8293      1.7729    249.7891   8.7450695295e+01   2.0085021484e+01    0.2769369    0.1614523  67.45  0.001577372    1.444    0.308
        32 -15.1063      6.3718    247.6931   8.6451535054e+01   2.0073263611e+01    0.7982596    0.2676443  48.52  0.004115337    2.073    0.518
        33 -15.1751     10.6241    239.0171   8.5252966736e+01   2.1377877504e+01    0.6106098    0.5157445 -63.08  0.002727516    1.513    0.339
        34 -15.3071      5.2846    235.1712   8.6251421158e+01   2.2629722583e+01    0.5611456     0.536493 -89.47  0.004211328    1.334    0.250
        35 -11.6843     99.5531    246.7859   6.6037242206e+01   9.7491747611e+00    0.2346477    0.1729068   8.59 0.0006531096    1.472    0.321
        36 -10.3950    226.4416    246.4544   4.0374069536e+01  -5.8394099621e+00    0.1107579   0.08011504  -0.88 4.143641e-05    1.034    0.033
        37 -10.4754    163.2505    246.4154   5.2255577313e+01   1.5042456020e+00    0.1731218   0.09397498  35.33 0.0009467909    1.664    0.399
        38 -10.9820    205.6738    244.3194   4.3727799752e+01  -3.3165835736e+00   0.09936559   0.08632376  31.69 0.0007046423    1.680    0.405
        39 -11.2964    142.9226    243.3985   5.6109221771e+01   4.6099884366e+00    0.2269903    0.1767393 -28.58   0.00132736    1.423    0.297
        40 -10.7491     82.0332    242.3766   6.9553314733e+01   1.2801777171e+01    0.1669119     0.155506  68.34 0.0001081902    1.213    0.175
        41 -11.3927    126.1287    241.4299   5.9515746181e+01   7.1762311994e+00    0.1975302    0.1911411  73.93 0.0006432323    1.336    0.251
        42 -10.8251    117.8109    241.1410   6.1329711600e+01   8.3414598248e+00    0.1770763    0.1359932   6.27  0.001072378    1.337    0.252
        43 -12.6036     65.7986    239.2800   7.2985949299e+01   1.5408134765e+01    0.5526378    0.2562594  64.96  0.002389212    3.001    0.667
        44 -12.0792     58.9275    234.2057   7.4156811017e+01   1.7239078424e+01    0.3456099    0.1416368  42.65  0.001172916    1.935    0.483
        45 -12.2053     56.4201    229.9820   7.4404343266e+01   1.8395549040e+01    0.2894342    0.2410954  -6.24   0.00155962    1.540    0.351
        46 -11.8714    102.6717    237.9746   6.4390877470e+01   1.0937881725e+01    0.2994399    0.2061031 -38.22  0.001425517    1.788    0.441
        47 -11.7041     79.7103    237.6602   6.9642445341e+01   1.3994859093e+01    0.2849787    0.2300367  10.75  0.001773749    1.359    0.264
        48 -12.4867     47.1802    235.1125   7.6934783715e+01   1.8417864031e+01    0.4461604    0.2654955  75.84  0.002462218    1.851    0.460
        49 -11.1205    210.9706    236.4763   4.1587160291e+01  -2.8769318153e+00    0.2120637    0.1441349 -50.56   0.00126809    2.447    0.591
        50 -10.6092    138.1390    236.2031   5.6200741227e+01   6.4455707320e+00    0.1710918    0.1313352  40.35 0.0004048213    1.327    0.247
        51 -10.5209     87.8605    236.5916   6.7653385598e+01   1.3151724314e+01    0.1903944   0.09397163  39.83 0.0007448994    1.652    0.395
        52 -12.2303    121.1282    234.8338   5.9817266500e+01   9.0111593191e+00    0.2761425    0.2063761  51.93  0.001130595    1.508    0.337
        53 -11.2535    122.9668    231.3191   5.8954868929e+01   9.3915777044e+00    0.2005578    0.1545082  40.64 0.0004592135    1.243    0.195
        54 -12.2745    222.7082    232.4582   3.8889290092e+01  -3.6675506138e+00    0.2684536    0.1574868 -24.42 0.0009687184    1.488    0.328
        55 -10.9951    166.0127    234.5102   5.0012502510e+01   2.9746376222e+00    0.1731997   0.09134629  46.20 0.0006149568    2.559    0.609
        56 -11.7148    112.5932    234.5051   6.1719727725e+01   1.0238074440e+01    0.2750185    0.1088875  30.86  0.001058415    2.090    0.522
        57 -11.0325    184.3332    233.2635   4.6125776006e+01   7.9282910266e-01    0.1932115    0.1415806   3.41 0.0003458999    1.147    0.128
        58 -12.0578    181.6944    231.3189   4.6353869187e+01   1.4212072456e+00    0.3074229    0.2600191  42.15  0.002032694    1.606    0.377
        59 -11.0444    215.0767    231.6427   4.0104431229e+01  -2.6978060517e+00    0.1632925    0.1182114   6.00  0.001117052    1.094    0.086
        60 -12.2259    194.9407    229.4928   4.3489085120e+01   1.4281948280e-02    0.2555194    0.1866262 -35.54  0.001350765    1.509    0.337
        61 -12.1782    142.9938    231.6137   5.4512117586e+01   6.5629993816e+00    0.2019274    0.1821194 -22.37 0.0002795419    1.242    0.195
        62 -13.5854     72.7180    231.3889   7.0685594600e+01   1.6115099913e+01    0.8280844    0.3065487 -53.29  0.003526714    3.163    0.684
        63 -11.3892     85.1511    228.8654   6.7493381451e+01   1.5016179777e+01    0.3232872    0.2365166 -15.41  0.001626865    1.849    0.459
        64 -12.5671     80.7815    226.2711   6.8267001476e+01   1.6112492604e+01     0.465901    0.2302688  27.24  0.002188649    1.833    0.455
        65 -11.6826    230.0237    228.0088   3.6938881506e+01  -3.8925873905e+00    0.1474905    0.1387385   2.38 0.0006479869    1.694    0.410
        66 -11.1814    138.0090    227.0381   5.4980631228e+01   8.0548068518e+00    0.1946649    0.1652519  24.42 0.0003608261    1.071    0.066
        67 -12.4306    116.6744    225.3792   5.9639781237e+01   1.1373832170e+01    0.3552081    0.2255894  54.81  0.001468909    1.921    0.479
        68 -12.5724    106.1542    226.1726   6.2209174340e+01   1.2696189814e+01    0.3196206    0.1951357  26.18 0.0009666802    1.455    0.313
        69 -12.0353     48.4123    226.3704   7.6014145498e+01   2.0078303109e+01    0.3090361    0.1784574  62.54  0.001632759    1.731    0.422
        70 -12.8227     50.1767    222.4282   7.5288555960e+01   2.0709111563e+01    0.4847861    0.1903524  49.75  0.001950217    2.309    0.567
        71 -13.2263     47.4812    216.0389   7.5435741540e+01   2.2401903011e+01    0.4565368     0.337248  17.99  0.001388225    1.476    0.322
        72 -11.7156     42.2954    227.2189   7.7517948953e+01   2.0588786382e+01    0.2931418    0.1670934   9.60  0.001403745    2.456    0.593
        73 -10.2788    216.7815    226.0150   3.8914846702e+01  -2.1298438755e+00    0.1369714   0.08225606 -31.26  0.000834144    1.546    0.353
        74 -10.2365    182.4757    225.4905   4.5301963736e+01   2.2102023950e+00    0.1265366    0.1008186   5.16 0.0003250162    1.004    0.004
        75 -12.5256     93.2312    223.7271   6.4999468470e+01   1.4961020074e+01    0.4261281    0.2874853  17.70  0.002032285    1.524    0.344
        76 -12.0604    159.4923    222.0962   4.9540214072e+01   5.8866958114e+00    0.4417126    0.2333824  36.18  0.002223591    1.737    0.424
        77 -11.3614    165.9882    219.0261   4.7681269875e+01   5.4927341784e+00    0.2449585    0.1556389  10.62 0.0008806861    1.599    0.375
        78 -12.4635     57.1623    221.6300   7.3533809649e+01   2.0054620029e+01    0.3667363    0.2018352 -44.54  0.001760931    2.453    0.592
        79 -11.9579    124.6274    221.9084   5.7324868537e+01   1.0897266536e+01    0.2869525    0.1689901  35.76  0.001464466    1.465    0.317
        80 -11.0319    212.8930    221.1110   3.8822830127e+01  -9.8540698471e-01    0.1750422    0.1468935   4.40  0.001238744    1.214    0.176
        81 -12.4910    189.2983    220.5848   4.3175981314e+01   2.0699119123e+00    0.3507847    0.1895561  15.90 0.0005610345    1.903    0.474
        82 -12.9066    173.7216    219.9193   4.6205241186e+01   4.2708527571e+00    0.3283801    0.2475455 -43.42 0.0009987995    1.559    0.358
        83 -10.9092    176.2873    215.3363   4.4943674808e+01   4.6655497488e+00    0.1798618    0.1149543  13.89 0.0002900793    1.505    0.336
        84 -11.0401    237.2145    220.2051   3.4494807253e+01  -3.6605641499e+00    0.1376677    0.1168965  -8.06 0.0003492302    1.340    0.254
        85 -12.2558     78.1402    219.7660   6.8230199543e+01   1.7802732805e+01    0.3536885    0.2004883  21.92  0.001426936    1.799    0.444
        86 -13.1743    144.2290    215.2376   5.1858898917e+01   9.2864104095e+00    0.6361132    0.4388791  72.61   0.00243194    2.940    0.660
        87 -12.5888    121.4060    216.6571   5.7355894428e+01   1.2368519073e+01    0.3249363     0.262407 -79.74 0.0005321705    1.676    0.403
        88 -11.9045     63.9028    216.6721   7.1431892685e+01   2.0292629654e+01    0.3314505    0.2155994  55.22  0.001300675    1.465    0.317
        89 -10.9177    204.7961    217.0771   3.9646613082e+01   5.9892011636e-01    0.1510582   0.08723512 -36.28 0.0004420122    1.693    0.409
        90 -12.3522    129.3324    217.0131   5.5543484687e+01   1.1140997055e+01    0.3082874    0.1783605  15.64  0.001111964    1.937    0.484
        91 -11.1035     94.4214    217.3962   6.3967627070e+01   1.6086275447e+01    0.3137359    0.1015308  35.32  0.001191955    2.475    0.596
        92 -11.2664    225.0134    215.5666   3.5783907535e+01  -1.6529678528e+00    0.1829775    0.1448204 -23.82  0.001282913    1.280    0.219
        93 -12.2464     85.4035    214.7903   6.5887242915e+01   1.7877065039e+01    0.5102819    0.2562049  42.23  0.002258093    1.741    0.426
        94 -12.3010    107.6608    214.1644   6.0320891761e+01   1.4865426714e+01    0.3046106    0.2450214  74.25  0.001120329    1.556    0.357
        95 -13.7171     40.9777    212.7208   7.6782567732e+01   2.3868387346e+01    0.6362655    0.4418676  29.23  0.002456915    1.361    0.265
        96 -13.4536     36.4857    204.5606   7.7289851550e+01   2.6203933784e+01    0.5476152    0.4260346 -10.47  0.003127381    1.736    0.424
        97 -11.6167    156.1066    213.0845   4.8876291682e+01   7.9339280371e+00    0.2082829    0.1794847  16.60  0.001286742    1.063    0.059
        98 -11.9160    126.5311    212.8890   5.5605773336e+01   1.2346679060e+01    0.3405371    0.1192146  42.35 0.0006826637    2.831    0.647
        99 -10.6468     68.9470    212.8427   6.9794072868e+01   2.0485096500e+01    0.2546559    0.1418266 -40.34   0.00115092    2.471    0.595
       100 -10.6031     72.7112    212.3891   6.8799280654e+01   2.0094910011e+01    0.1779261    0.1201809  22.64 0.0003086735    1.473    0.321
       101 -12.4088    229.3018    208.2256   3.3831720914e+01  -1.1372473438e+00    0.3709612     0.202946 -20.04  0.001865275    1.709    0.415
       102 -12.3405    224.9777    204.5219   3.3936831188e+01  -8.9431225004e-02    0.2955858    0.2035284 -36.02  0.001012664    1.470    0.320
       103 -10.9544    209.5121    211.0777   3.7782242788e+01   8.8891727731e-01    0.1745846    0.1063538 -33.58 0.0005606462    1.538    0.350
       104 -11.5916     59.5230    210.9751   7.1986602911e+01   2.2085924662e+01    0.2319365    0.1787907  10.93 0.0004960079    1.497    0.332
       105 -12.4556     52.9686    209.6555   7.3523528556e+01   2.3175879292e+01    0.3189688    0.2275256  46.06 0.0006924871    1.206    0.171
       106 -11.9806    181.5987    208.1492   4.2671848068e+01   5.1061901559e+00    0.5026211    0.2551862   8.63  0.002010582    3.131    0.681
       107 -11.2862     96.7707    208.9368   6.2330267479e+01   1.7525426233e+01     0.322105    0.1810405 -72.97  0.001257165    2.416    0.586
       108 -11.6025    169.8091    208.8288   4.5230548809e+01   6.6812004099e+00    0.1703116    0.1561901  44.10 0.0009684355    1.408    0.290
       109 -10.3471    113.6956    209.7076   5.8238832892e+01   1.4888079400e+01    0.1360299    0.1023611  -5.50 0.0003798701    1.575    0.365
       110 -12.1432    106.3573    207.8711   5.9792947375e+01   1.6353480369e+01     0.449098    0.2921424  39.16  0.002033731    1.369    0.270
       111 -12.6863     27.3140    207.3369   7.9794882588e+01   2.6522815883e+01    0.3542508    0.2637776 -66.70   0.00130238    1.468    0.319
       112 -12.4246    160.9612    207.1507   4.6855160212e+01   8.2752074208e+00    0.2180531    0.2049641   8.02 0.0002922212    1.188    0.158
       113 -11.1075     77.3204    213.8632   6.7800460588e+01   1.9166392663e+01    0.2318814    0.1581388  41.93 0.0002953646    1.267    0.211
       114 -12.9547    145.1150    200.4143   4.9306449271e+01   1.1938440673e+01    0.4885882    0.4075916  86.10  0.002091486    1.791    0.442
       115 -11.4047     87.7158    193.7166   6.2655159002e+01   2.2198459777e+01    0.2173225    0.1713798  23.84 0.0001665419    1.240    0.193
       116 -12.5550     90.2983    200.1335   6.2834320492e+01   2.0375056766e+01    0.5226755    0.3247727 -32.67  0.001507729    2.168    0.539
       117 -11.8938     93.0395    194.4696   6.1348312916e+01   2.1244149761e+01    0.5889776    0.3840067  86.56  0.002650599    2.221    0.550
       118 -10.3634     52.9560    204.0000   7.3009082674e+01   2.4460082484e+01    0.2223272   0.06991038  27.77 0.0007974665    2.908    0.656
       119 -10.7833    166.6975    202.3101   4.4801971558e+01   8.2821803774e+00    0.1219993    0.1064517  60.13  0.000245051    1.607    0.378
       120 -11.7811    212.6805    200.2741   3.5360249217e+01   2.1031846223e+00    0.2835937    0.2492253 -68.71  0.001802179    2.008    0.502
       121 -13.8787    173.9333    196.3094   4.2222533936e+01   8.2573226971e+00    0.5669007    0.4550235  48.15  0.002147483    1.570    0.363
       122 -11.7220    121.2733    201.0438   5.5107324625e+01   1.5520023075e+01    0.1896691    0.1801342  15.83 0.0005247555    1.077    0.072
       123 -12.9600    137.4123    197.3686   5.0612061266e+01   1.3743485517e+01    0.4475298    0.3300638   6.39 0.0005259777    1.459    0.315
       124 -11.8138    124.7970    199.5983   5.4018373654e+01   1.5271424066e+01    0.2235596    0.1869653 -32.76 0.0001886247    1.286    0.222
       125 -13.1124    121.8515    196.0669   5.4189722173e+01   1.6466688125e+01    0.4850917    0.3185976  20.37  0.002347177    1.553    0.356
       126 -12.8070    150.8766    197.7783   4.7540680675e+01   1.1545435265e+01    0.4070522    0.3224414 -17.47  0.001371261    1.290    0.225
       127 -11.0480     84.3302    198.0787   6.4127617977e+01   2.1692652987e+01     0.336282    0.1741067 -84.00  0.001265303    3.209    0.688
       128 -11.0133     44.6902    197.9391   7.4615612832e+01   2.6834968402e+01    0.2542091     0.141371  44.35  0.001133713    1.567    0.362
       129 -11.5827    101.3171    196.2351   5.9434797228e+01   1.9608688652e+01    0.2997735     0.268252  -1.70  0.001712841    1.199    0.166
       130 -12.7228    191.6234    195.0562   3.8399132710e+01   5.8478916847e+00    0.4396132    0.2928801  33.35  0.001991074    1.503    0.335
       131 -10.9779    185.1765    193.1512   3.9342017192e+01   7.1181092639e+00    0.1606228    0.1561197   9.06  0.001038608    1.319    0.242
       132 -11.6335    202.2465    195.0218   3.6352609830e+01   4.3400215146e+00    0.2066522     0.163325  16.36 0.0004539373    1.186    0.157
       133 -11.8074    211.8304    193.8824   3.4387603575e+01   3.1999602543e+00    0.2851318    0.1626457  32.40  0.001565018    1.779    0.438
       134 -12.9078    161.2511    193.0957   4.4396459134e+01   1.0801929846e+01    0.4599623    0.2618679  34.55  0.002217361    1.651    0.394
       135 -12.4941    134.0253    190.9030   5.0346659779e+01   1.5596689036e+01    0.3648099    0.2553366   7.69  0.001129419    1.647    0.393
       136 -12.4420     51.2255    189.8802   7.2087722306e+01   2.7989133954e+01    0.2953743    0.2368612  48.89 0.0009599125    1.119    0.106
       137 -11.3224    147.7840    190.1702   4.6942288853e+01   1.3515746678e+01    0.1931426    0.1527916   2.87 0.0006006674    1.289    0.224
       138 -12.1534     76.6524    185.4190   6.4540507709e+01   2.5731923839e+01    0.4712557    0.2613982 -65.33  0.001890141    1.941    0.485
       139 -11.9245     76.5049    176.0425   6.3283914905e+01   2.8025175099e+01    0.3230853    0.2050887  86.37  0.001394249    2.098    0.523
       140 -11.6455    174.8784    188.7028   4.0661919292e+01   9.4724948379e+00    0.2351428    0.1719536 -21.07 0.0008790386    1.348    0.258
       141 -12.2004    168.9412    188.9992   4.1982113415e+01   1.0350272025e+01    0.2783563    0.1776528  32.28 0.0009621672    1.491    0.329
       142 -12.5081    110.5665    187.7899   5.5746858448e+01   2.0044078922e+01    0.3080896    0.2711078  11.26  0.001422873    1.143    0.125
       143 -12.1486    208.5581    186.4441   3.3637540058e+01   4.8288711344e+00    0.3461502    0.2042528  -0.33            0    2.206    0.547
       144 -13.1167    126.7661    186.0657   5.1316667079e+01   1.7795982809e+01    0.5190663    0.2304312  35.66  0.002071934    2.059    0.514
       145 -12.1093     42.7245    185.2395   7.3969952879e+01   3.0107333381e+01    0.3840201    0.2365227 -72.93  0.001918562    1.640    0.390
       146 -14.4185     22.4184    192.4068   8.0051446059e+01   3.0477249700e+01     1.261569    0.5431703  65.29  0.004317502    2.487    0.598
       147 -12.2747    157.0637    185.6717   4.4004655103e+01   1.2887798034e+01    0.2666059    0.1983613 -26.70  0.001040123    1.372    0.271
       148 -10.5958     70.7189    186.6096   6.6338311763e+01   2.6272393904e+01    0.2051408    0.1171194  40.65  0.000437112    1.576    0.365
       149 -11.3823    248.2626    185.6264   2.6908911936e+01  -2.2976556277e-01    0.1519715   0.09627958  16.73 0.0009506483    1.674    0.403
       150 -11.6219    162.9382    184.5191   4.2477014063e+01   1.2152019184e+01    0.2078961    0.1833432 -20.86 0.0009197135    1.107    0.097
       151 -10.8586     65.7397    184.2722   6.7432388345e+01   2.7508978322e+01    0.1889289    0.1666203 -18.74   0.00104813    1.341    0.254
       152 -10.0847     54.2925    184.3706   7.0651457934e+01   2.8954472446e+01    0.1422231     0.103802 -34.65 0.0007025683    1.723    0.420
       153 -11.2791    201.9491    182.6625   3.4159130199e+01   6.4013457231e+00    0.1767249    0.1511625   5.09  0.000489568    1.094    0.086
       154 -11.8778     94.3935    182.0856   5.9172276279e+01   2.3890654137e+01    0.3056456    0.2626383 -64.25 0.0009290085    1.258    0.205
       155 -11.9426    141.9467    181.5076   4.6778041116e+01   1.6228787759e+01    0.2196204    0.1925283 -39.19 0.0006207877    1.199    0.166
       156 -12.3182    134.1949    181.9636   4.8750489523e+01   1.7434960184e+01    0.2516467    0.1975328  23.05            0    1.214    0.176
       157 -10.7645     48.5335    181.5195   7.1963736485e+01   3.0352419417e+01    0.2517175    0.1284556  89.92   0.00102348    2.431    0.589
       158 -13.3673    117.6168    179.5025   5.2530073994e+01   2.0743429460e+01    0.5573249    0.3999411  59.88  0.001922441    1.707    0.414
       159 -11.9860     40.7919    180.7545   7.4075908508e+01   3.1429716313e+01    0.3057308    0.2382054  -7.14  0.001175538    1.647    0.393
       160 -11.2589     99.3905    179.8337   5.7454495615e+01   2.3634703257e+01    0.2048714    0.1330185 -44.53 0.0004447125    1.687    0.407
       161 -10.5295     58.9981    180.2881   6.8851482396e+01   2.9366937317e+01    0.1902195    0.1675502  42.26 0.0002048036    1.068    0.063
       162 -12.1326    191.1335    177.7004   3.5297811044e+01   8.8886381429e+00    0.2201203    0.1738484 -41.56 0.0005804231    1.341    0.254
       163 -11.0827    166.7682    178.1746   4.0446142241e+01   1.2733637264e+01    0.1952504     0.151513  -7.83 0.0004151286    1.331    0.248
       164 -11.9819    154.8566    177.2449   4.2945105154e+01   1.4913855768e+01    0.3394319    0.2062839 -52.40   0.00106681    1.873    0.466
       165 -12.8383    137.3373    176.6244   4.7004580006e+01   1.8032871083e+01    0.3902957    0.2911973 -67.43  0.000607583    1.744    0.427
       166 -11.0176    224.6165    177.1934   2.9133079321e+01   4.0438535228e+00    0.1742678   0.09784345 -27.17 0.0003363726    1.606    0.377
       167 -13.4749    126.8095    176.3816   4.9602333719e+01   1.9885694865e+01    0.5264738    0.3815106 -47.35  0.001967975    1.450    0.310
       168 -11.9972     31.6508    176.3140   7.6257960652e+01   3.3510601445e+01    0.2356747    0.2295167  20.42 0.0006189909    1.176    0.149
       169 -12.1397    106.7588    175.2409   5.4689273494e+01   2.3512885605e+01    0.3149859    0.1957432  38.95 0.0008304831    1.501    0.334
       170 -12.4331    145.0645    173.0786   4.4456257959e+01   1.7444929364e+01    0.3443208    0.2004612  48.11  0.001492608    1.934    0.483
       171 -12.9788     91.0920    171.1786   5.8368359816e+01   2.7007671523e+01    0.4450075     0.349392 -23.64  0.002196832    1.531    0.347
       172 -11.4100     79.5127    173.1385   6.1993951227e+01   2.8299203422e+01    0.2647091    0.1777962  50.55  0.001033717    1.491    0.329
       173 -12.6158    197.7960    170.8968   3.2704668380e+01   9.0280318049e+00    0.3074895    0.2581442  -6.64  0.001376524    1.074    0.069
       174 -12.8771    153.0657    170.4146   4.2046609383e+01   1.6600188791e+01      0.28207    0.2727056  48.56 0.0003556009    1.188    0.158
       175 -12.8319    152.4200    164.9970   4.1125008253e+01   1.7825173332e+01    0.3085521    0.2967014  84.29  0.001758231    1.246    0.197
       176 -11.3100     36.2860    170.9500   7.4404181779e+01   3.4384751770e+01    0.1956652    0.1737741  86.96 0.0006028457    1.073    0.068
       177 -12.1975    127.7050    165.9272   4.7416579845e+01   2.2044789891e+01    0.3100895    0.2203377 -26.80 0.0007555914    1.640    0.390
       178 -10.8787    118.3212    169.7054   5.0595875401e+01   2.2835759311e+01    0.2101815    0.1727372   0.15 0.0005446096    1.358    0.264
       179 -12.6387    122.1860    167.6484   4.9188578422e+01   2.2631117202e+01    0.4858815     0.211767  32.41  0.001262284    2.291    0.564
       180 -10.6443     62.2620    170.6012   6.6676912720e+01   3.1362013726e+01    0.1967575    0.1392604  16.45  0.000656898    1.579    0.367
       181 -10.7675    105.5086    169.5226   5.4039445108e+01   2.5058581698e+01    0.1506584    0.1418762  35.54 2.195866e-05    1.013    0.013
       182 -12.2410     85.4644    168.4707   5.9546507632e+01   2.8548702306e+01    0.3720824    0.2102455  64.14  0.001404154    2.566    0.610
       183 -11.6357     52.9380    168.1043   6.9131499734e+01   3.3196017120e+01    0.3419733    0.1717913  50.94  0.001213978    2.050    0.512
       184 -11.6306    159.9662    168.4766   4.0079435992e+01   1.5786058523e+01    0.2193871    0.1367755  36.24  0.001026027    1.574    0.365
       185 -12.3495    203.2242    167.2212   3.0976857341e+01   8.8083666339e+00    0.2275876    0.1991217  37.66 0.0008491284    1.341    0.254
       186 -11.1428    102.1467    165.1195   5.4194698027e+01   2.6669425935e+01    0.2225979    0.1990745  -4.74 0.0002716347    1.213    0.176
       187 -11.2792     64.1866    164.8889   6.5312677492e+01   3.2554175175e+01    0.2265033    0.1870719  63.13 0.0004787387    1.209    0.173
       188 -11.6148     43.9263    164.8586   7.1459699628e+01   3.5104621919e+01     0.214809    0.1907165 -35.29 0.0007091671    1.289    0.224
       189 -12.0913    198.7861    164.9472   3.1351982808e+01   9.9028499951e+00    0.2595612    0.1885687 -66.62  0.001289358    2.284    0.562
       190 -11.9245    141.7728    162.9202   4.3266609954e+01   2.0178000200e+01    0.2494537    0.2192006  10.12 0.0003242183    1.128    0.114
       191 -11.2826     56.4924    163.4659   6.7453913766e+01   3.3938076482e+01    0.1451701    0.1366842  63.20 0.0003003266    1.007    0.007
       192 -12.1986     24.9496    160.8009   7.6814951767e+01   3.8120097618e+01    0.3452408    0.2185816 -47.92  0.001330203    1.752    0.429
       193 -14.3521      4.8243    163.8499   8.3034998550e+01   3.8983530153e+01     1.117565    0.4845083  88.94  0.004861583    2.239    0.553
       194 -12.6060    105.2554    158.6071   5.2111347725e+01   2.7702956315e+01    0.4230381    0.3316212  89.77  0.001247053    1.614    0.381
       195 -12.7348    169.2386    158.9662   3.6097476270e+01   1.6029115006e+01    0.3901422    0.3022157 -83.32  0.001867864    2.106    0.525
       196 -11.8207     69.3725    158.3885   6.2756396874e+01   3.3494994294e+01    0.3047341    0.2284328 -25.83  0.000557296    1.659    0.397
       197 -12.3176    133.1778    157.0912   4.4243891242e+01   2.3024152131e+01    0.3401392    0.2614709 -71.01  0.001610273    1.659    0.397
       198 -13.5148     83.9557    149.9914   5.6813287508e+01   3.3420945248e+01    0.5328568    0.3583334 -17.96  0.001724013    2.168    0.539
       199 -11.7258    118.1995    157.5669   4.8304789241e+01   2.5655049185e+01    0.2224668    0.1447543  22.33 0.0009469115    1.727    0.421
       200 -12.0607     47.2182    156.0966   6.9357790551e+01   3.7001001692e+01    0.3460583    0.1734747  78.85  0.001237622    2.951    0.661
       201 -11.9137     28.9559    156.3132   7.5136534561e+01   3.8909383592e+01    0.2466605    0.1773831  17.45  0.001277786    1.536    0.349
       202 -11.9077    110.9707    165.1364   5.1739308762e+01   2.5162110735e+01    0.2797113    0.2007919  29.01  0.001008851    1.365    0.267
       203 -10.8499    141.4599    155.5097   4.1826309170e+01   2.1834328323e+01    0.1495025    0.1429354   5.75 5.547186e-05    1.009    0.009
       204 -11.4056    159.9995    156.9847   3.7734675941e+01   1.8094552019e+01    0.2116921    0.1818126  88.89 0.0004803102    1.588    0.370
       205 -13.2971     14.3672    153.2617   7.9406628798e+01   4.0984081395e+01    0.7880313    0.3359178  72.45  0.002411101    2.800    0.643
       206 -13.6005      3.3256    151.6791   8.2696481363e+01   4.2189324916e+01    0.8029261    0.4484103 -54.90  0.003998644    1.821    0.451
       207 -13.7535     12.9955    132.4946   7.7957123080e+01   4.6553014397e+01    0.6432333    0.2836427 -65.15   0.00277874    1.971    0.493
       208 -12.5033     20.4920    130.9815   7.5168847316e+01   4.6381940716e+01    0.3293472    0.2636832 -49.40  0.000839826    1.266    0.210
       209 -12.6510      9.9744    145.6825   8.0165183635e+01   4.3290913175e+01    0.3114606    0.2724767  32.83 0.0006941327    1.222    0.181
       210 -13.5191     10.9305    142.0168   7.9544341527e+01   4.4184022632e+01    0.4588785    0.3619888  80.53 0.0003733849    1.173    0.148
       211 -11.9025     67.3174    153.9454   6.2692222769e+01   3.4935954903e+01    0.2121982     0.193457 -61.90 0.0006659796    1.118    0.106
       212 -11.1540     88.9472    152.9862   5.5839975848e+01   3.1850160411e+01     0.246623     0.180332  67.23 0.0005578879    1.640    0.390
       213 -12.9287     51.7106    152.6454   6.7457985839e+01   3.7361323005e+01    0.4164653    0.3225331   0.65  0.001713929    1.563    0.360
       214 -10.9812    226.3262    151.6489   2.3973582968e+01   7.8231279910e+00    0.1220887   0.09558298 -61.08 0.0007048227    1.760    0.432
       215 -12.7782    171.2442    145.3808   3.2782909742e+01   1.8327536606e+01    0.4072878    0.2469541 -44.20 0.0008830943    1.609    0.379
       216 -12.6201     19.0990    149.4933   7.7579749302e+01   4.1585651095e+01    0.3206556    0.2618859 -13.75  0.001165132    1.479    0.324
       217 -12.0831    108.9106    149.0365   4.9177601317e+01   2.9357437609e+01    0.3352249    0.3152455 -58.85  0.000759812    1.107    0.097
       218 -12.8465     96.5076    148.9450   5.2793608142e+01   3.1581957366e+01    0.3018945    0.2828858 -73.14 0.0003850791    1.114    0.103
       219 -11.7492     90.9919    149.7301   5.4608542430e+01   3.2327191331e+01      0.21401    0.2012489  35.91 0.0003889157    1.036    0.035
       220 -12.8774     27.6576    149.6813   7.4848122332e+01   4.0776248653e+01    0.4287346     0.276219  14.21  0.001723909    1.772    0.436
       221 -12.0786    134.2101    149.3648   4.2357931898e+01   2.4552361439e+01    0.2920763    0.1993411  45.67  0.001326258    1.494    0.331
       222 -11.0036     21.0618    154.8053   7.7456345866e+01   4.0027701844e+01    0.2126775    0.1632165  59.47 0.0005921083    1.239    0.193
       223 -11.6529    146.9738    148.7448   3.9035085949e+01   2.2250324086e+01    0.2476517     0.212228 -41.01 0.0003882317    1.168    0.144
       224 -14.2237     50.3478    142.3408   6.6389048229e+01   4.0257659239e+01    0.9134185    0.4634559  53.72  0.003071962    2.281    0.562
       225 -11.5928     59.8277    124.8393   6.0047447092e+01   4.3654483815e+01    0.2181177    0.2009133 -63.44 0.0005274658    1.068    0.063
       226 -13.8650     49.5902    130.3296   6.4708875289e+01   4.3556537945e+01    0.6215051    0.4256539  27.64  0.002362619    1.495    0.331
       227 -12.1396     58.0436    128.5408   6.1391151328e+01   4.2923568114e+01    0.3046651    0.2288736  71.27  0.001204608    1.531    0.347
       228 -12.7019     54.0007    127.2760   6.2596079831e+01   4.3804652929e+01    0.3258812      0.27394  59.41 0.0004193225    1.240    0.193
       229 -13.0307    101.7042    142.4447   4.9917371281e+01   3.2267587752e+01    0.6789181     0.403448  61.43  0.002462291    2.398    0.583
       230 -13.0695     93.8307    140.1172   5.1821801747e+01   3.4250014379e+01    0.4930075     0.397575  -3.73  0.001761879    1.503    0.335
       231 -12.3707     26.0450    144.2945   7.4785100273e+01   4.2352207787e+01    0.2763204    0.1888035 -20.19  0.001170718    1.880    0.468
       232 -11.7909    187.0078    143.9623   2.9271332240e+01   1.5689367266e+01    0.2144526    0.1928237 -24.85 0.0004907805    1.019    0.019
       233 -10.4559    158.6268    144.6817   3.5407350360e+01   2.0866427170e+01    0.1577512    0.1144779  -0.55 0.0007032195    1.800    0.444
       234 -11.7680     85.8047    143.8636   5.5075518916e+01   3.4676728063e+01    0.2529664    0.2147148  34.10 0.0003922107    1.156    0.135
       235 -11.4709    179.1511    142.8218   3.0583086923e+01   1.7345575191e+01    0.2086146    0.1995468 -89.81 0.0008415405    1.248    0.199
       236 -11.2628    143.6113    143.3110   3.8664049435e+01   2.4069860350e+01    0.2542101    0.1840025  15.87 0.0005454263    1.670    0.401
       237 -11.6783    208.1821    141.2012   2.4829240713e+01   1.2463318096e+01    0.1775558    0.1500324 -53.72  0.000411588    1.334    0.250
       238 -12.1209     76.6742    141.9414   5.7612670518e+01   3.6647823178e+01    0.2170898    0.2026306 -80.84 0.0005654432    1.089    0.081
       239 -11.0384    165.5394    140.0029   3.2825648223e+01   2.0482133499e+01    0.2236587    0.1399913 -43.11 0.0003684176    1.552    0.356
       240 -12.0882     60.0041    139.4523   6.2668865918e+01   3.9761706990e+01    0.2742974     0.216409 -64.72 0.0003247874    1.253    0.202
       241 -13.3791     39.7884    138.1094   6.9355214950e+01   4.2622729203e+01    0.4786602    0.3212133 -60.92 0.0008726006    1.421    0.296
       242 -12.6547     37.1894    133.9723   6.9667213653e+01   4.4011880331e+01     0.433224     0.204583 -68.19  0.001629333    1.993    0.498
       243 -12.8672     68.3899    136.9932   5.9409174541e+01   3.9207540606e+01    0.4599416    0.2278853  46.81  0.000785631    2.146    0.534
       244 -12.6745    129.5750    137.3072   4.0903431298e+01   2.8167733004e+01    0.4501508    0.3306879  31.51  0.001181732    1.394    0.283
       245 -11.8932     87.8974    137.8979   5.3218360199e+01   3.5839402404e+01    0.2483987    0.2136375 -12.34  0.001222171    1.328    0.247
       246 -10.6313     20.6307    138.2807   7.5941221507e+01   4.4423790201e+01    0.1508186   0.09206954  55.79 0.0007013317    1.692    0.409
       247 -12.7931    123.3861    134.7678   4.1992215587e+01   2.9975999179e+01    0.5396119    0.3643828  -6.94 0.0002489935    2.388    0.581
       248 -12.2550     53.1184    135.6827   6.4377993032e+01   4.1680442293e+01    0.4271958    0.2054503  50.39  0.001607654    2.375    0.579
       249 -12.2861    174.5109    134.0470   2.9582940780e+01   1.9915245091e+01    0.3168049    0.2543638 -16.38 0.0007421375    1.338    0.253
       250 -12.6873     59.7015    134.0000   6.1813486068e+01   4.1247336227e+01     0.476245    0.2785371  42.36  0.002046532    1.706    0.414
       251 -10.6039    210.2182    134.3812   2.3054366692e+01   1.3280726227e+01    0.1672661     0.129006  59.30   0.00049299    1.652    0.395
       252 -11.1986    196.4925    134.0988   2.5362800599e+01   1.5763519138e+01    0.2103684    0.1249734 -39.15  0.000507845    1.528    0.346
       253 -12.4638    103.1672    133.6463   4.7568148322e+01   3.4155619781e+01    0.3668407    0.2362351  41.68  0.001238062    1.522    0.343
       254 -11.8853    200.6121    132.9555   2.4383962712e+01   1.5220951470e+01    0.2192864    0.2005459  55.06 0.0003641363    1.278    0.217
       255 -12.0894     77.9235    132.5712   5.5357889281e+01   3.8871380455e+01     0.304218    0.2057024 -42.46  0.000718119    1.579    0.367
       256 -13.3782     16.7194    133.5117   7.6771428183e+01   4.6006247203e+01    0.7729373    0.2131646 -71.45  0.001485759    3.080    0.675
       257 -11.2332     31.2375    131.2845   7.1394622468e+01   4.5338884583e+01    0.2350871    0.1753151 -62.84 0.0004486185    1.262    0.207
       258 -11.0089     69.3104    131.3010   5.8004140555e+01   4.0560262822e+01    0.1564004    0.1179957 -24.18 0.0004258545    1.604    0.377
       259 -10.1569    230.3242    130.6992   1.9177042839e+01   1.0541498549e+01    0.1215246   0.09264916 -61.28 0.0005793681    1.633    0.388
       260 -11.5916    111.7906    130.6153   4.4312837395e+01   3.3235390733e+01    0.2311798    0.1427558  48.31 0.0003493079    1.682    0.406
       261 -12.2084    130.1979    128.3618   3.8645796676e+01   3.0062583125e+01     0.267943    0.2560335 -40.16 0.0003263228    1.052    0.049
       262 -13.0302    122.3087    128.8730   4.0908830534e+01   3.1551883182e+01    0.6723263    0.2981475 -50.82  0.002392042    2.338    0.572
       263 -11.4444    125.7361    124.0064   3.8790646014e+01   3.1964041490e+01    0.3266656    0.2350337 -20.44  0.001038847    1.789    0.441
       264 -13.0829     82.8376    127.9194   5.2740202632e+01   3.9245755126e+01    0.4129902    0.3392112  14.67  0.001750252    1.341    0.255
       265 -11.0001    109.5017    127.4905   4.4252463277e+01   3.4429169091e+01    0.1572266    0.1534348   9.19  0.000810414    1.032    0.031
       266 -11.7016     64.4972    127.0077   5.8820150203e+01   4.2408615023e+01    0.2298403    0.2086314  33.25 0.0004468089    1.110    0.099
       267 -12.0763     26.4303    125.1981   7.2300295536e+01   4.7421921932e+01     0.259731    0.2363213  46.20  0.000875417    1.138    0.121
       268 -12.3990      9.5815    125.6643   7.8472031325e+01   4.8598916244e+01    0.2686392    0.1126216 -70.27  0.001122567    2.048    0.512
       269 -14.6873     78.4694    119.4646   5.2324716006e+01   4.2147464299e+01    0.8061671    0.7341941 -11.91  0.003029369    1.184    0.155
       270 -11.7241     42.3662    124.4979   6.6331948437e+01   4.5982195531e+01    0.2690401    0.2593872  60.54  0.001527761    1.054    0.051
       271 -12.2725     11.3188    112.5624   7.6372969173e+01   5.1963456522e+01    0.3429482    0.1877545 -71.64  0.001072968    1.620    0.383
       272 -12.2737      6.6902    112.7882   7.8187817173e+01   5.2186055734e+01    0.4655936    0.2452427  43.26  0.001335763    2.023    0.506
       273 -12.9089      3.3476    107.5460   7.8916348373e+01   5.3747777614e+01    0.5031313    0.2968754  32.08  0.002543357    1.815    0.449
       274 -14.1670     13.9632    119.8160   7.6232335161e+01   4.9857801723e+01    0.6899771    0.4625338 -87.87  0.002378986    1.451    0.311
       275 -13.2877      8.9772    117.8573   7.7874875799e+01   5.0707894797e+01    0.5339926    0.2672714  12.62  0.002407086    2.273    0.560
       276 -12.0674     49.8577    122.9165   6.3299088865e+01   4.5501305969e+01    0.2413095     0.200682 -31.81  0.001098166    1.297    0.229
       277 -10.8409    169.9718    122.4888   2.7846139960e+01   2.3066616341e+01    0.2060638    0.1457162  45.01 0.0003578113    1.478    0.324
       278 -12.2867    105.0351    121.3587   4.4120688953e+01   3.6775736212e+01    0.3762946    0.2568767  54.90 0.0009522847    1.634    0.388
       279 -11.3329     21.3384    121.8124   7.3730054288e+01   4.8765474862e+01    0.2177484    0.1084331 -61.24 0.0009457834    1.778    0.438
       280 -11.7935    193.2259    121.5696   2.3167437384e+01   1.8620109976e+01    0.1837759    0.1324479  34.18 0.0004417006    1.581    0.367
       281 -11.8408     59.0488    121.4860   5.9662055495e+01   4.4649529171e+01    0.2304308    0.1512077  26.71 0.0009099403    1.576    0.366
       282 -11.6961    200.9778    120.4778   2.1582077814e+01   1.7342008109e+01    0.1974321    0.1374957  49.96 0.0005842702    1.610    0.379
       283 -11.8418     63.5552    121.9628   5.8131296236e+01   4.3872727429e+01    0.2324622    0.1488296 -61.95 0.0003991024    1.556    0.357
       284 -12.9276     94.0742    117.2688   4.6567796523e+01   3.9887923879e+01    0.3680191    0.2783543  69.78  0.001633707    1.658    0.397
       285 -10.3949    249.9898    117.2718   1.3882592572e+01   9.5297797191e+00    0.1215163    0.1082437  49.90 0.0003299417    1.418    0.295
       286 -11.6226     29.8689    116.8487   6.9788727999e+01   4.9342207444e+01    0.2068265    0.1913663 -70.90 0.0003692783    1.013    0.013
       287 -11.8554    120.4007    114.6394   3.7913024795e+01   3.5201444675e+01     0.325386    0.2346756  -2.20  0.001307655    2.071    0.517
       288 -13.6227     63.0954    112.0438   5.6152983517e+01   4.6527152654e+01    0.5822007    0.4054544 -64.46  0.001477145    1.474    0.322
       289 -11.8110     58.9548    113.9977   5.8134677693e+01   4.6628995143e+01    0.3152214    0.1965829  34.29 0.0006913749    1.600    0.375
       290 -12.0562    115.1556    113.7127   3.9173262700e+01   3.6514810685e+01    0.3184882    0.1901836 -37.26  0.001272865    1.851    0.460
       291 -13.0889     82.2016    115.6452   5.0140212491e+01   4.2467571607e+01     0.344444    0.3186103 -18.16 0.0009378821    1.141    0.124
       292 -11.8855    165.9423    112.5311   2.6277951529e+01   2.5842642079e+01    0.2249068    0.1466762  47.75  0.001031788    1.594    0.373
       293 -11.2942    160.5692    109.2491   2.6594687949e+01   2.7635674366e+01    0.3164763    0.1441928 -37.66  0.001184355    2.235    0.552
       294 -11.0998    198.8568    111.3469   1.9879085856e+01   1.9333954484e+01    0.1785944    0.1746656  12.45  0.000714404    1.122    0.109
       295 -12.1743    105.1579    111.2369   4.1521983625e+01   3.9154428705e+01    0.3100912     0.215015  58.14  0.001004645    1.663    0.399
       296 -11.3592    210.0019    109.0010   1.7585000656e+01   1.7604744122e+01    0.2048253    0.1819016 -36.63 0.0005170301    1.031    0.030
       297 -12.1489     77.1329    107.8626   5.0004365620e+01   4.5306874572e+01    0.2342158    0.2135681  72.16 0.0003950862    1.189    0.159
       298 -11.2581     70.3451    108.3156   5.2585444972e+01   4.6340723659e+01    0.1628926    0.1192473 -18.71 0.0007048012    1.717    0.418
       299 -10.3885    139.6622    107.3037   3.0903368353e+01   3.2619391937e+01    0.1578044    0.1235153 -89.30 0.0007039019    1.671    0.401
       300 -10.9827    121.8658    107.0828   3.5512907156e+01   3.6576077941e+01    0.2274657    0.2091692 -89.55 0.0002637801    1.183    0.155
       301 -10.2455     98.3041    107.2876   4.2639565585e+01   4.1469164258e+01    0.1570078    0.1255032  -6.04  0.000291529    1.565    0.361
       302 -12.1098    109.6479    104.2700   3.8287363563e+01   3.9828758452e+01    0.3953729    0.3081165 -54.50  0.001221706    1.337    0.252
       303 -12.8647     11.4539    105.0155   7.5359439248e+01   5.3950423367e+01    0.3620954    0.2507238 -44.39 0.0009160635    1.403    0.287
       304 -11.7181    185.2850    101.2609   1.9820262675e+01   2.3840234071e+01    0.2294966    0.2213905  89.23 0.0003340881    1.092    0.084
       305 -11.8823     55.9513    101.2945   5.6402958024e+01   5.0345801460e+01    0.2829974    0.2203083 -39.11 0.0004557818    1.301    0.232
       306 -11.9304     57.8301     97.6643   5.4759148521e+01   5.0993187900e+01    0.3407365    0.2852511  53.43  0.001027136    1.302    0.232
       307 -12.5096     78.9550    101.9853   4.7826777559e+01   4.6436428965e+01    0.2971633    0.2630678 -54.51  0.001071185    1.143    0.125
       308 -10.8405    154.4339    101.1508   2.5843609634e+01   3.0569557653e+01    0.2830949    0.1965649 -83.72  0.001177738    2.196    0.545
       309 -12.9763      5.9074     99.5262   7.6932204621e+01   5.5715007067e+01    0.4317816    0.3146365  53.83  0.002058554    1.511    0.338
       310 -12.2091      9.0232     97.5008   7.5347186484e+01   5.6070051399e+01    0.2617005    0.1888691  54.90 0.0006863532    1.544    0.352
       311 -13.1311     94.0307     98.4559   4.1619144244e+01   4.4397160288e+01    0.5463573    0.3293342  59.27  0.001491629    2.173    0.540
       312 -12.2000     90.5011     98.5034   4.2821393113e+01   4.5089623091e+01    0.2940564    0.2481089  43.28 0.0006741348    1.175    0.149
       313 -11.5511     85.6935    100.0998   4.4923176187e+01   4.5643760922e+01     0.226431    0.2056648 -38.65  0.001151828    1.115    0.103
       314 -10.7812    208.8078     99.5926   1.5657294536e+01   1.9384728263e+01    0.1692981    0.1285456  77.03 0.0004607252    1.619    0.382
       315 -11.1192    162.5062     99.4922   2.3698958517e+01   2.9087941209e+01    0.1488908     0.140702 -64.62  1.24295e-05    1.046    0.044
       316 -11.9682    178.3804     96.5285   1.9886862985e+01   2.6148568635e+01    0.3066777     0.224931 -62.39  0.001065477    1.503    0.335
       317 -10.4122    113.1997     97.1576   3.5243362797e+01   4.0646217103e+01    0.1983112    0.1765743  74.51 0.0003128735    1.226    0.185
       318 -13.3539     78.8314     92.8323   4.5342044523e+01   4.8660179098e+01    0.3573767    0.3210267 -60.46 0.0008075768    1.167    0.143
       319 -14.1733     75.2542     90.2778   4.5937544014e+01   4.9919588192e+01    0.5515638      0.42393  35.89  0.002663257    1.289    0.224
       320 -11.1543     27.8803     90.6422   6.5892990937e+01   5.6429686758e+01    0.2704519    0.1696953  -8.84  0.001237231    1.932    0.482
       321 -12.5067      3.5723     88.6984   7.6501373848e+01   5.8638356789e+01    0.3695449    0.2170812 -72.31  0.001100292    1.514    0.340
       322 -11.4518      2.2273     85.0005   7.6591329658e+01   5.9646731299e+01    0.2048266     0.164924 -45.35 0.0002241818    1.140    0.123
       323 -11.4390    171.2238     88.0331   1.9033970694e+01   2.9230684601e+01    0.1998323    0.1830667 -52.78  0.000381526    1.035    0.034
       324 -12.6474     55.1181     85.6868   5.2699043564e+01   5.4363107850e+01    0.5466958    0.4580733 -22.09  0.002360962    1.240    0.194
       325 -11.4468     52.5082     80.0272   5.2205720606e+01   5.6111453432e+01    0.2511103    0.2355439  50.41 0.0003690934    1.167    0.143
       326 -11.4563     56.2925     77.9944   4.9947998227e+01   5.6016907467e+01     0.244746    0.2067124  21.13 0.0004204317    1.183    0.155
       327 -12.1163    149.5740     86.1654   2.2857477590e+01   3.4537778514e+01    0.4311921    0.1511365 -35.21  0.001360151    3.243    0.692
       328 -10.3257     36.5266     86.5014   6.1077508424e+01   5.6595382641e+01    0.1453303    0.1329475 -36.37 9.853575e-05    1.029    0.029
       329 -12.3057    134.5338     84.0113   2.5697493531e+01   3.8473817132e+01    0.2664846    0.2558739  45.18 0.0003475866    1.064    0.060
       330 -10.7500    236.9635     83.7755   8.6185533595e+00   1.6608611791e+01    0.1621229    0.1379905 -53.19            0    1.069    0.064
       331 -11.5409    208.2413     83.9900   1.2180051228e+01   2.1998195186e+01    0.1877881    0.1529117 -46.76 0.0002073645    1.074    0.069
       332 -12.9652     63.7499     89.5629   5.0219213975e+01   5.2074669305e+01    0.4508055     0.191081 -46.54  0.001637153    2.340    0.573
       333 -11.9525    164.8535     83.1312   1.8932773818e+01   3.1540134526e+01    0.2352856    0.1927382 -72.43 0.0008974498    1.303    0.232
       334 -11.4068     41.1433     91.6454   6.0261048497e+01   5.4758774322e+01    0.2266881    0.2049495  50.60  0.000415475    1.202    0.168
       335 -12.5013     88.7489     79.5140   3.7722950540e+01   4.9717428205e+01    0.4186207    0.2577322 -38.33  0.001403268    1.727    0.421
       336 -11.1406      4.8094     79.9318   7.4610961486e+01   6.0812286398e+01    0.2140476    0.1557488 -47.66 0.0005699671    1.216    0.178
       337 -11.1127     10.3763     82.0292   7.2311710660e+01   5.9977699275e+01    0.1975314    0.1734733  85.86 0.0006790884    1.229    0.186
       338 -11.4597      8.9640     77.8088   7.2236414995e+01   6.1126148164e+01    0.2789479    0.2058199 -70.24  0.000926699    1.271    0.213
       339 -10.5893     11.8063     86.7905   7.2466667136e+01   5.8675337474e+01     0.178967    0.1520713  65.62 0.0004249744    1.318    0.241
       340 -11.7369    112.6836     78.7566   2.9884123814e+01   4.4605172388e+01    0.3823939    0.2665601  88.56  0.001548097    2.242    0.554
       341 -11.1243    156.0084     77.9262   1.9227822878e+01   3.4512560492e+01    0.1803496    0.1620263 -49.76 0.0004982291    1.092    0.085
       342 -12.0207     75.0052     76.4610   4.1780440501e+01   5.3116435089e+01    0.2894391    0.2270672 -47.62 0.0005687816    1.306    0.234
       343 -11.9925     70.9114     76.5576   4.3415709317e+01   5.3859510718e+01    0.2929646    0.2069408 -31.42 0.0009145645    1.549    0.354
       344 -11.8431    184.0200     75.3593   1.3615046419e+01   2.8500768629e+01    0.2444942    0.1896967 -42.60 0.0002267465    1.210    0.173
       345 -11.3221    115.8972     75.0677   2.7813850924e+01   4.4578243554e+01    0.3316787    0.1975869  53.87  0.001395968    1.665    0.399
       346 -10.4695    129.7883     73.8799   2.3825193085e+01   4.1501584132e+01    0.1914773     0.168713 -84.43 0.0003110254    1.211    0.174
       347 -11.4968    105.1188     73.2877   3.0363418455e+01   4.7418058489e+01    0.2675399    0.2476382  83.51 0.0006301762    1.160    0.138
       348 -12.6233     70.3264     70.3097   4.1576130618e+01   5.5331614032e+01    0.5207596    0.3480945  -3.93  0.001488167    2.270    0.560
       349 -11.3635      3.1267     71.9412   7.4094259309e+01   6.2890824128e+01    0.2224341    0.2176131  55.56 0.0006778946    1.180    0.152
       350 -10.4384      2.2678     68.3444   7.3894080434e+01   6.3815826594e+01     0.143204   0.07744082 -43.97 0.0002377064    1.609    0.379
       351 -10.4300    188.8393     70.6330   1.1703097238e+01   2.8179552393e+01     0.180282    0.1257779  80.77 0.0001511905    1.602    0.376
       352 -12.4389     54.5881     69.0001   4.7841246225e+01   5.8339696615e+01    0.3426414    0.2483015  -0.04 0.0008547899    1.645    0.392
       353 -12.1217     48.2159     67.8750   5.0398188104e+01   5.9562777877e+01    0.5103236    0.2299964  43.61  0.001963072    2.532    0.605
       354 -11.3870    163.0274     68.9462   1.5414766133e+01   3.4368863133e+01    0.2158142    0.1736316  24.51  0.001096962    1.621    0.383
       355 -11.8308    154.2846     68.2709   1.6841433446e+01   3.6567075983e+01     0.252091    0.2252897 -72.28 0.0002694776    1.094    0.086
       356 -12.0249     59.9163     67.0565   4.4823463400e+01   5.7891405552e+01    0.4461757    0.2936211  85.15  0.001448442    3.530    0.717
       357 -10.4648    124.3761     72.1687   2.4645656690e+01   4.3112388900e+01    0.2063633    0.1394119 -51.48 0.0003586973    1.586    0.369
       358 -11.3588      8.4376     67.1107   7.0409146569e+01   6.3804033688e+01    0.2384196    0.1894376  20.07  0.000643187    1.373    0.272
       359 -11.3338     46.8410     62.8117   4.9357700644e+01   6.0892338917e+01    0.1859686    0.1683477  54.66  0.000401131    1.302    0.232
       360 -12.0572     12.2612     60.1457   6.6725098559e+01   6.5236646256e+01    0.4295966    0.1943085 -45.70  0.001952815    1.900    0.474
       361 -10.7503    123.1884     61.6298   2.1573920925e+01   4.5262578510e+01    0.2216889    0.1309937  46.97 0.0009483161    1.667    0.400
       362 -11.1172    109.7586     60.4237   2.4694518378e+01   4.8715863930e+01    0.2130633    0.1353629  43.67 0.0003757266    1.555    0.357
       363 -11.8814     41.8844     57.6077   4.9986502765e+01   6.2734920416e+01    0.3814933    0.2814507 -38.06  0.001568112    1.303    0.233
       364 -12.4855     36.9945     55.2135   5.1658005133e+01   6.3910855947e+01    0.4857616    0.3171737 -30.92  0.001670748    1.557    0.358
       365 -11.1165    160.3444     57.6590   1.2724874567e+01   3.6789818418e+01     0.155871    0.1024699 -70.20  0.000704763    1.783    0.439
       366 -11.2191    153.8439     57.0960   1.3697875712e+01   3.8455533376e+01    0.2270754    0.1835354 -70.49  0.000532489    1.257    0.204
       367 -12.2250    111.6795     56.5877   2.2846793648e+01   4.8910304629e+01    0.3296209     0.250311 -47.91 0.0008780703    1.404    0.288
       368 -13.1506    115.6284     53.8803   2.0877180453e+01   4.8395597988e+01    0.3863243    0.2911194 -76.89 0.0003530962    1.655    0.396
       369 -10.3220     93.3056     57.2637   2.8529946857e+01   5.3109883214e+01    0.1475906    0.1131313  20.57 0.0001740244    1.526    0.345
       370 -12.4359     22.7436     55.4352   5.9510054348e+01   6.5471376458e+01    0.3481508    0.2580847 -38.78  0.001380295    1.215    0.177
       371 -11.3414    179.5503     56.0105   9.2982125561e+00   3.2484967132e+01    0.1974617    0.1730324  88.57 0.0001343511    1.093    0.085
       372 -10.6139    133.5423     55.5555   1.7224774151e+01   4.3705072130e+01    0.1481881    0.1361517  87.25  9.28796e-05    1.054    0.051
       373 -10.6500    197.7345     54.5646   6.5658167158e+00   2.8597187323e+01    0.1826823    0.1180618  88.99 0.0009409154    1.710    0.415
       374 -12.7873    109.2035     51.9777   2.1900991403e+01   5.0267381545e+01    0.3696908    0.2540749  67.45 0.0003374823    1.555    0.357
       375 -12.4535     99.6948     49.3476   2.3630656469e+01   5.2971438531e+01    0.3334939     0.233398 -72.98  0.001477151    2.078    0.519
       376 -11.9471    173.9252     50.2311   8.5626206269e+00   3.4628630368e+01    0.3886215    0.1487577 -43.90  0.001540263    2.420    0.587
       377 -13.0029     30.4542     50.0739   5.3359902385e+01   6.5826506030e+01    0.3713082    0.2606036  41.51  0.001685469    1.644    0.392
       378 -10.9386    211.0909     48.1269   3.5704717495e+00   2.6620114718e+01    0.1711687    0.1595552 -54.97 0.0003019621    1.185    0.156
       379 -11.3714     19.1731     47.8283   5.9114871068e+01   6.7496828922e+01    0.1897419    0.1795004 -40.44 0.0009376647    1.170    0.145
       380 -11.2236     41.7647     46.8338   4.5967318770e+01   6.4987217459e+01     0.282611    0.1815297  39.50  0.000941183    1.623    0.384
       381 -12.4072    248.3057    248.3004   3.7051587705e+01  -8.2082971356e+00    0.2672659    0.1547581   8.56 0.0009553717    1.405    0.288
       382 -10.9753    155.1270     41.1664   8.8149411340e+00   4.0426348894e+01    0.1940775    0.1810253  67.91 0.0003134095    1.130    0.115
       383 -12.2224     34.8563     40.3091   4.7028607179e+01   6.7254119880e+01    0.3179796    0.2215333   6.50   0.00113627    1.500    0.333
       384 -10.7195    119.6718     38.8043   1.4667853633e+01   4.9640260021e+01    0.3253101    0.1676503  84.65  0.001094415    3.447    0.710
       385 -10.7407    113.8329     38.8499   1.6022382846e+01   5.1094732537e+01    0.1915699    0.1625049 -78.81  0.000275405    1.281    0.219
       386 -11.2899     80.4099     36.2546   2.4578215381e+01   5.9459011026e+01    0.1901206    0.1340008 -44.63 0.0009477938    1.613    0.380
       387 -12.1761     33.4798     33.5100   4.4809793829e+01   6.8725728559e+01    0.3673052     0.180794 -41.86  0.001713037    2.003    0.501
       388 -12.1362     30.3461     31.6838   4.5826363874e+01   6.9492085544e+01    0.2493328    0.1770841  26.75  0.001043096    1.341    0.254
       389 -10.7022     10.1537     36.6408   6.0943218172e+01   7.0650820219e+01    0.1738301    0.1070673  -3.37 0.0004057816    1.639    0.390
       390 -11.0494      5.0472     34.3529   6.3630815612e+01   7.1488341106e+01    0.1724102    0.1408979 -12.12 0.0003984807    1.116    0.104
       391 -10.9606     53.1796     33.5948   3.4429230524e+01   6.5486714144e+01    0.1927018    0.1181868  30.59 0.0004071898    1.591    0.372
       392 -11.3701     14.8186     33.0729   5.6427917431e+01   7.0993793109e+01     0.205146    0.1649044   3.95 0.0003330667    1.164    0.141
       393 -10.9289    174.3349     31.9571   3.5984848432e+00   3.6935929057e+01    0.1821952    0.1546429 -56.82 0.0004221941    1.117    0.105
       394 -11.7773     24.1381     42.1598   5.4071833929e+01   6.8205879809e+01    0.1700977    0.1616088  46.77  0.000713732    1.329    0.247
       395 -10.6194    127.9698     31.9943   1.0608563329e+01   4.8434838538e+01    0.1719115    0.1528027  74.12 0.0003752638    1.013    0.013
       396 -11.1436    106.3200     32.0217   1.5303275631e+01   5.3875415871e+01    0.1908858    0.1864139  89.56 0.0005652918    1.093    0.085
       397 -11.8041    181.8696    244.6854   4.8287500817e+01  -5.6226069018e-01    0.2796705    0.1724891 -13.39  0.001107625    1.674    0.403
       398 -10.9066     19.2028     27.8407   5.1179951598e+01   7.1570001875e+01    0.1759181    0.1680676  -5.85  0.000666018    1.261    0.207
       399 -12.7592     75.6407     26.1287   2.1777026899e+01   6.1942221821e+01    0.3151438    0.2674916 -83.51 0.0007788394    1.518    0.341
       400 -11.7755     85.5537     24.7305   1.7964500218e+01   5.9830912956e+01    0.2631643    0.1915456 -74.05  0.000894357    1.925    0.480
       401 -11.3475    114.7030    248.2206   6.2832390703e+01   7.5265682338e+00    0.2506957    0.1110675 -53.45  0.001222407    2.721    0.633
       402 -10.6026     66.4364     23.4166   2.3862295447e+01   6.4322741880e+01     0.135464    0.1204928  37.99 1.904733e-05    1.046    0.044
       403 -10.6301    116.5082     18.5129   8.0484128623e+00   5.2890607270e+01      0.13901      0.12187  70.93 -2.07242e-05    1.000    0.000
       404 -10.6115    173.5757     24.4979   1.6857881854e+00   3.7998108968e+01    0.1319902    0.1126325 -76.32 7.251073e-05    1.012    0.012
       405 -11.3445     75.9443     14.9559   1.6488620003e+01   6.3202999584e+01     0.205105     0.161223 -73.33  0.001056375    1.693    0.409
       406 -12.2319     53.8426    248.5986   7.6373557767e+01   1.5024834367e+01    0.4060511    0.2674634  25.24  0.002457705    1.429    0.300
       407 -12.7346     50.2646    244.6037   7.6891529794e+01   1.6194495585e+01    0.4691711    0.3582837 -54.55  0.002485591    1.657    0.397
       408 -11.5481     54.3287    242.3584   7.5826526562e+01   1.6165099661e+01    0.2025584    0.1694451 -76.50 0.0009747292    1.396    0.284
       409 -12.0415    214.8618    247.3924   4.2527116318e+01  -4.7301764650e+00    0.1913713    0.1506327  -6.71 0.0003165531    1.197    0.164
       410 -11.5176    120.9388    248.4272   6.1488753828e+01   6.6758035432e+00    0.2473457    0.1349817  19.20  0.001083992    1.789    0.441
       411 -11.6123    178.2288    247.1693   4.9354042132e+01  -4.7135342064e-01    0.2611947    0.2236517  32.38   0.00184323    1.469    0.319
