#   1 NUMBER                 Running object number                                     
#   2 MAG_AUTO               Kron-like elliptical aperture magnitude                    [mag]
#   3 X_IMAGE                Object position along x                                    [pixel]
#   4 Y_IMAGE                Object position along y                                    [pixel]
#   5 X_WORLD                Barycenter position along world x axis                     [deg]
#   6 Y_WORLD                Barycenter position along world y axis                     [deg]
#   7 A_WORLD                Profile RMS along major axis (world units)                 [deg]
#   8 B_WORLD                Profile RMS along minor axis (world units)                 [deg]
#   9 THETA_WORLD            Position angle (CCW/world-x)                               [deg]
#  10 FWHM_WORLD             FWHM assuming a gaussian core                              [deg]
#  11 ELONGATION             A_IMAGE/B_IMAGE                                           
#  12 ELLIPTICITY            1 - B_IMAGE/A_IMAGE                                       
         1 -14.9224    165.1316     42.3418   7.7428820724e+01   3.8750153585e+01     1.283409      1.06784 -11.62  0.004090864    1.418    0.295
         2 -14.8349    182.2607      9.0671   6.5526120198e+01   3.8416803899e+01     1.788498    0.8793209  62.93  0.006336824    1.715    0.417
         3 -11.8462    125.0461    243.8627   1.3091497466e+02   7.1881537890e+00    0.2076972    0.1622399 -62.91 0.0006917597    1.478    0.324
         4 -20.1692     69.2352    177.0410   1.3367770491e+02   2.9931941562e+01     17.87873     6.176271 -65.24   0.06979209    2.729    0.634
         5 -10.7246    153.4968    202.0378   1.1908641403e+02   9.9048758000e+00    0.2070607    0.1414295 -53.81  0.001032809    1.600    0.375
         6 -10.7852    139.8283    200.2589   1.2168928070e+02   1.2870600206e+01    0.3609942    0.2396594  42.04 0.0009311245    1.424    0.298
         7 -11.3290    112.6446    196.1940   1.2689190870e+02   1.8700358322e+01    0.5389026    0.3711375   3.91  0.002195607    3.338    0.700
         8 -13.7070    180.5803    193.6064   1.1186860679e+02   6.2347608448e+00    0.7234844    0.4383161  31.27  0.003265506    1.803    0.445
         9 -13.9732    165.6617    188.6430   1.1407571740e+02   1.0184693409e+01    0.7385683    0.4873959  51.51  0.003515545    1.483    0.326
        10 -12.9737    170.1263    183.1301   1.1205536597e+02   1.0391343309e+01    0.4507947    0.3185466  45.63  0.001212114    1.343    0.256
        11 -13.8013    173.0067    189.3377   1.1264315348e+02   8.5718152723e+00    0.6851335    0.4147152 -54.82  0.002695398    1.898    0.473
        12 -13.6044    175.2185    185.5226   1.1143631683e+02   8.8779515027e+00    0.7928169    0.3712304 -58.96  0.002757776    3.282    0.695
        13 -12.2415    168.0261    243.6060   1.2273869401e+02  -1.8148323695e-01    0.2336701    0.1831402 -48.28 0.0007992902    1.535    0.348
        14 -12.3942    210.3903    188.1650   1.0476311843e+02   1.3742401225e+00    0.2690529    0.2246091 -78.14  0.001431268    1.670    0.401
        15 -12.3281    153.7556    186.7393   1.1629429711e+02   1.2956189978e+01    0.3081262    0.2359033 -50.68  0.001264373    1.382    0.276
        16 -12.5546    151.6866    182.3160   1.1591813807e+02   1.4295469992e+01    0.3377258     0.275383 -74.94  0.001709804    1.371    0.270
        17 -12.2174    169.8459    195.1748   1.1440948224e+02   8.0597368393e+00    0.3059402    0.2792969 -44.22 0.0009447174    1.181    0.153
        18  -8.4418      7.9400    238.6949   1.5083706579e+02   2.4336729224e+01    0.2817591    0.1146394  46.53  0.001726449    2.107    0.525
        19 -11.3489    199.9741    161.7138   1.0130609256e+02   8.4249357190e+00    0.6037139    0.4254239 -63.21  0.002743067    1.830    0.454
        20 -13.2574    206.2433    178.0106   1.0351406908e+02   4.0300310119e+00    0.5768551    0.4868812   7.13  0.003125704    1.262    0.208
        21 -13.5492    203.6175    174.7930   1.0336938539e+02   5.1602911664e+00    0.9527242    0.4598608 -59.40  0.003003819    4.164    0.760
        22 -12.3863    202.4659    170.4699   1.0268924903e+02   6.2144318628e+00    0.5094528    0.2546825 -47.61  0.001641868    2.147    0.534
        23 -11.6871    205.3940    168.8283   1.0175036744e+02   5.9232121199e+00    0.5977166     0.332725 -53.39  0.002379576    2.191    0.544
        24 -12.2105    199.1851    178.8952   1.0511744237e+02   5.2876391701e+00    0.5328693    0.2897416 -61.69   0.00158415    3.259    0.693
        25 -13.3687    195.2266    168.7118   1.0379199337e+02   8.0575040470e+00    0.5500222    0.4860412 -58.36 0.0007403566    1.237    0.192
        26 -12.3521    192.6156    164.1687   1.0335560230e+02   9.5024381540e+00    0.4145985    0.3307005  27.43  0.001673401    1.340    0.254
        27 -14.3437    137.8574    171.4239   1.1694652045e+02   1.9420552307e+01     1.059073    0.6748724  56.90  0.004612407    1.648    0.393
        28 -13.1181    142.1730    165.9935   1.1487805918e+02   1.9758141472e+01    0.5038728    0.3719555 -85.99  0.002069128    1.716    0.417
        29 -13.7536    176.5112    172.0481   1.0844340422e+02   1.1319988882e+01    0.7036169    0.5742387 -23.04  0.003562398    1.403    0.287
        30 -12.0942    125.8250    172.0859   1.1984995970e+02   2.1619480967e+01    0.3582622    0.2903603  87.44  0.001430339    1.317    0.241
        31 -10.3212     12.4943    244.4207   1.5044956654e+02   2.2798766789e+01    0.1637849    0.1110368  74.16 0.0005647622    1.030    0.029
        32 -12.4383    164.7078    171.1685   1.1083641501e+02   1.3976463681e+01    0.4014827     0.261935 -75.00  0.001617637    2.367    0.578
        33 -11.7354     13.6740    239.5129   1.4998941550e+02   2.3583675372e+01     0.301895    0.1332499 -84.07  0.001824175    1.884    0.469
        34 -12.0759    230.0895    166.7005   9.6535431266e+01   1.3561533982e+00    0.3325071    0.1954578 -51.18  0.001480316    2.005    0.501
        35 -10.6832     24.5797    165.3842   1.4212803277e+02   3.7896037073e+01    0.1950819    0.1620598  79.34 0.0007451888    1.144    0.126
        36 -10.5338     13.2153    163.1651   1.4434284593e+02   3.9431497454e+01    0.1693127    0.1208741 -73.13 0.0003803852    1.151    0.131
        37 -12.5525    160.3356    161.8923   1.0987298268e+02   1.6874716560e+01    0.3131183    0.2677466  69.47  0.001588332    1.239    0.193
        38 -11.5767    189.6257    158.2092   1.0267576172e+02   1.1336095966e+01    0.3724881    0.2503147  26.93  0.001622153    1.814    0.449
        39 -11.9291    121.4222    157.3566   1.1804884134e+02   2.5827655981e+01    0.2607895    0.2404052  48.67 0.0007138479    1.125    0.111
        40 -14.9433    132.5035    145.2358   1.1280089035e+02   2.6423855506e+01     1.427244      0.76972 -59.89  0.004006544    2.106    0.525
        41 -13.9832    135.7452    127.3909   1.0786487548e+02   2.9801241145e+01     1.901726     0.335022 -49.56  0.004057841    6.477    0.846
        42 -12.4633    134.6472    109.6827   1.0365844784e+02   3.3939566635e+01     1.268628    0.1778511 -45.07   0.00259393    7.028    0.858
        43 -10.4273    176.9621    154.9651   1.0466719296e+02   1.4758234776e+01    0.2330974    0.1866421 -89.78 0.0005307543    1.581    0.367
        44 -12.8215    162.0088    153.4249   1.0765410214e+02   1.8346697990e+01    0.3978615    0.3101788  52.18  0.001183411    1.277    0.217
        45 -11.9606    174.2960    148.5470   1.0380451404e+02   1.6695614027e+01    0.3991985    0.2864226 -66.23  0.001155804    1.704    0.413
        46 -14.2445    144.4530    145.5799   1.0998967815e+02   2.3855723705e+01     1.126585    0.5575613 -63.93  0.003676247    3.149    0.682
        47 -10.9697    131.2621    237.3622   1.2891251554e+02   7.2838093805e+00    0.2631136    0.1564322 -57.70 0.0006677175    1.937    0.484
        48 -10.9766    139.1193    249.8450   1.2902864941e+02   3.7896797032e+00    0.2290353    0.2010246 -17.25  0.001506806    1.610    0.379
        49 -11.3147      5.1068    137.3507   1.4347491165e+02   4.5815824956e+01    0.2432777    0.1913895 -42.83  0.001702807    1.509    0.337
        50 -10.9324    170.9857    137.4738   1.0195976475e+02   1.9790031332e+01    0.2415768    0.1541326  49.54 0.0008723504    1.573    0.364
        51  -9.8421     13.4705    234.0141   1.4969952523e+02   2.4643079485e+01    0.1443795   0.08087301 -86.31 0.0004197462    1.407    0.289
        52 -12.6816    160.5169    127.8494   1.0201240902e+02   2.4232400942e+01    0.4606705    0.3545852 -61.25  0.001580856    1.405    0.288
        53 -12.5204    202.0294    223.8921   1.1306687406e+02  -3.0701012092e+00    0.2539712    0.1753688  49.96  0.001388704    1.497    0.332
        54 -10.2322    138.6852    246.3124   1.2866056899e+02   4.4544204679e+00    0.1880517    0.1405523  78.35 0.0004936989    1.515    0.340
        55 -11.0286    130.8250    213.5201   1.2567053300e+02   1.1859752291e+01    0.2334145    0.1696545 -83.76 0.0007012119    1.608    0.378
        56 -11.1673    167.7295    112.6488   9.6522917911e+01   2.5773386915e+01    0.3968922    0.2598462  89.54   0.00144397    2.656    0.624
        57 -10.8171    116.5452    213.4100   1.2859291524e+02   1.4411613365e+01     0.201583    0.1486488  63.95 0.0001302803    1.254    0.203
        58 -10.3598    115.9465    210.0126   1.2823538691e+02   1.5209260169e+01    0.2540807    0.1905773  76.84 0.0004463638    1.350    0.259
        59 -10.9747    205.3414    110.2543   8.8164392651e+01   1.7319594664e+01    0.3192946    0.2140398  48.41 0.0009506545    1.544    0.352
        60 -11.8381     16.3864    249.8000   1.5015246483e+02   2.1396173700e+01    0.1815585    0.1241841  77.10 0.0005794736    1.031    0.030
        61 -11.2076      7.7207    102.1633   1.3816819192e+02   5.3409791306e+01    0.2401455    0.2012352  39.24  0.001761937    1.514    0.339
        62 -14.0161     11.6741    206.0365   1.4819227237e+02   3.0369231022e+01    0.4752766     0.369253  41.70  0.002541054    1.622    0.384
        63 -12.0017    153.6833    194.8318   1.1778487739e+02   1.1310846136e+01    0.4545349    0.2629842 -57.35  0.002033993    1.965    0.491
        64 -13.2482    162.8414    201.8797   1.1709312643e+02   8.1305223004e+00    0.8824983     0.464017 -69.36  0.003022405    3.978    0.749
        65 -11.6222    157.4909    199.6594   1.1782880484e+02   9.6030078069e+00     0.312984    0.2413107  63.74 0.0006858879    1.369    0.269
        66 -14.5234    153.5997     56.8701   8.4006607989e+01   3.9465425320e+01     1.251856     1.089365  43.08  0.001038121    1.129    0.114
        67 -11.1906    133.8133    246.3363   1.2957754601e+02   5.2794428947e+00    0.1676785    0.1451692  70.40 0.0003014377    1.131    0.115
        68 -12.9832    169.4158     34.1307   7.4307325560e+01   3.8765632348e+01    0.3970495    0.3708983  27.28 0.0009192821    1.193    0.162
        69 -11.0817     13.5141     59.9660   1.2790629607e+02   6.1758424405e+01    0.1654058    0.1582277  37.59 0.0004189243    1.413    0.292
        70 -10.8637    139.3170     32.0588   7.9355618674e+01   4.6324097055e+01     0.395415    0.1948825  72.89  0.001498005    2.916    0.657
