#   1 NUMBER                 Running object number                                     
#   2 MAG_AUTO               Kron-like elliptical aperture magnitude                    [mag]
#   3 X_IMAGE                Object position along x                                    [pixel]
#   4 Y_IMAGE                Object position along y                                    [pixel]
#   5 X_WORLD                Barycenter position along world x axis                     [deg]
#   6 Y_WORLD                Barycenter position along world y axis                     [deg]
#   7 A_WORLD                Profile RMS along major axis (world units)                 [deg]
#   8 B_WORLD                Profile RMS along minor axis (world units)                 [deg]
#   9 THETA_WORLD            Position angle (CCW/world-x)                               [deg]
#  10 FWHM_WORLD             FWHM assuming a gaussian core                              [deg]
#  11 ELONGATION             A_IMAGE/B_IMAGE                                           
#  12 ELLIPTICITY            1 - B_IMAGE/A_IMAGE                                       
         1  -8.8276     12.9987     30.1462   6.4394508366e+01   6.8096917030e+01      0.25214    0.1492504 -55.78 0.0009837786    2.007    0.502
         2  -8.0497     96.7679     10.0059   2.4865434211e+01   5.7668332345e+01    0.1510011    0.1035328 -17.18 0.0003950347    1.574    0.364
         3  -8.5975     55.7676      9.8648   3.7059592870e+01   6.5524824088e+01    0.1906851    0.1507917 -33.16  0.000486043    1.545    0.353
         4  -7.6209     47.6149      9.7998   4.0103259797e+01   6.6839083537e+01    0.1517054    0.1006713 -31.51 0.0004766049    1.627    0.386
         5  -8.1710     91.0251      8.9838   2.5892815837e+01   5.8968290744e+01    0.1815034     0.152394 -70.91 0.0007428363    1.677    0.404
         6  -8.2586     28.2898      9.6532   4.8279911977e+01   6.9549865225e+01   0.09716257     0.088745 -33.04 0.0004897845    1.660    0.398
         7  -8.4119      6.1424      8.1714   5.8650811357e+01   7.2072979523e+01    0.1352904    0.1167069 -12.75 0.0005471245    1.364    0.267
         8  -7.7531    101.4771      7.5563   2.2823853618e+01   5.6870472139e+01    0.1268993    0.1087666  42.00 9.575462e-05    1.023    0.022
         9  -7.8661    216.4213      6.4587   6.3720362986e+00   3.0142603455e+01    0.1225348    0.1009532 -77.64 0.0001113512    1.012    0.012
        10  -7.9454     70.3986      6.2011   3.0512521487e+01   6.3297708734e+01    0.1541786    0.1071614 -29.09 0.0005273103    1.609    0.378
        11  -8.5216     33.3616      4.8340   4.3627569576e+01   6.9461383294e+01    0.2387277    0.1526814 -43.02   0.00142786    2.287    0.563
        12  -7.5537     99.2903      3.3234   2.1709679534e+01   5.7692788485e+01    0.1319756   0.07946404  31.90 0.0003081202    1.610    0.379
        13  -8.3678     79.3975      3.8505   2.6875586801e+01   6.1772553028e+01    0.2105687    0.1088837 -25.71  0.001113334    2.061    0.515
        14  -8.0990     62.7214      1.5055   3.0833123224e+01   6.5123665319e+01    0.1470632    0.1085461  55.43 0.0007659633    1.555    0.357
        15  -7.3088     39.3181      1.6508   3.9495209471e+01   6.8955579090e+01   0.09826686   0.09092938 -40.36 0.0007048119    1.734    0.423
        16  -8.7218    201.9777    242.9881   6.0377050398e+01  -4.5888778410e+00    0.2501702    0.1621429 -51.90   0.00110311    2.275    0.560
        17 -10.1133    248.8637    242.0892   5.1867437786e+01  -1.1066625486e+01    0.4312924    0.1992872 -37.24  0.001938794    2.335    0.572
        18  -8.8444    248.1097    234.1580   5.0658910053e+01  -9.9897493604e+00    0.2662541    0.1462739 -34.26 0.0009834889    1.845    0.458
        19  -9.4823    246.6228    228.2834   4.9901271705e+01  -9.0391892060e+00    0.4653894    0.1939256 -29.72  0.002074833    2.345    0.574
        20  -9.3830    211.0812    246.5598   5.9261996737e+01  -6.4228373456e+00    0.3376861    0.1737782 -47.11  0.001611934    2.727    0.633
        21  -7.8550    139.3627    244.6544   7.2685155146e+01   4.9599959015e+00    0.1308034   0.08755264  63.93 0.0007027921    1.851    0.460
        22  -8.7220    168.9031    243.0925   6.6692841580e+01   5.2208069321e-01    0.1808435    0.1564377  51.72 0.0006131887    1.290    0.225
        23  -8.6061     77.7622    242.9980   8.4503501454e+01   1.4511650546e+01    0.2035527    0.1128503  71.16  0.001069101    2.059    0.514
        24  -8.7212     34.3104    242.1519   9.2470614356e+01   2.0181228191e+01    0.1959223    0.1188212  85.71  0.001266505    1.475    0.322
        25  -8.5414      9.3266    242.8281   9.6834179438e+01   2.2733386701e+01    0.2104454   0.07773367 -88.96  0.001079252    2.653    0.623
        26  -9.5855    159.9875    239.9829   6.7981912191e+01   2.4354249927e+00    0.3134699    0.2295607 -79.07  0.001477353    2.222    0.550
        27  -7.8986    153.4759    241.9661   6.9545731621e+01   3.1578582354e+00    0.1557203    0.1107158 -88.38 0.0008084635    2.421    0.587
        28  -8.0283     88.3440    242.1450   8.2384391745e+01   1.3176136988e+01    0.1612438    0.1051061 -84.88 0.0006718484    1.751    0.429
        29  -7.8421    214.1504    241.1642   5.7838147919e+01  -6.1457433959e+00    0.1517063    0.1380034  27.91 0.0006064157    1.343    0.255
        30  -9.3021    182.9474    239.9742   6.3510007985e+01  -1.2203730095e+00    0.3444706    0.2376945  63.81  0.001444727    2.378    0.580
        31  -8.1058    240.5139    240.0713   5.2961933694e+01  -9.7152429121e+00    0.1633326    0.1024157 -26.68 0.0007836511    1.545    0.353
        32  -8.8255    242.0458    236.4919   5.2095976146e+01  -9.4710132865e+00    0.2718712    0.1476109  -1.00  0.001389134    2.321    0.569
        33  -8.9653    193.9538    239.0835   6.1268128287e+01  -2.8066105258e+00    0.1897942    0.1583051  16.85 0.0005840851    1.021    0.020
        34  -8.5792    146.1846    239.2556   7.0608608933e+01   4.7747782240e+00    0.1699817    0.1357471  60.52 0.0004697108    1.369    0.270
        35  -8.6153    135.4491    238.4629   7.2639473427e+01   6.6323000979e+00    0.1855541    0.1235847 -71.04 0.0002041356    2.053    0.513
        36  -9.0024    231.0463    236.8981   5.4090221511e+01  -8.0054090372e+00    0.2358965     0.219603 -69.08  0.001132352    1.881    0.468
        37  -8.0961    209.1452    238.1657   5.8272020350e+01  -4.9913821170e+00    0.1497911    0.1412158  24.39 0.0005078035    1.345    0.256
        38  -8.3895     25.4735    236.9643   9.3703345285e+01   2.2157614119e+01     0.167427   0.06995236  76.82 0.0008099997    2.643    0.622
        39  -8.8954    217.3063    235.6684   5.6359161709e+01  -5.8590792642e+00    0.2192261    0.1924125  24.31 0.0007568909    1.255    0.203
        40  -9.3612    213.6576    231.6466   5.6357694051e+01  -4.7519736336e+00    0.2824014     0.241164  77.33  0.001542328    2.105    0.525
        41  -8.9374    203.2296    234.5553   5.8785974339e+01  -3.5794828751e+00    0.2974178    0.2051341 -57.86  0.001156455    2.392    0.582
        42  -9.6844    175.7659    233.2806   6.3867091243e+01   9.6151101036e-01    0.4564684    0.2321314 -54.61  0.002107924    2.840    0.648
        43  -9.0781    109.2117    234.4354   7.7394228199e+01   1.1491705754e+01    0.4416504    0.2044199  55.95  0.001825951    2.438    0.590
        44  -9.2799      7.7559    234.3368   9.6654377701e+01   2.4494741088e+01    0.2050703    0.1020103  85.34  0.001254501    1.725    0.420
        45  -8.2635    122.9207    233.9452   7.4562944416e+01   9.4320685227e+00     0.207628    0.1400144  68.48  0.000934058    1.797    0.444
        46  -8.3689     99.6966    234.1483   7.9273733981e+01   1.2997164488e+01    0.2012915    0.1400858  75.73  0.001155801    1.592    0.372
        47  -8.5103     78.1191    233.6345   8.3513804521e+01   1.6237083157e+01    0.2125728    0.1498369  87.09  0.001258165    1.451    0.311
        48  -8.3988    194.3043    232.4372   6.0133628045e+01  -1.8757775350e+00    0.1790274    0.1555951 -65.41  0.000598988    1.696    0.410
        49  -8.7524    132.8122    232.5539   7.2371306420e+01   8.0953110430e+00    0.2378959    0.1535808  71.22  0.001138776    2.239    0.553
        50  -9.6099     68.1706    232.1734   8.5324715362e+01   1.7889095990e+01     0.453713    0.2032496  62.06  0.002085285    2.538    0.606
        51  -9.2167    235.9690    230.7013   5.2169040022e+01  -7.8810834721e+00    0.2902047    0.1899199 -21.28  0.001188876    1.440    0.306
        52  -9.5330    186.5742    230.4771   6.1306959684e+01  -3.4336860805e-01    0.3358594    0.2422085 -73.96  0.001366691    2.709    0.631
        53  -8.7684    140.2092    230.1294   7.0527056784e+01   7.3216595854e+00    0.3132528    0.1448202  52.03  0.001331625    2.418    0.586
        54  -8.4708     92.5931    231.3133   8.0378807577e+01   1.4598387790e+01    0.3079207    0.1738611  83.71  0.001268297    2.594    0.614
        55  -9.2338    151.4599    228.9524   6.8064684745e+01   5.6726334817e+00    0.3016654    0.2193286 -89.85   0.00119981    2.197    0.545
        56  -9.4158    148.7911    224.4894   6.7938898843e+01   6.9021398520e+00    0.3573431    0.2528332  73.42   0.00137778    2.070    0.517
        57  -8.0875      1.5121    230.5062   9.7529399986e+01   2.5829901744e+01    0.1116243   0.07601256  72.34 7.920458e-05    1.081    0.075
        58  -7.8294    229.6197    228.7624   5.2961697687e+01  -6.7130797147e+00    0.1528842    0.1084723 -38.34 0.0005793667    1.632    0.387
        59  -8.8000    162.2940    227.7717   6.5691120105e+01   4.0771498856e+00    0.3058408       0.2028  60.71  0.001506831    2.016    0.504
        60  -8.7798    127.8935    227.1485   7.2635002543e+01   9.8767991780e+00    0.3296047    0.1994304  64.07  0.001382491    2.146    0.534
        61  -8.2782    120.3742    227.3175   7.4209852242e+01   1.1061634586e+01     0.166079    0.1218909 -75.28 0.0006567076    1.630    0.386
        62  -8.4486     49.4890    226.3376   8.8440317340e+01   2.1462201536e+01    0.3089998    0.1309164 -89.49   0.00131596    3.235    0.691
        63  -7.7514    223.3024    226.6897   5.3743137822e+01  -5.4977640735e+00    0.1055009    0.1000132  59.56 0.0002200352    1.607    0.378
        64  -8.8628    206.1387    225.7306   5.6761220748e+01  -2.7327210508e+00    0.2046929    0.1655726 -39.16 0.0008030686    1.449    0.310
        65  -8.1952    200.0081    226.0078   5.7973886793e+01  -1.8061138807e+00    0.1524091    0.1311967  -8.79 0.0004761202    1.139    0.122
        66  -8.6876     94.0169    223.8743   7.9226050955e+01   1.5838575438e+01    0.3101594    0.1778238  83.33  0.001170015    2.553    0.608
        67  -8.9335    216.4969    223.4291   5.4426283988e+01  -4.0011495359e+00    0.2299367    0.2037683 -60.89 0.0009271473    1.726    0.421
        68  -8.6968    180.3918    224.0941   6.1477735091e+01   1.6837292295e+00    0.2640175    0.1766116  47.30 0.0005784916    1.553    0.356
        69  -8.8938    104.7405    223.5235   7.6957457937e+01   1.4265133340e+01    0.3201489    0.2061548  78.72  0.001629551    2.011    0.503
        70  -7.8892     38.2469    224.2685   9.0439961726e+01   2.3225576584e+01    0.1829511   0.08286074 -88.26 0.0008904841    2.400    0.583
        71  -8.5873    173.0342    222.6066   6.2703439069e+01   3.1558914688e+00    0.2246142    0.1856616 -65.86 0.0007325184    1.623    0.384
        72  -7.9188    140.5788    222.7646   6.9377810939e+01   8.5890201868e+00    0.1653476    0.1277806 -72.87  0.000758075    1.626    0.385
        73  -7.7627    113.5872    223.5121   7.5112045479e+01   1.2872399121e+01    0.1303583    0.1125845  58.73  0.000127611    1.054    0.052
        74  -9.0111    238.8588    221.1765   4.9998275394e+01  -7.0061208097e+00    0.2492647    0.1589781 -40.39 0.0008437384    1.803    0.445
        75  -8.9137    225.2901    221.6478   5.2501968424e+01  -5.0797453623e+00    0.1947148    0.1793154  -2.40 0.0006706085    1.264    0.209
        76  -9.4553    192.3312    221.1470   5.8631671374e+01   1.9092317505e-01    0.2795229    0.2461713 -74.04  0.001091257    1.665    0.399
        77  -8.3879    162.9887    222.4820   6.4717604602e+01   4.8665977465e+00    0.3186076    0.1691766  56.09  0.001359452    2.630    0.620
        78  -8.4641    158.8960    220.2080   6.5192539864e+01   5.9569752117e+00    0.2019632    0.1685543  57.48 0.0006715318    1.320    0.242
        79  -8.5105     82.9150    220.3269   8.1112891658e+01   1.8191185750e+01     0.237174    0.1540774  73.71  0.001289192    1.659    0.397
        80  -8.4320     27.5561    220.7389   9.2213454791e+01   2.5142179553e+01    0.2072023   0.09260394 -69.74  0.001119889    2.052    0.513
        81  -8.2613    202.8472    220.1610   5.6428027118e+01  -1.3628742509e+00    0.1821554    0.1683374  36.34 0.0006405923    1.286    0.223
        82  -9.2151    120.4709    219.0227   7.3053691674e+01   1.2629315423e+01    0.4568439    0.2266815  61.10  0.001806238    3.011    0.668
        83  -8.3267    209.9026    219.1139   5.4903917068e+01  -2.3293300730e+00    0.1798261    0.1643654  18.47 0.0005036939    1.196    0.164
        84  -8.9940    249.0484    217.9840   4.7668474467e+01  -8.0110309724e+00    0.2335552    0.1658963  56.21  0.001298361    2.590    0.614
        85  -9.0767     51.7185    217.2542   8.7189479339e+01   2.3041637646e+01    0.2744635    0.1417011  88.39  0.001026021    2.185    0.542
        86  -8.1665    179.3589    217.1799   6.0526465549e+01   3.0041545178e+00    0.1719621    0.1251691 -53.85 0.0005579594    1.717    0.418
        87  -8.8684    169.3528    215.9675   6.2351857222e+01   4.9171797294e+00    0.2934752    0.2203559 -78.24  0.001020751    2.130    0.530
        88  -8.7087    142.9953    216.3503   6.7896562316e+01   9.3683975382e+00     0.291263    0.2107927 -88.22  0.001385302    2.056    0.514
        89  -8.2027     61.7006    216.7141   8.5106158952e+01   2.1873304625e+01     0.240404    0.1263689  83.02 0.0008192704    2.362    0.577
        90  -7.7314    111.3748    216.6932   7.4661681738e+01   1.4563256740e+01    0.1421846   0.09193798  65.18 0.0007030408    1.772    0.436
        91  -9.3030    133.0765    215.8925   6.9925610823e+01   1.1137993253e+01    0.5221599    0.3087878  74.84  0.002057457    3.369    0.703
        92  -8.7883    232.0560    214.3166   4.9972327963e+01  -5.0428894197e+00    0.2479128    0.1596918 -40.39 0.0007750088    1.725    0.420
        93  -8.3490    185.6128    214.1255   5.8747653452e+01   2.4584821528e+00    0.1873892    0.1653592 -54.64 0.0006803699    1.414    0.293
        94  -8.9936     93.3125    213.8747   7.8147133560e+01   1.7966026143e+01    0.3479324    0.1679285  58.21  0.001504102    2.406    0.584
        95  -9.3098     73.1701    211.7016   8.2177699939e+01   2.1365820246e+01    0.6704382    0.2485608  59.98  0.002211137    4.491    0.777
        96  -8.0213    247.3180    212.9981   4.7063183669e+01  -7.0877690428e+00    0.1995225   0.08326495 -18.40 0.0007039068    4.199    0.762
        97  -9.5250    213.8895    211.8367   5.2853251170e+01  -1.8500678208e+00    0.3220617    0.3018643  72.03   0.00157232    1.558    0.358
        98  -8.3970    243.0058    211.9671   4.7617399260e+01  -6.3248340984e+00    0.1496939    0.1207705  -2.17 0.0004011563    1.006    0.006
        99  -8.0982    224.8503    212.1100   5.0873062823e+01  -3.6202881710e+00    0.1793932    0.1646032 -15.52 0.0006507032    1.255    0.203
       100  -8.8885    204.3033    210.9739   5.4520247662e+01  -1.5455302815e-01    0.2395796    0.2181676 -66.10 0.0008426728    1.547    0.354
       101  -9.5233    175.6722    210.1221   6.0059159163e+01   4.8504748890e+00    0.4483159    0.2956752  70.93  0.001902701    2.982    0.665
       102  -8.5313    161.6389    212.1507   6.3305729750e+01   6.9279381131e+00    0.2237796    0.1731539  50.16  0.000712986    1.323    0.244
       103  -7.8453    106.4746    212.5378   7.5144075499e+01   1.6185520787e+01    0.1356135    0.1154637  62.51 0.0008075198    1.084    0.078
       104  -8.3608    192.1540    210.2501   5.6762628355e+01   1.9971529740e+00    0.2164827    0.1743343 -72.96 0.0006654176    1.947    0.486
       105  -8.8569    147.9958    210.3435   6.5880867332e+01   9.6372066105e+00    0.2941118     0.216772 -86.44  0.001287718    2.013    0.503
       106  -8.7861    116.3121    210.4212   7.2717078163e+01   1.5017478188e+01    0.2990972    0.1875372  67.05 0.0008556857    2.025    0.506
       107  -8.0902     32.2615    209.5632   9.0430047183e+01   2.6946688162e+01    0.2570019   0.08685312 -86.14 0.0009059254    4.362    0.771
       108  -9.1005    236.4033    208.0020   4.8043744417e+01  -4.7807036621e+00    0.2596489    0.2124055 -51.03  0.001077847    1.745    0.427
       109  -8.2477    154.4130    214.7573   6.5244994067e+01   7.7043379161e+00    0.2306072     0.133557 -54.87 0.0008684939    2.063    0.515
       110  -8.3168     85.4172    209.1429   7.9250901235e+01   2.0140456418e+01    0.2445779    0.1407219  68.72  0.001150402    2.103    0.525
       111  -7.9727     46.4300    209.4830   8.7543303255e+01   2.5325813486e+01    0.1254866   0.09790557  74.76 0.0001838486    1.073    0.068
       112  -8.5545      6.1502    208.3312   9.5436422595e+01   2.9842519657e+01    0.2592228   0.09213202  79.48  0.001057836    3.431    0.709
       113  -9.2044    246.3540    207.0524   4.6137023562e+01  -6.1169104663e+00    0.2547627    0.1751149 -28.86 0.0007206875    1.346    0.257
       114  -8.2458    139.1933    207.8613   6.7365497890e+01   1.1644438716e+01    0.2619812    0.1936844  76.08  0.001316859    1.799    0.444
       115  -8.0284    126.4260    208.2191   7.0189956377e+01   1.3767142220e+01    0.1839345    0.1303959 -73.68  0.000923262    1.736    0.424
       116  -9.0558     99.4089    205.9906   7.5785150916e+01   1.8663482960e+01    0.3576655    0.2158353  77.73  0.001228306    2.346    0.574
       117  -8.3437     56.6148    205.4492   8.5012270853e+01   2.4923001308e+01     0.266063    0.1341031  63.79  0.001007075    2.175    0.540
       118  -9.2928    194.8736    203.3624   5.4972491099e+01   2.6905218403e+00    0.3823165    0.2923487 -51.80  0.001393272    1.607    0.378
       119  -9.3827    192.3783    197.1684   5.4313813936e+01   4.1923994885e+00    0.3538285    0.2548221 -49.44 0.0008748564    1.613    0.380
       120  -9.1193    183.8907    203.9328   5.7280945031e+01   4.5021572317e+00    0.3599215    0.2676351  74.80  0.001174346    2.276    0.561
       121  -8.1825    109.1806    205.1621   7.3514771761e+01   1.7268277275e+01    0.1899962    0.1485179  76.75 0.0006328603    1.384    0.277
       122  -9.8158    163.8899    202.8157   6.1227488559e+01   8.2483225044e+00    0.4603109    0.3049271  61.19  0.001105129    2.029    0.507
       123  -8.6291    131.1424    203.6436   6.8441425237e+01   1.3877205011e+01     0.285642     0.206972  82.00  0.001037173    1.873    0.466
       124  -9.2535    250.2401    201.5891   4.4458289638e+01  -5.9039637541e+00    0.4140763    0.1627305 -35.15  0.001425542    2.334    0.572
       125  -9.2946    245.7333    193.3022   4.3649468778e+01  -4.0236324433e+00    0.3652945     0.254711 -60.86  0.001835562    2.730    0.634
       126  -8.6531    211.0342    201.8324   5.1546996372e+01   2.0032034616e-01     0.277184    0.1777916 -55.23 0.0009269511    2.307    0.567
       127  -8.9707    243.2055    200.5587   4.5464893322e+01  -4.7151276569e+00    0.2852695     0.158144 -39.78   0.00092115    1.844    0.458
       128  -8.8391    140.6883    201.0062   6.5913938641e+01   1.2733502506e+01    0.3775751    0.2418266  69.26  0.001397703    2.367    0.578
       129  -8.0020    222.0217    201.2490   4.9378056235e+01  -1.5126862135e+00    0.1742334    0.1395974 -50.90  0.000486534    1.642    0.391
       130  -8.3496     80.1423    201.0863   7.9392211805e+01   2.2644087087e+01    0.2672317    0.1423483  60.49  0.001097322    2.101    0.524
       131  -9.4302    149.5618    198.2875   6.3508420327e+01   1.1687347780e+01    0.4570459    0.3136943 -84.78  0.001695094    2.468    0.595
       132  -8.9498    124.0760    199.0659   6.9272982410e+01   1.6034969543e+01    0.3547887      0.23759  79.71  0.001480371    2.183    0.542
       133  -9.0908    237.0416    198.3922   4.6128739997e+01  -3.4529374419e+00    0.2624774    0.1598749 -41.12 0.0008847583    1.741    0.425
       134  -8.6467    176.9317    198.6979   5.7751730264e+01   6.6719165400e+00    0.2487267    0.2010074 -51.83 0.0006590718    1.422    0.297
       135  -9.2023    112.8321    198.0962   7.1643872383e+01   1.8150322333e+01    0.4045372    0.2532651  71.78  0.001578465    2.218    0.549
       136  -8.9358     88.6806    198.2886   7.7116850550e+01   2.1979824632e+01    0.3605126    0.2118704  79.30  0.001359739    2.387    0.581
       137  -8.4821    202.2810    197.6893   5.2452378870e+01   2.3724937977e+00    0.2370939    0.2070166 -66.95  0.001036066    1.591    0.372
       138  -8.9668     61.3778    196.8553   8.3035795114e+01   2.6183990991e+01    0.4199042    0.2080889  70.20  0.001779528    2.723    0.633
       139  -8.9210     13.2655    197.7065   9.3323402517e+01   3.1425653090e+01    0.2916428    0.0976811  64.27  0.001132313    3.853    0.740
       140  -8.7934    215.9053    195.2740   4.9378304376e+01   4.5084396245e-01    0.2723863    0.1819193 -51.71 0.0009211418    1.959    0.490
       141  -8.9678    185.3424    194.7236   5.5276206220e+01   5.8802501366e+00    0.2752434    0.2261342 -60.84 0.0006564679    1.549    0.355
       142  -8.6123    132.9081    195.5285   6.6714779015e+01   1.5222484177e+01     0.259867    0.1836036 -75.23 0.0006725196    1.835    0.455
       143  -8.6896    224.5986    194.0497   4.7529324557e+01  -7.9552820069e-01    0.2547283    0.1431207 -44.20 0.0008085935    1.958    0.489
       144  -9.1251    160.7932    194.0654   6.0316115914e+01   1.0471959484e+01    0.3135534    0.2550729 -89.43  0.001079567    1.681    0.405
       145  -8.3202    231.0312    194.2350   4.6399950546e+01  -1.8684188025e+00    0.1786612    0.1555937  -0.78  0.000460797    1.053    0.051
       146  -8.5599     76.9267    193.7506   7.9167029822e+01   2.4726178414e+01    0.2214476    0.1763359 -82.86 0.0006520386    1.204    0.169
       147  -8.7224     43.7959    193.3144   8.6517233466e+01   2.9164786440e+01    0.3374921    0.1710622  77.29  0.001557177    2.377    0.579
       148  -8.4089    172.5104    191.6471   5.7362644747e+01   8.7834528260e+00    0.2557266    0.1933156 -81.56    0.0010419    2.098    0.523
       149  -7.7143    205.4472    191.5271   5.0651543735e+01   2.8690809885e+00    0.1347658    0.1230952   2.08  0.000807111    1.053    0.050
       150  -8.0994    198.8422    191.3563   5.1913009556e+01   4.0624329681e+00    0.1814838    0.1679914 -32.41 0.0005505954    1.185    0.156
       151  -8.2312    179.3693    191.2815   5.5854058089e+01   7.5931261285e+00    0.1868287    0.1321842 -52.05  0.000463019    1.628    0.386
       152  -9.0941    139.4723    190.4374   6.4360656700e+01   1.5095631359e+01    0.3384584     0.252809  79.03  0.001229722    1.803    0.445
       153  -8.2773     21.8492    191.6005   9.1072568406e+01   3.1923963787e+01    0.1687959   0.08993759  49.43 0.0008521627    1.759    0.432
       154 -10.2243     92.4084    188.8006   7.4914777740e+01   2.3498902498e+01    0.8904735    0.2749665  47.88  0.002999768    3.445    0.710
       155  -8.5326      6.2269    190.2330   9.4207784217e+01   3.3679941102e+01    0.1913712   0.07549657 -88.84 0.0008894593    2.461    0.594
       156  -9.4968    155.8831    187.3397   6.0140530633e+01   1.2703667994e+01    0.3857125    0.2544337 -60.13 0.0008854036    1.851    0.460
       157  -8.1701    148.7759    189.1185   6.2042739822e+01   1.3662649834e+01    0.2206877    0.1898481  76.08  0.001198197    1.362    0.266
       158  -8.8923    129.1735    188.4081   6.6340017540e+01   1.7377331552e+01    0.3274254    0.2321231  85.96 0.0009955013    2.001    0.500
       159  -8.2944    237.3963    188.2980   4.4118980850e+01  -1.9624580252e+00    0.1724408     0.113253 -40.48 0.0007395202    1.565    0.361
       160  -8.7594    216.3551    187.5516   4.7788512566e+01   1.6484266946e+00    0.2379767     0.190692 -31.88 0.0006354534    1.224    0.183
       161  -8.7058    191.5236    187.2849   5.2583146929e+01   6.1024119257e+00    0.2812066    0.1924259 -61.78  0.001022458    2.137    0.532
       162  -9.5175    120.5992    185.9203   6.7886766048e+01   1.9432165381e+01    0.4656303    0.2681272 -74.69  0.001794575    2.652    0.623
       163  -8.5650     34.1441    187.8129   8.8080176352e+01   3.1488029780e+01    0.2856057    0.1506926  75.30  0.001415643    2.068    0.516
       164  -8.0951    230.4422    187.2730   4.5148923468e+01  -6.7485887153e-01    0.1755095    0.1179768 -43.16 0.0008794162    1.605    0.377
       165  -8.7557    164.9548    186.4800   5.7996633611e+01   1.1179472271e+01    0.2545177    0.2031422 -67.75 0.0006635301    1.577    0.366
       166  -9.0867    109.5238    185.8731   7.0460882718e+01   2.1355067681e+01    0.3997934    0.2586067  73.48     0.001205    2.106    0.525
       167  -9.0517     54.4347    186.3334   8.3369843799e+01   2.9444077450e+01    0.3696393    0.1993055  77.15   0.00168053    2.323    0.570
       168  -9.1072    249.3482    185.4858   4.1524673242e+01  -3.4023874322e+00    0.2506524     0.196246 -43.59 0.0008459907    1.494    0.331
       169  -8.6060    202.6115    184.5735   4.9836208220e+01   4.5768450647e+00    0.2492863    0.2066526 -56.16 0.0006575178    1.503    0.335
       170  -8.6001    182.8739    184.5568   5.3819984553e+01   8.1978812180e+00    0.2629489     0.187237 -59.72 0.0007454887    1.828    0.453
       171  -8.9016     66.7408    184.5713   8.0309698985e+01   2.8231595709e+01    0.3425885    0.1710109  60.66 0.0008873813    2.406    0.584
       172  -8.7712    224.0302    183.4658   4.5554769665e+01   1.0137421955e+00    0.2423577     0.175981 -46.35 0.0005491268    1.565    0.361
       173  -8.5671    210.1122    184.0821   4.8283792629e+01   3.3244201989e+00    0.2036602    0.1847995 -13.29 0.0005053166    1.068    0.064
       174  -8.8053    174.2714    183.5613   5.5431648588e+01   9.9970447478e+00    0.2805148    0.2314162  86.47 0.0007935346    1.696    0.410
       175  -8.1333    197.1723    183.2213   5.0642466234e+01   5.8031897149e+00    0.1833146    0.1654908 -59.90 0.0005428013    1.363    0.266
       176  -9.0045     44.4434    182.5559   8.5219594517e+01   3.1519310439e+01    0.3008879    0.1743276  61.69  0.001006539    1.765    0.434
       177  -8.0684      1.7876    183.5941   9.4646531790e+01   3.5502955480e+01    0.1543653   0.08834434  49.72 0.0009437948    1.679    0.404
       178  -8.1433    235.4642    181.5101   4.3116786666e+01  -5.8001935824e-01    0.1307475    0.1152934 -13.88 0.0001464903    1.078    0.072
       179  -9.1067    147.4460    180.3759   6.0707657145e+01   1.5707462631e+01    0.3289082    0.2583385  89.67  0.001058182    1.703    0.413
       180  -9.3296     25.4532    178.5159   8.9104915383e+01   3.4496283196e+01    0.6461245    0.2563719  80.98  0.002290686    4.216    0.763
       181  -8.7330    137.6891    179.4017   6.2754835961e+01   1.7740840614e+01    0.3410952    0.2352525  77.61  0.001486409    2.192    0.544
       182  -7.5646    240.4824    179.5015   4.1845158991e+01  -1.0797623103e+00     0.132848    0.1114603 -10.12 0.0002055926    1.026    0.025
       183  -9.3797    191.4424    178.1883   5.0782124007e+01   7.7815030447e+00    0.3066317     0.251066  64.19 0.0006729675    1.568    0.362
       184  -8.9001     36.2613    176.8008   8.6465645195e+01   3.3763937998e+01    0.5260013    0.2241834  77.48  0.001850194    4.137    0.758
       185  -9.0772    250.5311    172.5263   3.8762303817e+01  -1.5988481789e+00    0.2335404    0.1571441 -30.65 0.0005235873    1.297    0.229
       186  -9.4236    248.8705    177.1307   3.9956369397e+01  -2.0505420064e+00    0.3186534    0.2427508 -47.09  0.001207052    1.556    0.357
       187  -8.8816    205.1227    177.5798   4.7934472748e+01   5.3577164687e+00    0.2367341    0.1820516 -43.57 0.0005658817    1.369    0.269
       188  -8.2277    243.0057    183.4911   4.2204710426e+01  -2.1082162000e+00    0.1552983    0.1177748  68.80 0.0006401222    2.402    0.584
       189  -8.6008    129.2207    177.1237   6.4302512575e+01   1.9798128311e+01    0.3286622    0.2181908 -81.56  0.001049377    2.272    0.560
       190  -8.6274    231.1627    176.7951   4.2928133878e+01   8.9946315369e-01    0.2258029    0.1664511 -41.32 0.0006352924    1.401    0.286
       191  -8.4998    217.4642    177.0855   4.5480559149e+01   3.2233535097e+00    0.1981536    0.1865852 -44.22 0.0006536968    1.261    0.207
       192  -7.9111     97.4899    177.4471   7.1938641472e+01   2.5252873619e+01    0.1395264    0.1318371  77.43 0.0001278075    1.022    0.022
       193  -8.9075     88.8957    176.2526   7.3826337381e+01   2.6901205877e+01    0.3616879    0.1857454 -67.32  0.001543768    2.115    0.527
       194  -9.4174     58.7611    175.3586   8.0986396273e+01   3.1422477251e+01    0.4765242    0.2419074  69.28  0.001950863    2.786    0.641
       195  -9.2406     55.8001    170.4248   8.1045947745e+01   3.2956901190e+01     0.394157    0.2194902  82.44  0.001744753    2.342    0.573
       196  -8.1549    211.5220    175.5689   4.6290358832e+01   4.5487406938e+00    0.2526999    0.1241953 -48.92  0.001036107    2.427    0.588
       197  -9.2331    183.0370    175.8152   5.2030760649e+01   9.8190753723e+00    0.2655967    0.2301347 -61.43 0.0007308233    1.372    0.271
       198  -9.2499    158.7981    174.8804   5.7078984055e+01   1.4675443099e+01    0.4085898    0.3010885  89.08  0.001253441    2.124    0.529
       199  -9.3467    104.2188    174.5731   6.9826075277e+01   2.4791213568e+01    0.5002753    0.2882656  68.23  0.001773742    2.644    0.622
       200 -10.5861     75.8413    169.9373   7.6041375526e+01   3.0346785012e+01     1.284338    0.4845957 -73.14  0.003864813    4.537    0.780
       201  -8.3467    224.3366    174.0371   4.3591873672e+01   2.5318853128e+00    0.1947307    0.1574375 -30.48 0.0005224965    1.163    0.140
       202  -9.6874    175.8031    172.0459   5.2784742795e+01   1.1944016143e+01    0.3619868    0.2455132 -41.84 0.0009596425    1.490    0.329
       203  -8.5219    143.1233    172.5205   6.0174423896e+01   1.8185962397e+01    0.2301017    0.2019033  81.23  0.000541848    1.301    0.231
       204  -8.0220    194.3283    172.2938   4.8985162335e+01   8.3303936697e+00    0.1466378    0.1079607   3.61 0.0007022047    1.627    0.385
       205  -8.8344    134.8184    171.8574   6.1985375959e+01   1.9905736442e+01    0.2651806    0.2060964 -80.46 0.0008550975    1.600    0.375
       206  -9.2027     45.0462    170.8318   8.3703681368e+01   3.4163994837e+01    0.3868823    0.2033973  81.26  0.001475993    2.453    0.592
       207  -9.5587    121.4171    170.2241   6.4870772699e+01   2.2752470467e+01     0.400425    0.2891526 -84.13  0.001104031    1.812    0.448
       208  -7.8202     68.5047    170.9778   7.8009226987e+01   3.1144252144e+01     0.193876     0.110004  87.02 0.0008085082    2.430    0.588
       209  -8.6599    230.3201    169.9824   4.1685519335e+01   2.1698914732e+00    0.1959047    0.1558504 -27.49 0.0004980863    1.139    0.122
       210  -8.2745    205.7082    170.1146   4.6277606086e+01   6.5854598627e+00    0.2176465    0.1697403 -53.79 0.0007059588    1.516    0.340
       211  -8.5608    198.2839    169.8135   4.7674069551e+01   8.0384862775e+00    0.2557529    0.2154266 -69.79 0.0007951715    1.573    0.364
       212  -8.9847    149.8954    169.1601   5.7939736266e+01   1.7594368263e+01    0.3277113    0.2135063 -61.01 0.0008688306    1.845    0.458
       213  -8.1500    244.4846    168.9832   3.9045807940e+01  -6.1930926541e-02    0.1982626    0.1155234 -35.76  0.000446128    1.536    0.349
       214  -8.3681    237.1887    168.9923   4.0283821480e+01   1.1557956222e+00    0.1986769    0.1690617 -45.18  0.001039194    1.333    0.250
       215  -9.1819    166.9237    168.3431   5.3941931467e+01   1.4422647384e+01    0.3027261     0.249982  84.97  0.001010681    1.606    0.377
       216  -8.2190     88.8345    168.6975   7.2612914790e+01   2.8666942111e+01    0.2706026    0.1747464  86.92 0.0009457127    2.070    0.517
       217  -8.5263    218.7808    168.1397   4.3388764648e+01   4.5293708153e+00    0.2009936    0.1831403 -43.63 0.0005877742    1.232    0.188
       218  -8.0704    211.5101    168.0300   4.4727028379e+01   5.8800711669e+00    0.1895664    0.1196103 -59.77 0.0008087537    2.431    0.589
       219  -8.5177    111.8695    167.4768   6.6684381053e+01   2.5089350604e+01    0.3475532    0.2209834  70.18  0.001053865    2.234    0.552
       220  -9.0883    191.9140    166.4354   4.8243631371e+01   9.8931071826e+00    0.3003268    0.1971792 -43.54 0.0007188283    1.533    0.348
       221  -8.8503    185.0896    166.3519   4.9630976089e+01   1.1240396597e+01     0.273535    0.2071377 -48.73 0.0006437221    1.402    0.287
       222  -8.9437     21.0160    166.4231   8.8923682868e+01   3.7697987607e+01    0.4276489     0.112035  46.84  0.001617461    3.906    0.744
       223  -8.3047    140.9592    166.2021   5.9416368293e+01   1.9963983464e+01    0.2834756    0.1962802  50.59 0.0008270689    1.485    0.327
       224  -9.2038    136.0377    163.8740   6.0110045588e+01   2.1423098946e+01    0.3941117    0.2634291  61.24 0.0009923532    1.825    0.452
       225 -10.0717     94.9762    162.5803   7.0011204172e+01   2.9112033150e+01    0.8671179    0.4629749  74.80  0.002633266    4.619    0.784
       226  -8.2975    233.9703    164.7599   3.9964906730e+01   2.4067562030e+00    0.2355808    0.1565953 -46.25   0.00068908    1.607    0.378
       227  -9.6707     33.8086    163.1223   8.5496151065e+01   3.7210340558e+01    0.5465555    0.2116405  55.33  0.002168012    3.265    0.694
       228  -7.9968    240.3828    164.1489   3.8742251672e+01   1.4056300843e+00    0.1872389    0.1126484 -43.80 0.0005257801    1.673    0.402
       229  -8.6828    212.9235    163.4512   4.3492058648e+01   6.4322720744e+00     0.254463     0.187329 -51.51 0.0005938592    1.553    0.356
       230  -8.6487    159.5008    164.0587   5.4696641356e+01   1.6774320670e+01    0.2733238    0.2072264  62.96 0.0008988747    1.580    0.367
       231  -8.5927     12.7294    176.1752   9.1723057806e+01   3.6220952038e+01     0.266874    0.1257419  88.67   0.00132437    2.082    0.520
       232  -8.6864    246.0670    162.9605   3.7551276346e+01   6.4204638248e-01     0.201757    0.1691515 -23.47 0.0004004934    1.040    0.039
       233  -8.5383    204.7429    162.3988   4.4830729149e+01   8.1703117032e+00     0.249804    0.1659658 -48.18 0.0006980362    1.614    0.380
       234  -9.4239      3.1308    162.2633   9.2682523336e+01   4.0160658477e+01    0.3589081    0.1748142  56.19  0.001819146    2.122    0.529
       235  -7.7151    221.6537    161.2166   4.1403637662e+01   5.2098566590e+00    0.1942115    0.1197028 -28.98 0.0007498648    1.584    0.369
       236  -9.1758    177.5034    160.4904   4.9974964312e+01   1.3896446213e+01    0.2934271     0.255165 -79.87 0.0009436461    1.436    0.304
       237  -8.8748    151.6623    160.6887   5.5773060522e+01   1.9047362737e+01    0.2919649    0.2297154 -73.94   0.00107552    1.590    0.371
       238  -8.5119     60.8250    160.2874   7.8350722288e+01   3.4714848710e+01    0.3302281    0.1827204  70.72  0.001067845    2.537    0.606
       239  -8.8155    227.3889    158.9843   3.9902802630e+01   4.5510348702e+00     0.319166    0.2051017 -56.28  0.001169794    2.107    0.525
       240  -9.7116    250.2473    157.5182   3.5752655819e+01   8.2035784035e-01    0.3377975    0.1771968 -38.73 0.0008712658    1.692    0.409
       241  -8.6838    246.5840    155.4930   3.5921373872e+01   1.7632899462e+00    0.2234483    0.1471758 -15.46 8.941653e-05    1.656    0.396
       242  -8.4374    127.9883    158.9356   6.1048082324e+01   2.4065275534e+01    0.2389514    0.1823087  79.59 0.0007025705    1.685    0.407
       243  -9.6406    105.9417    157.8877   6.6350743010e+01   2.8348184658e+01    0.5199399    0.3217373  67.57  0.001236262    2.299    0.565
       244  -8.0881    236.8153    158.5972   3.8188977259e+01   2.9377482235e+00    0.1670336    0.1314593  53.84  0.000643225    1.576    0.366
       245  -8.4797    196.7378    157.7003   4.5389294355e+01   1.0601385995e+01    0.2522758    0.1830535 -64.46 0.0007704524    1.893    0.472
       246  -8.2668    188.4707    157.9719   4.7124341433e+01   1.2192404635e+01     0.220508    0.1409342 -43.10 0.0007973824    1.551    0.355
       247  -9.2020    167.6726    157.1765   5.1391374669e+01   1.6554425196e+01    0.3682702     0.283467  87.04   0.00112584    1.896    0.473
       248  -8.4621    218.0221    156.4888   4.1053485854e+01   6.7147434853e+00    0.2727755    0.1802312 -50.31 0.0007819441    1.693    0.409
       249  -8.3314     79.4936    157.5565   7.3099239160e+01   3.2741744624e+01    0.1982009    0.1391822  24.31 0.0001297599    1.722    0.419
       250  -9.3219     81.8298    154.8632   7.2019961901e+01   3.3030382644e+01    0.4688641    0.2537767  63.08  0.001436305    2.684    0.627
       251  -8.5396    157.7935    156.0861   5.3372879819e+01   1.8790018878e+01    0.2339159    0.2059207 -81.48   0.00087699    1.334    0.250
       252  -9.1621    119.5269    155.0137   6.2341272031e+01   2.6552839909e+01    0.3869853    0.2658474 -89.14  0.001496466    2.183    0.542
       253  -9.0647     49.8710    155.1159   8.0403440816e+01   3.7322522889e+01    0.4151621    0.2119848  63.07  0.001753503    2.632    0.620
       254  -8.2714    204.8398    155.1637   4.3244002102e+01   9.4834360804e+00    0.2113315    0.1927029 -53.50 0.0004656572    1.222    0.182
       255  -8.5442    144.3417    154.5140   5.6164079343e+01   2.1844471320e+01    0.2611933     0.215252  72.37 0.0006044575    1.434    0.303
       256  -9.1838     68.0306    153.8170   7.5461653202e+01   3.5294365288e+01    0.3649436    0.2307427  68.07  0.001105174    1.960    0.490
       257  -9.2203    243.0402    149.8628   3.5313913077e+01   3.2986332527e+00    0.2724887    0.2442015  67.31  0.001665504    1.450    0.310
       258  -7.9177    242.7180    154.6744   3.6380078646e+01   2.5602824707e+00    0.1598461    0.1327274  54.68 0.0002905291    1.505    0.335
       259  -8.8362    240.2917    152.7036   3.6364816841e+01   3.3096517392e+00    0.2081688    0.1588941 -31.62 0.0004622009    1.158    0.137
       260  -9.6911    132.7014    152.7367   5.8591223883e+01   2.4546147317e+01    0.4624814    0.3535704  80.81  0.001308447    1.721    0.419
       261  -9.1390    133.4774    148.0411   5.7379335429e+01   2.5444742325e+01       0.2979    0.2463393  -2.57  0.001151545    1.490    0.329
       262  -9.4120     29.4530    150.5440   8.5049250318e+01   4.0621331861e+01    0.4296389    0.2044721  68.65  0.001776983    3.037    0.671
       263  -8.1895     20.2212    152.2840   8.7597007356e+01   4.1066574416e+01    0.1755704    0.1231504  78.78 0.0009069497    1.381    0.276
       264  -9.0015    189.5500    150.1159   4.5161308898e+01   1.3498338948e+01    0.3162383    0.2343203 -64.77 0.0009958223    1.761    0.432
       265  -8.1156    182.6322    151.2658   4.6852829654e+01   1.4688632101e+01    0.2297819    0.1797585 -79.65 0.0009701504    1.811    0.448
       266  -8.6480    162.6810    150.5508   5.1037882984e+01   1.8951929284e+01     0.254648    0.1865353 -66.30 0.0008973393    1.726    0.421
       267  -8.6500     98.3470    150.6345   6.6896379229e+01   3.1363961828e+01    0.3154737    0.2271214  82.70 0.0008663445    1.799    0.444
       268  -9.4713    248.9224    149.1255   3.4217178785e+01   2.4001327971e+00    0.3116109    0.1709129 -35.80 0.0007238116    1.588    0.370
       269  -8.2773    212.9719    149.6890   4.0500950795e+01   8.8997594743e+00    0.1905896    0.1779528  25.47 0.0004051861    1.118    0.105
       270  -8.1722    198.7015    148.9310   4.3059633769e+01   1.1868472556e+01    0.2091582    0.1775785 -37.13  0.000489944    1.136    0.120
       271  -9.8825     89.2135    145.9896   6.8405750785e+01   3.3986567941e+01      0.68749    0.3756461 -82.80  0.002305408    3.612    0.723
       272  -9.5962     40.2917    147.9812   8.1883735758e+01   4.0121057298e+01    0.4623466    0.2324257  60.41  0.002020458    2.586    0.613
       273  -8.8072    233.3014    147.5674   3.6436469798e+01   5.4299389464e+00    0.2540074    0.1665641 -36.57 0.0006443206    1.374    0.272
       274 -10.5591    149.0205    145.0923   5.2958779501e+01   2.2941441385e+01    0.6511824    0.4393837  85.56  0.001758775    2.694    0.629
       275 -10.3463     54.9182    144.6060   7.7450058730e+01   3.9236938138e+01    0.7584262    0.3939516  73.21  0.002785965    3.496    0.714
       276  -8.0709    223.1677    146.7948   3.8018626790e+01   7.4556914512e+00    0.1861826    0.1536411  -7.02 0.0003346114    1.257    0.205
       277 -10.1951    106.7143    144.1117   6.3363156985e+01   3.1433234637e+01     0.775535    0.4947515 -88.53  0.002498529    2.684    0.627
       278  -9.0127     13.4340    146.1167   8.8613832907e+01   4.3084703412e+01     0.326037    0.1874151  66.64  0.001477268    1.924    0.480
       279  -7.9306    206.4894    146.0504   4.0908171352e+01   1.0844524170e+01    0.2166572    0.1359148 -39.47 0.0004822846    1.510    0.338
       280  -8.4170    175.7439    145.9097   4.7103963888e+01   1.7188348128e+01    0.2766403    0.2070586 -61.92 0.0008193939    1.605    0.377
       281  -9.9381    139.0387    144.6951   5.5267688767e+01   2.5073789440e+01    0.4450284    0.3092854 -77.06   0.00131392    2.102    0.524
       282  -8.8421    240.3080    145.0607   3.4736180279e+01   4.5831025120e+00    0.1976114    0.1532753 -35.89 0.0005096906    1.156    0.135
       283  -9.1012    243.3866    140.6018   3.3286258497e+01   4.7752026792e+00    0.3972936    0.1481403 -30.04  0.001420858    3.069    0.674
       284  -9.7848    125.2750    142.5636   5.8216596399e+01   2.8298282632e+01    0.5932576    0.3882502 -85.59  0.001805747    2.688    0.628
       285  -8.9549    247.0307    143.7915   3.3390751264e+01   3.6007188379e+00    0.2340855    0.1673353 -35.97 0.0004452428    1.225    0.184
       286  -8.0354    194.3966    144.1125   4.2823529810e+01   1.3664427579e+01    0.2122624    0.1326961 -51.31 0.0009286105    1.753    0.430
       287  -9.1900    165.6478    143.9311   4.8864444492e+01   1.9713757325e+01     0.311744    0.2424036  71.99  0.001075259    1.644    0.392
       288  -7.7446    230.4996    142.4995   3.5809998129e+01   6.8200446646e+00    0.1395119    0.1246967 -25.77 0.0008106875    1.007    0.007
       289  -8.5563    182.0154    141.4661   4.4747013348e+01   1.6762844375e+01    0.2822466    0.2032066 -56.40 0.0005644691    1.574    0.365
       290 -10.6871     69.7145    140.7739   7.2726003213e+01   3.8200950949e+01    0.5409145    0.3420518  87.80  0.002144928    2.202    0.546
       291  -9.0623      2.7230    141.4175   9.0825878472e+01   4.4975647733e+01    0.3667215    0.1765258  84.97  0.001522332    2.245    0.555
       292  -7.6818    238.6355    140.3185   3.3987247886e+01   5.6842429472e+00     0.135858    0.1052209 -68.95 0.0002138118    1.776    0.437
       293  -9.7049     23.4568    137.7141   8.4965574315e+01   4.4223550083e+01     0.474307    0.2441543  72.68  0.002115853    2.687    0.628
       294  -7.8853    218.5607    138.4989   3.6994048792e+01   9.8225451552e+00    0.1425271    0.1301234 -35.98 0.0002848154    1.062    0.058
       295  -8.3296    207.7468    137.6997   3.8781181343e+01   1.2136679737e+01    0.2633827    0.1784156 -61.05  0.001084357    1.933    0.483
       296  -8.6325    172.2906    137.8972   4.5989732097e+01   1.9546951909e+01    0.2782096    0.2233949 -70.67 0.0005979498    1.533    0.348
       297  -8.9594     78.2454    147.0287   7.1553495860e+01   3.5451518828e+01    0.3218734    0.2110541  78.62  0.001135991    2.085    0.520
       298  -8.9262    248.5105    135.1972   3.1332293106e+01   4.7526345814e+00     0.284008    0.1848495 -51.16 0.0009642488    1.655    0.396
       299  -8.5282    246.9007    130.1068   3.0484411204e+01   5.8818422922e+00    0.2424461    0.1586442 -43.57 0.0007066338    1.395    0.283
       300  -8.3742    162.6639    136.1776   4.7718313484e+01   2.1963517520e+01    0.2390733    0.1880963 -63.39 0.0006513395    1.464    0.317
       301  -9.3124     39.2614    135.7962   8.0350094731e+01   4.3155174385e+01    0.2715244    0.1881768  74.09 0.0008606847    1.653    0.395
       302  -8.7712    151.0732    135.3367   5.0197544374e+01   2.4615644985e+01    0.3065737     0.139853  37.47  0.001079886    2.458    0.593
       303 -10.3998     83.5400    133.0175   6.7335584574e+01   3.7993840549e+01    0.5397956    0.3352285 -70.95  0.001462234    1.881    0.468
       304  -8.6268    179.4365    133.7306   4.3470902659e+01   1.8854172281e+01    0.2938725    0.1995206 -59.56 0.0008674827    1.791    0.442
       305  -8.9383    112.9449    133.1670   5.9292203288e+01   3.2828417266e+01    0.3699383    0.2598591  76.58  0.001031034    2.067    0.516
       306  -7.6905    231.4985    133.6127   3.3687319952e+01   8.1661319535e+00    0.1364372     0.124936 -25.81 9.577849e-05    1.027    0.026
       307 -10.3843    131.9736    130.3156   5.3667137640e+01   2.9711644002e+01    0.6725535    0.3333909 -54.84  0.001810146    2.267    0.559
       308  -9.1165    143.0891    131.5219   5.1196802217e+01   2.7130384781e+01    0.3429115    0.2641352 -72.80 0.0007232457    1.621    0.383
       309  -8.6240    250.8087    129.8684   2.9847517558e+01   5.2157194710e+00    0.3970588   0.09496678 -35.79  0.001241907    3.877    0.742
       310  -9.9231     12.8627    128.8896   8.6701556836e+01   4.7170284623e+01    0.4802737    0.2403586  79.01  0.001841943    2.710    0.631
       311  -8.7053    197.5860    137.3703   4.0644306304e+01   1.4292729497e+01    0.2784153    0.2055337 -60.51 0.0008088124    1.631    0.387
       312  -8.2219    192.8427    130.0989   3.9870689641e+01   1.6684936756e+01    0.2211671    0.1987002 -64.00 0.0003847922    1.216    0.178
       313  -9.5013    168.4844    129.5179   4.4815644381e+01   2.2081257371e+01     0.339006    0.2682269 -85.42  0.001011322    1.688    0.408
       314  -9.6461    153.0229    128.3850   4.8055374382e+01   2.5680879034e+01    0.6050424    0.2583833 -48.22  0.001543017    2.416    0.586
       315 -10.1027     72.8711    128.6069   6.9457595157e+01   4.0672362554e+01    0.4846075    0.2792725 -71.73  0.001340402    2.074    0.518
       316  -8.3364    250.5086    140.1569   3.2081444154e+01   3.5876622608e+00    0.2064461     0.115286 -36.47  0.001018289    1.547    0.354
       317  -7.9011    234.6973    129.7020   3.2300423619e+01   8.2262426473e+00    0.1359134    0.1041612  -0.91 0.0003131627    1.583    0.368
       318  -7.7610    220.3582    129.7445   3.4700298689e+01   1.1028613284e+01    0.1367859    0.1113128 -79.83 0.0006964514    1.615    0.381
       319  -8.2303    211.5732    128.8361   3.6040947402e+01   1.2979813059e+01    0.2100631    0.1266154 -49.24 0.0006256973    1.719    0.418
       320  -8.1235    186.3829    129.2413   4.0959968397e+01   1.8240945472e+01    0.2187701    0.1357585 -49.71 0.0009026649    1.680    0.405
       321  -8.8423     97.9424    127.0442   6.1976844598e+01   3.6996036780e+01    0.5280033    0.2010571 -54.09   0.00183096    2.618    0.618
       322  -8.7084     99.0902    120.1247   6.0022160436e+01   3.8397661025e+01    0.3328867    0.2240555 -13.18  0.001361492    2.353    0.575
       323 -10.7324     60.3247    125.1905   7.2423714843e+01   4.3226425054e+01    0.7554551    0.4487485  80.40  0.002876087    2.935    0.659
       324 -10.7368     45.4096    123.8609   7.6574000804e+01   4.5351033796e+01     1.060069    0.5560241  77.42  0.003703052    4.144    0.759
       325  -9.8242    117.8812    124.9040   5.6017031048e+01   3.3763398995e+01    0.5624253    0.3999431 -85.70  0.001331153    2.122    0.529
       326  -7.8635    228.4900    125.0080   3.2259167628e+01   1.0241383784e+01    0.2018566    0.1082708 -55.73 0.0008090964    2.448    0.592
       327  -8.9687    179.2984    124.5617   4.1284951974e+01   2.0706650274e+01    0.3014888    0.2473321 -70.60 0.0007179932    1.449    0.310
       328 -10.1347     28.5875    122.1634   8.1244917260e+01   4.7458326188e+01    0.7212803    0.3626747  80.27    0.0027614    3.632    0.725
       329  -7.4399    244.2882    124.2951   2.9618905572e+01   7.3265192026e+00    0.1305771    0.1009611  -3.93 0.0002649697    1.549    0.355
       330  -8.2537    188.4246    123.2889   3.9112112462e+01   1.8951626116e+01    0.2180245    0.1370151 -49.60 0.0009468389    1.645    0.392
       331  -9.6234    158.7243    121.4181   4.5000294529e+01   2.5892611513e+01    0.3917553    0.2874431 -80.44  0.001192237    1.974    0.493
       332  -8.6441     84.1371    122.7341   6.4924097108e+01   4.0336851445e+01    0.2685261    0.2108883   2.93  0.001061862    1.623    0.384
       333  -7.9758    195.0133    121.9579   3.7498545569e+01   1.7768814431e+01     0.233616    0.1783622 -71.02 0.0005621395    1.674    0.403
       334  -8.7568    171.9732    121.4746   4.2074772245e+01   2.2941454534e+01    0.2764134    0.2069998 -56.60 0.0005360954    1.457    0.314
       335  -7.7654    202.8728    121.6204   3.5934139346e+01   1.6135753387e+01     0.193487    0.1415654  65.78 0.0003884388    1.646    0.392
       336  -9.5870     71.2117    119.4579   6.7997242731e+01   4.3090243348e+01    0.4422152    0.2415001 -70.87   0.00133843    2.366    0.577
       337  -9.9837    141.6549    118.4854   4.8302728994e+01   3.0248385962e+01    0.5121082    0.3306835 -66.03  0.001171743    2.146    0.534
       338 -10.1301    131.1383    118.5535   5.0960205502e+01   3.2475909814e+01    0.5359974    0.3791089  87.71  0.001789816    2.272    0.560
       339  -9.4864      2.9176    116.8526   8.7951389403e+01   5.0650664906e+01    0.5267938    0.2506626  79.26  0.002335437    3.012    0.668
       340  -7.7599    231.4919    117.4651   3.0073689746e+01   1.0945856942e+01    0.1404505     0.124888 -45.28 0.0004319694    1.066    0.062
       341  -8.3315    185.8007    115.9542   3.7833954884e+01   2.0941192032e+01    0.2461039    0.1643774 -62.18 0.0005706177    1.898    0.473
       342  -9.4979    108.7220    108.0272   5.4235911775e+01   3.9325980434e+01    0.4859284    0.3047238   5.60  0.001718833    3.176    0.685
       343  -8.2609    250.1665    114.8260   2.6702512898e+01   7.7883202866e+00    0.1766449    0.1519699  -4.86  0.001059647    1.311    0.237
       344  -8.3280    192.9247    115.0599   3.6220138735e+01   1.9527642904e+01    0.2283583     0.194113 -63.56 0.0004554232    1.276    0.216
       345 -10.1236     92.7600    112.4082   5.9948521929e+01   4.1286603878e+01    0.5286797    0.3414232 -70.41  0.001355953    2.070    0.517
       346  -8.9274     94.1953    104.2002   5.7414391213e+01   4.2880309301e+01    0.4875555    0.2867242  10.56  0.001701021    3.390    0.705
       347 -10.0237     79.0016    112.3532   6.4026903803e+01   4.3577414145e+01    0.5533234    0.3824647  89.55  0.001883872    2.237    0.553
       348  -8.8885     59.5742    114.7439   7.0494631468e+01   4.5807092265e+01    0.3192131    0.1970034   2.63  0.001380919    2.605    0.616
       349  -8.3611    167.2084    114.1718   4.1262800379e+01   2.5468476157e+01    0.2107407    0.1813609 -72.79 0.0005222101    1.319    0.242
       350 -10.0782    133.7821    109.8736   4.8022261462e+01   3.3777896400e+01    0.6798597    0.3216819 -48.66  0.002288955    2.177    0.541
       351  -9.6132    121.9776    112.5682   5.1806061195e+01   3.5682710539e+01    0.3236264    0.2691451  71.44 0.0005255273    1.422    0.297
       352  -8.6791    174.8649    111.5143   3.8948019035e+01   2.4259512295e+01    0.2853163    0.2018977 -56.62 0.0005875882    1.567    0.362
       353  -8.9098    159.2652    111.7781   4.2408740488e+01   2.7741248213e+01    0.2876028    0.2261362 -67.48 0.0007853559    1.507    0.336
       354  -9.7683     66.5323    110.3426   6.7368063908e+01   4.5896684964e+01    0.4130498    0.2839244 -84.62  0.001319757    2.030    0.507
       355  -9.8707     14.3305    110.9097   8.3727777260e+01   5.1264854726e+01    0.3548406    0.2083921  75.19  0.001346341    2.289    0.563
       356  -9.6893    248.9067    108.3104   2.5463571423e+01   9.0825093111e+00    0.2757249    0.2753916  87.61  0.001108695    1.154    0.134
       357 -10.7396    249.3604    102.6330   2.4164317854e+01   9.9111003300e+00    0.4630671    0.2905339 -41.50  0.002447619    1.370    0.270
       358  -8.3432    189.4153    107.7144   3.5068814715e+01   2.1686691929e+01    0.2820975    0.1357392 -43.80 0.0007719295    2.011    0.503
       359 -10.5088     45.9260    102.2815   7.2093926975e+01   5.0371469130e+01    0.7357801    0.4314603  72.34  0.002928666    3.427    0.708
       360 -10.7929     22.8852    102.5852   7.9636787619e+01   5.2533447087e+01    0.6281765    0.3699718  73.10  0.002308292    2.654    0.623
       361  -8.7618    166.6632    104.0039   3.8738146290e+01   2.7591958539e+01    0.3115678    0.2167752 -58.62   0.00068759    1.656    0.396
       362  -9.6220    150.5502    102.9482   4.2069101937e+01   3.1486800881e+01    0.4850314    0.2968315 -60.23  0.001387642    2.141    0.533
       363  -9.3783    139.8779    104.4137   4.5028288018e+01   3.3583941049e+01    0.3905727    0.3122959  89.45  0.001050032    1.629    0.386
       364  -8.9855     78.7567    104.5660   6.2183672803e+01   4.5399429520e+01    0.3428078    0.2198867   3.73  0.001427442    2.504    0.601
       365  -9.9487    128.5618    101.9111   4.7207207075e+01   3.6569347208e+01    0.3719335    0.2931778 -89.60 0.0008695102    1.714    0.417
       366  -9.4044      6.8314    102.9129   8.4801553438e+01   5.3611952266e+01    0.2829603     0.155099 -84.52  0.001235049    1.984    0.496
       367  -8.2161    175.5274    101.9554   3.6342949868e+01   2.5940256059e+01    0.2321576    0.1458104 -41.59 0.0007229625    1.550    0.355
       368  -8.3390    159.9321    100.9211   3.9387145406e+01   2.9739607191e+01    0.2373974    0.1846718 -73.58 0.0005151075    1.605    0.377
       369 -10.2623    108.8637     98.6739   5.1654007179e+01   4.1319486989e+01    0.5660814    0.3727331  69.72   0.00126506    2.422    0.587
       370  -9.2022     82.0919     99.9229   5.9950068739e+01   4.5903422170e+01    0.3589785    0.2550686 -75.39 0.0009755743    1.939    0.484
       371 -10.3154     63.9735     95.6870   6.4615619501e+01   4.9597613024e+01     0.554988    0.3643482 -83.15  0.001597277    2.564    0.610
       372  -8.7699     65.5047     87.3419   6.1888342316e+01   5.1210471872e+01     0.457576    0.2468934   8.10  0.001646017    3.671    0.728
       373  -9.1428     95.1298     96.8197   5.5135511454e+01   4.4325082253e+01    0.2840049    0.2493716 -81.46 0.0005890238    1.367    0.268
       374  -8.6946    150.9838     95.0027   3.9793223805e+01   3.2946949771e+01    0.3189368    0.2107537  37.93  0.001399443    1.637    0.389
       375  -9.8631    109.4766    114.1277   5.5612952557e+01   3.7826874768e+01    0.5226844    0.3340951 -68.01  0.001478327    2.135    0.532
       376  -7.6151    188.6273     93.2945   3.1547996789e+01   2.4495357962e+01    0.1553909     0.114697 -77.71 0.0007026069    1.734    0.423
       377  -8.4577    176.1645     92.8837   3.3826231694e+01   2.7473750594e+01    0.2373896    0.1985641 -69.28 0.0006851036    1.318    0.241
       378  -9.1678    138.9676     92.0066   4.1802967208e+01   3.6268265261e+01    0.3560052    0.2765513 -80.19 0.0006185736    1.719    0.418
       379  -9.8541    118.9728     91.6097   4.6841505047e+01   4.0717644172e+01    0.3877042    0.2979567  89.83 0.0005293171    1.884    0.469
       380  -8.8204    107.8234     92.0718   5.0076637196e+01   4.2906471318e+01    0.3987577    0.2482158  24.49  0.001667075    2.075    0.518
       381  -8.9617     46.1675     92.0851   6.9658070985e+01   5.2659136521e+01    0.3376919    0.1992072  -6.68  0.001500738    2.630    0.620
       382  -9.6359      5.0618     91.7858   8.3560632287e+01   5.6235039280e+01    0.2918501    0.1832366  62.03  0.001248217    2.192    0.544
       383  -9.9575    124.7419     90.7172   4.5042593717e+01   3.9666145482e+01    0.4476448    0.3349263 -72.97  0.001001146    1.832    0.454
       384  -9.1225     22.5746     90.3154   7.7346097871e+01   5.5348610936e+01    0.3305384    0.1938897 -30.40   0.00126019    1.857    0.462
       385  -8.3565    164.8333     94.0870   3.6477031271e+01   2.9904542208e+01    0.2362168     0.200084 -63.84  0.000532408    1.276    0.216
       386  -9.4806     34.8635     89.5529   7.2937616800e+01   5.4422228006e+01     0.412394    0.2467941 -79.29  0.001572731    2.346    0.574
       387  -8.2760    151.0070     88.9626   3.8099650632e+01   3.4089695435e+01    0.2410533    0.1846815 -72.59 0.0005409054    1.655    0.396
       388 -10.0930     86.6722     85.8041   5.4578974656e+01   4.8160582566e+01    0.6838811    0.4201374 -55.79  0.001598503    1.832    0.454
       389  -7.7333    204.7010     93.2946   2.8717582713e+01   2.0820465086e+01    0.1462045    0.1089539 -69.54  0.000173179    1.569    0.362
       390  -7.8504    163.9718     86.9946   3.4718591826e+01   3.1412287794e+01    0.1863545    0.1696569 -40.44 0.0004298454    1.093    0.085
       391  -9.8703     48.5699     84.1658   6.6829111104e+01   5.4122270032e+01    0.5190227    0.4222816 -87.98   0.00296186    1.644    0.392
       392  -7.7146    179.2959     85.6243   3.1286077619e+01   2.8033240400e+01    0.1587348    0.1125259 -67.98  0.000702507    1.745    0.427
       393  -8.2763    158.1015     83.7080   3.5049027792e+01   3.3391499250e+01    0.2543557     0.197464 -50.80 0.0003322834    1.333    0.250
       394  -9.0326    105.3258     76.9838   4.6268833471e+01   4.6396291362e+01      0.36126    0.1956917  26.56  0.001371622    2.596    0.615
       395  -7.5601    170.6831     83.3453   3.2345345987e+01   3.0473465306e+01    0.1578242    0.1154767 -71.92 0.0007048493    1.720    0.419
       396  -9.1747    141.0355     82.2744   3.8496433861e+01   3.7638285061e+01     0.376163    0.2180026 -39.18  0.001350448    1.728    0.421
       397  -8.1383     64.0370     82.3474   6.0982068470e+01   5.2484444345e+01    0.1843469    0.1759992 -25.62 0.0008197269    1.094    0.086
       398  -9.6928     24.6247     80.4011   7.4440921305e+01   5.7368742941e+01    0.4066727    0.2481872 -82.01  0.001404177    2.379    0.580
       399  -9.0680      9.7949     80.6903   7.9854820811e+01   5.8399677775e+01    0.3128351    0.1769081  62.09  0.001207866    3.071    0.674
       400  -8.5884    249.6798     81.3138   1.9479539791e+01   1.3192833791e+01    0.1368617   0.08937286 -63.38  0.000213245    1.653    0.395
       401  -8.2281    150.2843     80.4100   3.5823141392e+01   3.5824454436e+01     0.258886    0.1755891 -57.44 0.0008090513    1.739    0.425
       402  -8.7961     74.8653     80.3046   5.6750024173e+01   5.1268915684e+01    0.3043007    0.1951826 -61.48 0.0009556137    1.983    0.496
       403  -8.7661    119.2935     79.8621   4.3267836015e+01   4.2940696199e+01    0.2767583    0.2217701 -66.07 0.0007299979    1.538    0.350
       404  -8.2063    166.9213     79.3474   3.1995180240e+01   3.2065815704e+01    0.2017296    0.1951268  67.79 0.0005262616    1.028    0.027
       405  -7.8336    184.2482     77.9671   2.8335065157e+01   2.8170736185e+01    0.1951099    0.1221894 -37.92 0.0008089031    1.568    0.362
       406  -8.4901     91.1074     77.1522   5.0578411426e+01   4.9105957084e+01    0.3005336    0.1972764 -53.41  0.001408667    1.719    0.418
       407  -9.7195    104.7220     82.9082   4.8261448550e+01   4.5371131606e+01    0.4262502    0.2993976 -61.92  0.001019886    1.831    0.454
       408  -8.7671    140.4228     75.2299   3.6559735651e+01   3.9046606292e+01    0.2564964    0.1797913 -45.45 0.0006011007    1.475    0.322
       409  -9.6288    128.2565     74.7488   3.9373290611e+01   4.1910009908e+01    0.5275409    0.2616396 -38.85  0.002123223    2.026    0.506
       410  -9.9915     63.2531     73.3850   5.8605622488e+01   5.4442046385e+01     0.453201    0.2731669 -56.32  0.001307607    1.868    0.465
       411  -8.5229    248.3394     74.3318   1.8122047883e+01   1.4516437483e+01     0.124707    0.1021658  10.59 0.0007051727    1.744    0.427
       412  -9.6361     82.6173     72.5842   5.1831290055e+01   5.1510365467e+01    0.3924102    0.2935366 -75.57 0.0009629782    2.134    0.531
       413  -8.2215    163.4644     73.0425   3.0920541393e+01   3.3965711010e+01    0.2275574    0.1441902 -38.12  0.001024719    1.581    0.368
       414  -8.5738    115.8194     72.5317   4.1937655745e+01   4.5037117857e+01    0.2840615    0.1839121 -53.44 0.0006641183    1.840    0.457
       415  -8.2665     42.7260     72.5898   6.5765370812e+01   5.7250195875e+01    0.2197802    0.1560891 -70.42  0.001176044    1.834    0.455
       416  -8.1621    175.5669     72.2394   2.8368395107e+01   3.1191646499e+01    0.1991671     0.144009 -22.39 0.0009429248    1.593    0.372
       417  -9.2152     95.1752     70.9797   4.7375376344e+01   4.9518160537e+01    0.3703245    0.2349285 -56.33  0.001008462    2.028    0.507
       418  -9.4003     51.5399     69.6150   6.1646616789e+01   5.6795543736e+01    0.4039422    0.2500024 -68.23  0.001389386    2.526    0.604
       419  -8.7519     17.0416     70.1349   7.4812220133e+01   6.0163046050e+01     0.234367    0.1804651  84.62 0.0009437711    1.836    0.455
       420  -8.8811    105.9295     71.5304   4.4376434409e+01   4.7288409119e+01    0.2600016    0.1990482 -55.39  0.000579675    1.527    0.345
       421  -9.2795     30.9567     69.2819   6.9265313801e+01   5.9160120556e+01    0.4443159    0.2066935  -4.87  0.001562274    4.789    0.791
       422  -8.8197    147.3680     68.0923   3.2854554222e+01   3.8634684795e+01    0.3299972    0.2188299 -59.33 0.0008235883    1.885    0.470
       423  -8.5626    138.7714     65.9195   3.4127750110e+01   4.1017689859e+01    0.2694446    0.1945964 -54.54 0.0007162202    1.585    0.369
       424  -8.7155    121.5638     65.8436   3.8300160922e+01   4.4954470477e+01    0.2626765    0.2253785 -81.37 0.0006865734    1.458    0.314
       425  -8.6809     37.5263     64.3359   6.5324784057e+01   5.9498571810e+01    0.2455071    0.1987501  88.92  0.001098252    1.921    0.479
       426  -9.1011    110.1591     63.5031   4.0587354591e+01   4.7823090255e+01    0.2558283    0.2208108 -69.81 0.0006632215    1.451    0.311
       427  -8.3116     65.1119     62.6859   5.4540298177e+01   5.6240271339e+01    0.2853427    0.1579161  10.31  0.001132119    3.023    0.669
       428  -8.1021    158.4166     61.5431   2.8621334434e+01   3.7038014369e+01    0.1428351    0.1387291  86.11 0.0001018628    1.022    0.021
       429  -9.0269     97.5427     60.5336   4.3215542562e+01   5.0915278776e+01    0.2571675    0.2356952  50.70 0.0009276944    1.210    0.174
       430  -9.6517     73.3729     59.4324   5.0565338070e+01   5.5521167285e+01    0.3806009    0.2318035 -47.75  0.001053301    1.769    0.435
       431  -8.1107     51.6605     61.7000   5.9118900663e+01   5.8329619785e+01    0.1368926   0.09134636 -14.82 0.0007035836    1.666    0.400
       432  -8.0104     89.4091     59.8815   4.5474028126e+01   5.2599630403e+01     0.190122    0.1182121 -59.27 0.0008025806    2.514    0.602
       433  -8.3260    130.9394     57.7005   3.3387047564e+01   4.4155290446e+01    0.2557324    0.1773074 -49.39 0.0007190609    1.620    0.383
       434  -9.8650     23.4244     56.0499   6.8457890675e+01   6.2505637996e+01    0.3976708     0.277165 -86.71  0.001910171    2.718    0.632
       435  -9.3419      7.5819     56.9787   7.5246855157e+01   6.3511001496e+01    0.2767473    0.1915235 -80.77  0.001345434    1.987    0.497
       436  -8.3741    140.1040     55.6794   3.0665916921e+01   4.2322352875e+01    0.2486723    0.1903585 -47.27 0.0006341399    1.401    0.286
       437  -9.0943    119.0857     55.3459   3.5528963408e+01   4.7210606450e+01    0.3614307    0.2131562 -47.28  0.001435328    1.950    0.487
       438  -8.6859     44.2071     55.5244   5.9937152457e+01   6.0434403973e+01     0.220018    0.1928123 -62.26 0.0007067848    1.482    0.325
       439  -9.0676     62.8596     54.3906   5.2512411297e+01   5.8085485197e+01    0.2969102    0.1772062 -46.39 0.0007306492    1.741    0.426
       440  -8.8910     54.3259     53.9741   5.5520232378e+01   5.9400502846e+01    0.3016997    0.2089635 -64.09  0.001157923    2.270    0.560
       441  -8.6850    105.7871     52.7778   3.8198481037e+01   5.0491351932e+01    0.2656795    0.1827894 -43.47 0.0006169336    1.583    0.368
       442  -9.4170     92.4788     50.3229   4.1196621388e+01   5.3581320838e+01    0.3820044    0.2287769 -45.68  0.001391397    1.911    0.477
       443  -7.9352    144.6512     48.7343   2.7547539409e+01   4.2254408258e+01    0.1943695    0.1278506 -41.82 0.0004337907    1.599    0.375
       444  -8.5559    129.7029     49.0475   3.0892909171e+01   4.5738066866e+01    0.2201734    0.1701338 -49.74 0.0006021935    1.451    0.311
       445  -8.2269    120.8650     47.1330   3.2352813524e+01   4.8036530155e+01    0.2060139     0.189162 -63.21  0.000588098    1.255    0.203
       446  -8.2671    112.4759     46.9298   3.4392979688e+01   4.9932314812e+01    0.2023059    0.1350883 -35.22 0.0007443245    1.555    0.357
       447  -8.9715     82.1241     45.9825   4.2858909963e+01   5.6224400807e+01    0.3179876    0.2019644 -42.58 0.0009600375    1.718    0.418
       448  -8.6092     45.1237     44.5954   5.5740741995e+01   6.2268609890e+01    0.2055917    0.1572808 -42.35 0.0006292335    1.356    0.262
       449  -9.2384     16.7552     44.5540   6.7704082030e+01   6.5248741314e+01    0.2129162    0.1727171 -52.57 0.0007393419    1.350    0.259
       450  -8.7912    132.8461     43.1050   2.8261552020e+01   4.5832825571e+01    0.2066162    0.1882919 -70.06 0.0003553926    1.232    0.188
       451  -9.3891     69.6959     41.4328   4.5317375781e+01   5.9116472624e+01    0.3657852    0.2578205 -55.63  0.001359734    2.099    0.524
       452  -8.8443     58.1403     42.0219   4.9722571001e+01   6.0873500040e+01    0.2878214    0.1674305 -47.49  0.001160137    2.026    0.506
       453  -9.7072      5.2734     41.8358   7.1960279924e+01   6.6583985710e+01    0.3022963     0.193382 -67.26  0.001385894    1.951    0.487
       454  -7.9166    140.3916     41.1716   2.6055092578e+01   4.4303679538e+01    0.1909082    0.1256496 -43.78   0.00035134    1.647    0.393
       455  -8.4549    105.9892     41.0352   3.4039643312e+01   5.2168221535e+01    0.2076054    0.1674776 -66.80 0.0005818952    1.693    0.409
       456  -8.6214     36.8976     40.6435   5.7647155029e+01   6.3948201085e+01     0.223588    0.1638479 -43.80  0.000765232    1.406    0.289
       457  -8.7817     95.4630     37.7775   3.5764898095e+01   5.4815232582e+01    0.2451937    0.1766657 -49.51 0.0007322422    1.755    0.430
       458  -8.0903     80.8003     36.7839   3.9823527044e+01   5.7819155145e+01    0.1635491    0.1574553 -44.64 0.0004364531    1.318    0.242
       459  -9.3685     26.1958     35.1377   6.0202426818e+01   6.6044702538e+01    0.2744856    0.1866093 -52.53 0.0008315613    1.754    0.430
       460  -8.1556    125.9774     35.3258   2.7206128088e+01   4.8444218268e+01    0.1930237    0.1650066  50.63 0.0004598698    1.081    0.075
       461  -8.2027    111.7229     34.2196   3.0151654262e+01   5.1813463709e+01    0.1987166    0.1629754 -47.20 0.0004262457    1.422    0.297
       462  -7.8531     88.7325     34.3652   3.6450243272e+01   5.6623440566e+01    0.1246092    0.1041315 -60.14 0.0004624976    1.654    0.395
       463  -8.8371     48.5722     33.0426   4.9894379235e+01   6.3658613177e+01    0.2149428      0.18881 -42.68 0.0006258368    1.477    0.323
       464  -8.4068    118.9813     32.8393   2.7938771899e+01   5.0355863700e+01    0.2503622    0.1658743 -56.34 0.0007766176    2.039    0.510
       465  -8.7500     60.8917     32.4394   4.4930354494e+01   6.1889818448e+01    0.2144987    0.1685037 -41.82 0.0006151396    1.527    0.345
       466  -8.7864     72.3613     31.0192   4.0325379018e+01   6.0143784114e+01    0.1969017     0.184143  83.70 0.0006730332    1.551    0.355
       467  -7.8793    191.7360    249.5891   6.3306701486e+01  -3.9687780442e+00    0.1662603   0.09817673  43.02 0.0005374388    1.625    0.385
       468  -8.7711     81.6566     27.3701   3.5875533307e+01   5.8893630453e+01    0.2445948     0.207931 -73.49 0.0009674758    1.807    0.446
       469  -8.8844      3.8722     27.4827   6.7826035225e+01   6.9233461734e+01    0.1913116    0.1409325 -55.13 0.0007600407    1.566    0.361
       470  -8.6517     91.8009     26.1296   3.2406350997e+01   5.7035038698e+01    0.2515241    0.1670604 -38.81 0.0009095728    1.721    0.419
       471  -8.1207     34.4806     22.9472   5.1563562638e+01   6.7003727274e+01     0.141653    0.1015931 -55.51 0.0007595248    2.363    0.577
       472  -8.9037     63.6922     20.8708   3.9101821370e+01   6.2945343556e+01    0.2412271    0.1722341 -37.70 0.0008810202    1.642    0.391
       473  -8.7302     48.2809     21.3950   4.5101100621e+01   6.5338739198e+01    0.2075789    0.1796771 -26.82 0.0007990922    1.360    0.265
       474  -8.4856    101.6059     29.3019   3.0945502368e+01   5.4613675603e+01    0.1901303    0.1562826 -66.87 0.0008679976    1.670    0.401
       475  -8.8707     74.2181     19.3262   3.4930282240e+01   6.1246055991e+01    0.2208722    0.1891413 -34.33 0.0006542145    1.408    0.290
       476  -8.0686     38.8013     18.3552   4.7661850074e+01   6.7076185286e+01     0.159227    0.1280423 -13.24 0.0003688085    1.130    0.115
       477  -8.1263     87.5721     17.1106   3.0050592370e+01   5.8891486910e+01    0.1801924    0.1197425 -24.06   0.00101174    1.580    0.367
       478  -7.6085    112.5597     16.5144   2.3645120385e+01   5.3600822095e+01    0.1299674     0.115658  43.05 4.604903e-05    1.023    0.022
       479  -7.9418     97.0356     14.9539   2.6705953161e+01   5.7146833615e+01    0.1550389    0.1360689  26.20 0.0004343006    1.044    0.042
       480  -7.8169     30.3183     15.7160   5.0199958187e+01   6.8516727944e+01   0.09562268   0.09206627   0.89 0.0003071896    1.587    0.370
       481  -7.5256    119.6861     11.2797   2.0321132494e+01   5.2473970565e+01    0.1230225   0.09752112 -76.77 0.0003174524    1.570    0.363
       482  -8.1383    113.3270    248.5099   7.8237608622e+01   8.3415216493e+00    0.2079472    0.1078939 -76.74 0.0009394207    3.233    0.691
       483  -9.1164    103.9960    246.8682   7.9857420232e+01   1.0029734782e+01       0.4086    0.2103527 -79.24  0.001890905    3.113    0.679
       484  -8.2053     93.8352    249.0221   8.2033935244e+01   1.1138652882e+01    0.2007474    0.1165346  72.50 0.0008856472    2.127    0.530
       485  -9.0943    242.8746    245.9747   5.3530628462e+01  -1.0755113460e+01    0.3596916    0.1429781 -30.33  0.001826165    2.546    0.607
       486  -9.2179    233.0177    246.1261   5.5264971580e+01  -9.4567531388e+00    0.3793311    0.2090633 -18.78  0.002030174    1.925    0.480
       487  -8.6877    218.6692    247.3066   5.8004493817e+01  -7.6115496864e+00    0.3104927    0.1322447 -36.81  0.001574559    2.545    0.607
       488  -9.1119    175.5252    247.4916   6.6060975338e+01  -1.1836789071e+00     0.272249     0.219657  70.65  0.001404469    1.821    0.451
       489  -8.2993    156.3782    248.2189   6.9847428213e+01   1.7009980059e+00    0.2041212    0.1332869  53.76 0.0005835185    1.665    0.400
       490  -8.6531    132.2574    247.7580   7.4472657884e+01   5.5580227635e+00    0.2206364    0.1657689  67.35 0.0007037211    1.520    0.342
       491  -9.9927    223.8962    243.8153   5.6505244944e+01  -7.8991520343e+00    0.4134874    0.2262919 -44.39  0.002262968    2.420    0.587
       492  -9.3145    147.0075    245.7420   7.1332576716e+01   3.5729252940e+00    0.3013836    0.1955039  68.39  0.001392478    2.337    0.572
       493  -9.0323    119.9867    245.0674   7.6538521778e+01   7.9193002727e+00    0.3136144    0.1977323 -85.24  0.001633768    2.406    0.584
       494  -8.7207     67.5738    244.8866   8.6601472537e+01   1.5544085869e+01    0.2514953    0.1309773 -88.82  0.001312673    2.340    0.573
