#   1 NUMBER                 Running object number                                     
#   2 MAG_AUTO               Kron-like elliptical aperture magnitude                    [mag]
#   3 X_IMAGE                Object position along x                                    [pixel]
#   4 Y_IMAGE                Object position along y                                    [pixel]
#   5 X_WORLD                Barycenter position along world x axis                     [deg]
#   6 Y_WORLD                Barycenter position along world y axis                     [deg]
#   7 A_WORLD                Profile RMS along major axis (world units)                 [deg]
#   8 B_WORLD                Profile RMS along minor axis (world units)                 [deg]
#   9 THETA_WORLD            Position angle (CCW/world-x)                               [deg]
#  10 FWHM_WORLD             FWHM assuming a gaussian core                              [deg]
#  11 ELONGATION             A_IMAGE/B_IMAGE                                           
#  12 ELLIPTICITY            1 - B_IMAGE/A_IMAGE                                       
         1 -13.8681     68.4784    144.3434   9.8620741448e+01   3.7496989855e+01     3.512879     1.811918  87.40  0.005547705    4.508    0.778
         2 -13.6067    202.1987     42.1768   4.0316974122e+01   3.0130886790e+01     1.421233     1.179995 -13.09  0.006474304    1.600    0.375
         3 -13.5621    213.3744     31.6803   3.6623645969e+01   2.8996304647e+01    0.9189979    0.8179977  34.68  0.002762008    1.532    0.347
         4 -11.9431      2.3788      3.4333   8.5896243196e+01   7.4281336854e+01    0.5725282    0.3776914  25.18  0.004003907    1.698    0.411
         5 -12.6796      3.0539     23.5675   9.4331422381e+01   7.1038987568e+01     1.168348    0.3929173 -51.93  0.005666164    2.555    0.609
         6 -12.5353    236.5789      7.6748   2.9602174355e+01   2.6892343305e+01    0.7810658    0.5181668 -51.43  0.005212533    1.292    0.226
         7 -11.8093    243.0192      6.9920   2.9040286469e+01   2.5683748527e+01    0.5858776    0.2717931 -35.72  0.003295288    2.099    0.524
         8 -10.3228     56.2493      5.8437   5.9457154551e+01   6.6893497006e+01    0.3515579    0.1923412  61.74  0.001664091    2.932    0.659
         9  -8.9505     89.0205    210.3054   1.0315721719e+02   1.8454902745e+01    0.1886368    0.1604534  48.00 0.0003537126    1.079    0.073
        10 -10.4974    140.0217    249.6832   9.6943724687e+01   2.9950873035e+00    0.3163083    0.1867621  47.16  0.001684009    1.671    0.401
        11 -12.1460    117.0133    245.6056   1.0127672418e+02   7.1165379172e+00    0.5888445    0.5134285  -9.80  0.003800592    1.382    0.277
        12 -11.1590    101.8324    246.2027   1.0455811640e+02   9.2062861254e+00    0.6781241    0.2714657 -66.86   0.00286671    3.357    0.702
        13 -14.2577     37.3339    192.4962   1.1347058714e+02   2.9254796582e+01     4.204534     1.554217  64.78   0.01104577    4.435    0.775
        14 -15.2561      6.9368    159.4604   1.1799312631e+02   4.0017687023e+01     7.135107     1.232944 -73.68   0.02242834    4.399    0.773
        15  -9.6667     58.7529    196.0754   1.0868674637e+02   2.5890278282e+01    0.2094224    0.1877902  45.36 0.0002778384    1.160    0.138
        16  -9.4080     34.0418    206.4640   1.1547366259e+02   2.6362129458e+01    0.3789081    0.1256718  53.68  0.001485994    3.108    0.678
        17  -9.3542    118.5047    190.5655   9.3089137777e+01   1.8266093815e+01    0.2568767    0.1448411 -69.72  0.001029965    2.382    0.580
        18 -10.1423    147.4643    187.7774   8.5572977012e+01   1.3846306033e+01    0.5224456    0.3351621 -84.50  0.001922878    3.315    0.698
        19  -9.0826     84.6919    185.3542   1.0080295161e+02   2.4888797076e+01    0.2936645    0.2336058  76.39 0.0008369646    1.320    0.243
        20  -9.8045     81.4008    181.9749   1.0115394886e+02   2.6193211728e+01    0.4751954    0.3709043  73.12  0.002499877    1.348    0.258
        21  -9.7780     99.4305    180.9618   9.6319867791e+01   2.3663155185e+01     0.272049    0.2165413  34.82 0.0006369479    1.255    0.203
        22 -10.3324    186.9528    175.3765   7.4235074781e+01   9.2940683272e+00     0.371707    0.3087956 -44.48  0.001140021    1.244    0.196
        23 -10.0495     39.4048    176.5872   1.1133091248e+02   3.2879944394e+01    0.3052753    0.2058238 -44.75 0.0006279658    1.728    0.421
        24 -10.3844     43.0143    175.4798   1.1027854597e+02   3.2758639091e+01    0.4180799    0.2310265  86.14  0.001898129    2.056    0.514
        25 -11.6433    103.3549    171.7741   9.3724441886e+01   2.5238749329e+01    0.8979393    0.3751689  39.82  0.003350857    2.308    0.567
        26 -12.7424     67.9872    154.3720   1.0049736709e+02   3.5003936600e+01    0.6436769    0.4051868 -49.69 0.0009791856    1.572    0.364
        27 -11.4626     71.0565    167.6800   1.0175844623e+02   3.1210961079e+01    0.5113391    0.2883809 -51.23 0.0007598884    1.775    0.437
        28  -9.1682     35.4808    172.1095   1.1184977135e+02   3.4398994110e+01    0.1911168    0.1511729 -84.69 0.0004340172    1.116    0.104
        29 -10.2971    192.8313    205.3790   7.8795614533e+01   2.6339874438e+00    0.2128165     0.127382  33.69 0.0008524292    1.606    0.378
        30 -10.8652    240.1114    169.3729   6.2898964104e+01   1.4521654243e+00    0.2536676    0.1711073 -40.62 0.0007037313    1.362    0.266
        31 -12.2396     79.9642    159.1254   9.7896955921e+01   3.2085981694e+01     1.168849    0.5649912  58.02 0.0003881478    3.052    0.672
        32  -9.0410     36.9481    162.1516   1.1031746670e+02   3.6733066923e+01    0.2952103    0.1607563   3.59  0.001221813    3.137    0.681
        33 -10.6527     33.0319    156.2423   1.1067603218e+02   3.8613576831e+01    0.3591451    0.2959133  75.04  0.001096647    1.179    0.152
        34 -11.5374     87.1972    152.6732   9.4684580229e+01   3.2605921557e+01    0.6546039    0.4694303 -19.04  0.001678441    1.913    0.477
        35  -9.9869    134.3067    147.8306   8.0719440021e+01   2.5352458327e+01    0.4769885    0.2415404 -56.04  0.001695981    2.191    0.544
        36 -10.2496    133.5122    143.0013   7.9839743453e+01   2.6637181215e+01    0.7458822    0.2299667 -55.53  0.001913652    4.579    0.782
        37  -8.2877    112.2162    150.5783   8.7231867770e+01   2.8874012055e+01    0.2042355    0.1504548  22.56 0.0003897865    1.543    0.352
        38 -11.1486     55.8479    146.5745   1.0275789248e+02   3.8572417117e+01    0.6334165    0.5501502 -33.59  0.003571212    1.270    0.212
        39  -9.5845    174.8787    149.1612   7.1248129541e+01   1.6949730177e+01    0.2295835    0.2112031 -79.72 0.0007061037    1.266    0.210
        40 -10.4237     28.7929    144.9720   1.1047122430e+02   4.1861340655e+01     0.381179    0.2125179  59.53  0.001786119    2.098    0.523
        41  -9.8264     31.6583    142.6858   1.0933404052e+02   4.2177539393e+01    0.2247886    0.1951717 -26.39  0.001348924    1.340    0.254
        42  -9.5297     35.3391    145.4913   1.0863504997e+02   4.1112349401e+01    0.2796711    0.1411671   7.64  0.001133418    3.100    0.677
        43 -10.3865    101.7963    138.3362   8.7553486349e+01   3.3749899003e+01     0.717444    0.4576796  -7.80  0.002602506    2.892    0.654
        44  -9.9502    105.8526    131.0487   8.4730083337e+01   3.4805653721e+01     0.433748     0.357462 -57.71  0.001387399    1.215    0.177
        45  -9.5637    110.7927    129.4322   8.2920750748e+01   3.4276861229e+01    0.3376846     0.262594   8.80 0.0008939304    1.590    0.371
        46 -11.5838     88.7802    138.0399   9.1319387013e+01   3.6037859963e+01    0.3003595    0.2651597 -42.63 0.0003818208    1.128    0.113
        47 -11.1063     25.1286    137.1067   1.1052817612e+02   4.4171213282e+01    0.4944596    0.2634613  45.23   0.00238596    2.071    0.517
        48 -10.0286    134.5541    127.7755   7.5963891541e+01   2.9951070726e+01    0.4614591    0.2856071 -31.45  0.001855087    1.911    0.477
        49 -10.0678     43.8152    129.6205   1.0363242444e+02   4.4289089542e+01    0.2337197    0.1810662  40.20  0.001134111    1.411    0.291
        50 -10.4104     97.9821    125.2412   8.5703700356e+01   3.7641589610e+01    0.3341756    0.2659156  -6.62 0.0009987444    1.543    0.352
        51 -11.4292     66.2783    172.7342   1.0379669156e+02   3.0596429644e+01    0.4623773    0.3077552 -34.19  0.001578869    1.963    0.491
        52  -9.8064    117.1386    123.9390   7.9778843230e+01   3.4360358142e+01    0.2995879    0.2107045   6.78  0.000984853    2.062    0.515
        53  -8.3526    163.5262    121.4529   6.7264165330e+01   2.5176240903e+01    0.1535242    0.1487995 -58.18 0.0002240847    1.044    0.042
        54  -9.2640    135.0000    120.0085   7.3905800117e+01   3.1618399082e+01    0.2640524   0.08869195 -46.06 0.0008012589    2.934    0.659
        55  -8.9923     83.9655    118.2066   8.8383776351e+01   4.1749365119e+01    0.2282928    0.2017679  74.55 0.0006207689    1.296    0.228
        56 -13.0563     51.8239    186.7099   1.0932733423e+02   2.8988762896e+01     1.044054    0.8945194 -34.68  0.005898293    1.447    0.309
        57 -10.2134    231.2660    113.7719   5.2710815750e+01   1.2649055242e+01    0.2790847    0.2617436 -17.26 0.0007686897    1.160    0.138
        58  -9.9949     40.1659    113.8324   1.0199805124e+02   4.8648619617e+01    0.2066251    0.1814261 -87.81  0.000673902    1.214    0.176
        59  -9.0787    107.4128    118.2856   8.1186847018e+01   3.7576395590e+01    0.2366976    0.2008388  21.45 0.0007611898    1.263    0.208
        60  -9.4461    205.2107    110.3786   5.6187552051e+01   1.8429558688e+01    0.3360899    0.2318064  31.04  0.001231779    1.866    0.464
        61  -9.8597    115.2768    109.2040   7.6529882957e+01   3.8134346151e+01    0.3939699    0.2416782 -27.53  0.001547713    2.108    0.526
        62 -11.3064     32.5937    108.0065   1.0351091547e+02   5.0818891451e+01    0.4444195    0.3558509  36.51  0.002584824    1.422    0.297
        63 -11.5219    247.1853    107.7486   4.9151685471e+01   1.0745947536e+01    0.4420214    0.2579433 -32.26  0.002259745    1.650    0.394
        64 -13.3753     18.6147    218.8581   1.1969235352e+02   2.5196047086e+01    0.7594095    0.5827329 -28.92  0.004786802    2.060    0.514
        65 -10.9224    243.3411    103.4608   4.8768320379e+01   1.2151683674e+01    0.2749783    0.1454023 -42.20  0.001355259    1.588    0.370
        66  -9.3815     42.4190    103.8643   9.9209457685e+01   5.0873694357e+01    0.2196166    0.1849931  36.43 0.0005178288    1.336    0.252
        67  -9.6955    121.1576     99.1643   7.2106870054e+01   3.9130716104e+01    0.2138386    0.1894099 -84.48 0.0006127559    1.322    0.244
        68  -8.1550     60.2984     94.6877   9.0598707939e+01   5.0922310243e+01    0.1371554    0.1130337  77.59 0.0003304755    1.603    0.376
        69  -9.9807     36.1604    101.0653   1.0087200171e+02   5.2183287770e+01    0.2763483    0.1944968  39.98  0.001057075    1.637    0.389
        70  -9.4603     53.1198     91.4866   9.2409019682e+01   5.2598005244e+01    0.2288779    0.1954294 -73.93 0.0006506249    1.343    0.255
        71 -16.8327     15.0311    242.7413   1.2176629607e+02   2.0599714882e+01      6.65021     2.263399  23.98   0.02690249    4.633    0.784
        72  -9.0311    159.4838     83.0004   5.8068149590e+01   3.3705853406e+01    0.2245572    0.1465815 -38.92  0.000540552    1.537    0.349
        73  -8.2403    150.3550     82.6758   5.9989115547e+01   3.5892368733e+01    0.1584894    0.1185445 -81.00 0.0007046296    1.765    0.434
        74  -8.1048     69.3798     81.6765   8.3681372712e+01   5.2536706097e+01    0.1436556    0.1145505  73.47 0.0007022288    1.835    0.455
        75 -10.9980      1.9890     60.7388   1.0585741669e+02   6.3834746826e+01    0.4354231    0.1365266 -66.43  0.001790161    2.974    0.664
        76  -8.3485     51.7569     64.5215   8.5178154407e+01   5.8640302915e+01    0.1691899      0.12581  38.05 0.0005771517    1.522    0.343
        77 -10.4234     13.4397     59.9000   1.0048674609e+02   6.3376275151e+01     0.250502    0.1974095 -52.69 0.0004249212    1.177    0.150
        78 -12.8760    192.3458     49.4578   4.3386512686e+01   3.1385071342e+01     1.013039    0.7082772  44.95   0.00121531    1.687    0.407
        79 -10.3101    107.6197    203.8078   9.7831141656e+01   1.7063573113e+01    0.2750439    0.2027184 -83.87  0.001397204    1.630    0.387
        80  -9.8610    110.9061    203.1716   9.6946594709e+01   1.6681279782e+01    0.2186881    0.1803722  63.03 0.0005408805    1.259    0.206
        81 -10.2317    122.3226    198.7630   9.3508690323e+01   1.5790314281e+01    0.3801195    0.2662363 -75.87  0.001264708    1.827    0.453
        82  -8.5502     77.6768     57.7875   7.2890516767e+01   5.5882959743e+01    0.2999098   0.09974819  50.12 0.0008752057    4.719    0.788
        83  -8.2083    234.3062     45.3171   3.7471980755e+01   2.2783687915e+01    0.1101587   0.09860575  24.32 0.0004101582    1.629    0.386
        84  -8.7394    189.5309     14.9560   3.5215811449e+01   3.6295397229e+01    0.1721965    0.1203612 -35.77 0.0007662529    1.540    0.351
        85  -9.3350     59.9284    218.3902   1.1076030277e+02   2.0643380195e+01    0.2253323    0.1550592  78.59 0.0003578407    1.447    0.309
        86 -10.9727    192.8077    194.4121   7.6756783036e+01   4.6343994780e+00    0.8018269    0.4273034 -63.51  0.002518894    5.197    0.808
        87 -14.5321      9.4733    207.3970   1.2087956573e+02   2.8568824777e+01     1.057048     0.987815 -24.11  0.006196743    1.516    0.340
