#   1 NUMBER                 Running object number                                     
#   2 MAG_AUTO               Kron-like elliptical aperture magnitude                    [mag]
#   3 X_IMAGE                Object position along x                                    [pixel]
#   4 Y_IMAGE                Object position along y                                    [pixel]
#   5 X_WORLD                Barycenter position along world x axis                     [deg]
#   6 Y_WORLD                Barycenter position along world y axis                     [deg]
#   7 A_WORLD                Profile RMS along major axis (world units)                 [deg]
#   8 B_WORLD                Profile RMS along minor axis (world units)                 [deg]
#   9 THETA_WORLD            Position angle (CCW/world-x)                               [deg]
#  10 FWHM_WORLD             FWHM assuming a gaussian core                              [deg]
#  11 ELONGATION             A_IMAGE/B_IMAGE                                           
#  12 ELLIPTICITY            1 - B_IMAGE/A_IMAGE                                       
         1 -10.9087      1.8787     51.7559   1.1118312787e+02   6.4851386762e+01    0.6418903    0.1333167 -64.80  0.002307307    3.970    0.748
         2 -11.9165    208.2455     33.7863   4.5334314772e+01   2.9104183185e+01    0.9698513    0.7255111 -81.11  0.004702665    1.357    0.263
         3 -11.3883    214.5538     25.8216   4.2563360764e+01   2.8576974557e+01    0.7530476    0.4724365  51.23  0.001797766    1.762    0.433
         4 -10.9674      2.0638     24.3554   1.0318019614e+02   7.0260925302e+01    0.6677315    0.1513007 -58.53  0.002467562    4.337    0.769
         5 -11.9348    224.1742     15.6054   3.9095514457e+01   2.7508262549e+01    0.7460483    0.6362832 -63.07  0.002715601    1.050    0.048
         6 -10.1093      2.0067     10.5286   9.7789065711e+01   7.2685470561e+01    0.7672001          nan -48.68  0.002368339    6.234    0.840
         7 -10.2931    115.1318    243.7108   1.1000036019e+02   9.2365882175e+00    0.2917738    0.2131961 -79.15  0.001540104    1.645    0.392
         8  -7.7362    174.5183    249.9925   9.9575265124e+01  -8.4372624897e-01    0.1351449    0.1049856  87.88 0.0006237207    2.269    0.559
         9 -10.4192     85.6469    250.1494   1.1609600043e+02   1.2376278839e+01    0.6393858    0.1495536  37.09  0.002410643    3.954    0.747
        10 -10.8967     71.4270    249.0675   1.1855592527e+02   1.4464202960e+01    0.6406875    0.3493692  29.80   0.00358556    2.288    0.563
        11  -9.2166     62.0501    250.5536   1.2031962439e+02   1.5408131908e+01    0.2267497    0.1185731  46.78 0.0005488854    1.502    0.334
        12 -11.9734     31.8510    246.8834   1.2524252491e+02   1.9619856608e+01    0.8871792    0.6033458  44.77  0.006556797    1.411    0.291
        13  -8.4171     91.0000    239.9635   1.1417652049e+02   1.3402394503e+01    0.1673691   0.06564778 -64.03 0.0006174892    2.889    0.654
        14  -8.6697    135.3300    239.3060   1.0561758878e+02   6.8752224723e+00    0.1181597   0.09096912  11.75  0.000703791    1.658    0.397
        15  -9.5557     62.6879    237.7102   1.1923624220e+02   1.7620292001e+01    0.2896895    0.1603567  65.81  0.001198195    1.655    0.396
        16 -10.5998     39.8192    233.9682   1.2309070008e+02   2.1079724139e+01    0.3402135    0.1995811  65.62  0.001100749    1.385    0.278
        17 -11.0268    132.9737    231.3533   1.0507378812e+02   8.5812638400e+00    0.5675856    0.2479142  28.93  0.002319279    2.985    0.665
        18 -11.1560     89.4201    229.0901   1.1340123373e+02   1.5607540842e+01    0.4566506    0.2668487 -87.48   0.00161834    2.105    0.525
        19 -10.5579     83.6509    225.1858   1.1413557297e+02   1.7163375428e+01    0.4457788    0.3098143 -60.94  0.002770587    1.616    0.381
        20  -9.9658    107.5318    229.0924   1.0983966606e+02   1.2939795432e+01    0.3560863    0.1566148  31.21  0.001552586    2.674    0.626
        21 -13.4489     44.8577    198.4894   1.1942148146e+02   2.7613163401e+01     2.654911     1.039124  64.42   0.01038224    3.198    0.687
        22 -11.0239    126.5274    230.8997   1.0629262081e+02   9.6797204970e+00    0.4245422     0.333265 -49.76  0.002700532    1.521    0.342
        23 -10.0103    122.8144    225.7744   1.0638831440e+02   1.1174339641e+01    0.3128091      0.25639  59.53  0.001999277    1.141    0.124
        24  -9.0082    167.8291    226.3780   9.7468860967e+01   3.7429852499e+00    0.1867262    0.1048572  30.64 0.0006508202    1.676    0.403
        25  -9.7835     48.5307    215.9418   1.2016138839e+02   2.3561829909e+01    0.3337193     0.146378 -59.15  0.001372419    2.474    0.596
        26 -10.6720     47.1679    222.8325   1.2096071556e+02   2.2356670655e+01    0.4169903    0.2489309  66.43 0.0009521327    1.437    0.304
        27  -9.5294     44.4168    219.7821   1.2124866834e+02   2.3280854445e+01    0.2275309    0.1835203 -74.30 0.0005854441    1.351    0.260
        28  -9.4034     37.2494    223.7585   1.2287151993e+02   2.3320367178e+01    0.1924509    0.1540041  62.37 0.0007255586    1.144    0.126
        29  -8.9889     94.9083    222.0822   1.1156804489e+02   1.6137288927e+01    0.1986302    0.1807998 -80.83 0.0007793317    1.216    0.178
        30  -9.6497    114.6760    227.8197   1.0827100451e+02   1.2078001690e+01    0.3525484     0.127687 -50.09  0.001499643    3.308    0.698
        31 -12.0260     35.0308    208.7885   1.2222307111e+02   2.6561331079e+01    0.7533875     0.533008 -34.08  0.001184679    2.551    0.608
        32 -13.0468      5.1010    245.1744   1.2950444085e+02   2.2674966859e+01     1.281321    0.8524152  54.07  0.008762324    1.263    0.208
        33  -8.7071     27.7991    199.8847   1.2298274603e+02   2.9181879186e+01    0.1698694    0.1374545 -83.65 0.0008084209    1.197    0.165
        34 -12.4494      7.5184    229.2798   1.2842013933e+02   2.5336833604e+01     1.180837    0.4731683  62.97  0.006880256    2.014    0.504
        35  -7.6759    194.4935    190.9689   8.6060202855e+01   5.0294582597e+00    0.1763687    0.1232013 -66.09 0.0005649301    2.447    0.591
        36 -10.3234     62.1534    180.8041   1.1385615567e+02   2.9396848774e+01    0.4042859    0.3110049 -24.53  0.001584607    2.022    0.506
        37 -10.2186     67.4743    175.0398   1.1191759746e+02   3.0013926846e+01    0.3340953    0.2535587 -42.75 0.0009728615    1.639    0.390
        38 -12.9077      9.4062    207.3077   1.2697082194e+02   2.9440387189e+01    0.9558446    0.8478893 -88.50  0.004218212    1.345    0.257
        39  -9.3819    120.0574    242.5239   1.0893238524e+02   8.6937890432e+00    0.1750245    0.1583999  83.26  0.001248454    1.220    0.181
        40  -8.8558    102.9654    172.0367   1.0301799008e+02   2.5402709301e+01    0.2229413    0.2050904  77.09   0.00130152    1.018    0.017
        41 -10.0155     77.1182    165.0531   1.0821956539e+02   3.1003086263e+01    0.2756242    0.2473035 -66.58 0.0003964348    1.134    0.118
        42 -11.3825     83.5942    159.1328   1.0568775853e+02   3.1451749118e+01    0.7670144    0.6830199 -45.41  0.001593308    1.253    0.202
        43 -12.1382     68.6154    145.2173   1.0730249350e+02   3.6928223687e+01     1.214993     0.657213 -88.39  0.004758681    2.728    0.633
        44  -9.2801     93.0405    243.4819   1.1413158675e+02   1.2495431516e+01     0.183744   0.09684429  41.31  0.001031762    1.589    0.371
        45  -8.9508     98.5856    144.1650   9.9130366773e+01   3.2639013275e+01    0.2833516    0.2265985 -40.76  0.001005818    1.342    0.255
        46  -8.4066    101.5019    140.0113   9.7522717426e+01   3.3134652964e+01    0.3651228    0.1984734 -36.99  0.001426894    2.367    0.578
        47 -10.5943     86.4561    142.4836   1.0204451761e+02   3.5001919859e+01    0.3188675    0.2645571 -42.07  0.000599135    1.293    0.227
        48  -8.5387     81.2839    141.2661   1.0321352810e+02   3.6084501270e+01    0.3298769    0.1930699  60.62  0.001362062    2.151    0.535
        49 -11.7815     64.4187    161.1165   1.1079134504e+02   3.3669151338e+01    0.5150622    0.2793001 -47.28  0.001422087    2.100    0.524
        50  -9.2878    108.4403    131.8088   9.3902144243e+01   3.3857933563e+01    0.4478537    0.2423424  43.50  0.001304579    1.903    0.474
        51  -9.0071     96.8500    128.3074   9.6318407090e+01   3.6729405596e+01    0.2958868    0.2365924 -26.04  0.001419771    1.477    0.323
        52 -12.2728     23.6436    225.3192   1.2542747186e+02   2.4488290868e+01      1.18259    0.5292017  45.98   0.00516877    1.839    0.456
        53  -7.8427     67.3066    124.6771   1.0400538850e+02   4.2112494651e+01    0.1432521    0.1044762  78.70 0.0003982826    1.643    0.391
        54  -8.4865    106.6789    120.0836   9.1677161350e+01   3.6945449803e+01    0.2125337    0.1836905 -46.97 0.0003340734    1.112    0.101
        55  -7.7365    205.6734    110.3383   6.5787353683e+01   1.7529191134e+01    0.1555558    0.1169551 -68.95 0.0007051619    1.727    0.421
        56  -8.3367    244.3315    102.6883   5.7539986809e+01   1.0615679358e+01    0.1415356    0.1017246 -62.38 0.0005810132    1.674    0.403
        57  -8.3576     72.2391     83.1473   9.2625679680e+01   5.1227015067e+01    0.2637366    0.1819055  61.99  0.001225344    2.137    0.532
        58 -12.1975      4.5867    184.9387   1.2658468230e+02   3.4519571299e+01     1.275934    0.4190381 -81.25  0.003202006    2.557    0.609
        59 -11.1573    194.6440     47.5672   5.0893402159e+01   3.0584889575e+01    0.8322598    0.4911171  80.38  0.003619454    2.032    0.508
        60  -8.5082    137.7043     44.0365   6.0321350456e+01   4.5284584971e+01    0.2356632     0.199651  69.35 0.0004996323    1.260    0.206
        61 -11.7807    199.9930     38.9442   4.7767031474e+01   3.0445805258e+01     0.919115    0.5788018  70.43  0.003257587    1.583    0.368
        62 -10.7469    100.3891    247.2657   1.1313161121e+02   1.0798878072e+01    0.5017177    0.1926485  32.57  0.002173675    3.029    0.670
        63 -10.4992     82.2222    245.5465   1.1631698469e+02   1.3637481520e+01    0.3813229    0.2469251  35.39  0.002400038    1.574    0.365
        64  -8.6036    125.3096    246.3487   1.0836831928e+02   7.2685480041e+00    0.1126107   0.09024055   6.61 0.0007044661    1.711    0.415
        65  -9.7612     13.2180     59.9938   1.0846386101e+02   6.2493582341e+01    0.2394072    0.1553675 -55.71 0.0007050047    1.211    0.174
        66  -8.2123     63.4086    245.7942   1.1972944511e+02   1.6070699643e+01    0.1366778    0.0977954 -67.70 0.0005965739    1.600    0.375
        67 -14.0446      5.9316    143.7304   1.2324091271e+02   4.3630965743e+01     6.129208     1.314344 -79.21   0.01947852    4.852    0.794
