#   1 NUMBER                 Running object number                                     
#   2 MAG_AUTO               Kron-like elliptical aperture magnitude                    [mag]
#   3 X_IMAGE                Object position along x                                    [pixel]
#   4 Y_IMAGE                Object position along y                                    [pixel]
#   5 X_WORLD                Barycenter position along world x axis                     [deg]
#   6 Y_WORLD                Barycenter position along world y axis                     [deg]
#   7 A_WORLD                Profile RMS along major axis (world units)                 [deg]
#   8 B_WORLD                Profile RMS along minor axis (world units)                 [deg]
#   9 THETA_WORLD            Position angle (CCW/world-x)                               [deg]
#  10 FWHM_WORLD             FWHM assuming a gaussian core                              [deg]
#  11 ELONGATION             A_IMAGE/B_IMAGE                                           
#  12 ELLIPTICITY            1 - B_IMAGE/A_IMAGE                                       
         1 -10.3904    110.7726     25.5867   3.5049805158e+01   5.3633980983e+01    0.2625693    0.1529687   4.12   0.00112327    2.374    0.579
         2 -10.8033     14.2627     15.9959   6.7495452389e+01   6.9827708341e+01    0.2166801    0.1617534 -34.05 0.0006542277    1.155    0.134
         3 -11.8925     16.8244     20.6353   6.8100820774e+01   6.8862974740e+01    0.3713751    0.2789068  -7.68  0.001467547    1.223    0.183
         4 -11.4065      2.8630     20.8360   7.4906847022e+01   6.9770737229e+01    0.2743145    0.2504189  87.23  0.001753118    1.748    0.428
         5 -12.2365    125.2929     17.3629   2.8465418690e+01   5.1257272745e+01    0.3714594    0.2587332  -4.68 0.0002749332    1.611    0.379
         6 -12.1415    203.2643     11.8191   1.4306911637e+01   3.2341795885e+01    0.2491053    0.2374204  83.75 0.0002422419    1.108    0.097
         7 -10.4835    153.2626     12.7048   2.1446246304e+01   4.4890321955e+01    0.2195762     0.195696 -83.89 0.0002889743    1.204    0.169
         8 -11.4804     34.9008     12.3397   5.6086687218e+01   6.8383340941e+01    0.2831052    0.2195857  28.35   0.00175062    1.508    0.337
         9  -9.9623    185.0195     11.7878   1.6490206245e+01   3.6928009901e+01     0.199434     0.133442 -54.36 0.0004973715    1.596    0.373
        10 -10.7188    164.9801     11.3302   1.9148263263e+01   4.2064891360e+01    0.2571788    0.1771701 -50.04 0.0009707629    1.617    0.381
        11 -12.3105    125.7372     10.4031   2.5831492529e+01   5.1854133559e+01    0.4011034    0.3000235 -47.79  0.002198224    1.628    0.386
        12 -10.6793     23.8833      9.7194   6.0063476115e+01   6.9947251670e+01    0.2752532    0.2457332  84.29  0.001333749    2.466    0.595
        13 -10.0263    230.9526     10.6482   1.1225996412e+01   2.5781773039e+01    0.1792326    0.1445601 -89.65 0.0003888117    1.111    0.100
        14  -9.8771     64.5623     11.2657   4.3404503747e+01   6.4322693099e+01     0.295792    0.1123484 -25.98  0.001290848    2.648    0.622
        15  -9.5462     90.4673     10.7623   3.4713386990e+01   5.9601664183e+01    0.1802441    0.1151816  -2.38 0.0009470016    1.663    0.399
        16 -11.2125     43.1614      9.5268   5.1113393212e+01   6.7737864048e+01    0.3333925    0.2032562  40.39  0.001978644    1.929    0.482
        17 -10.8469      9.6425      9.7090   6.7198522561e+01   7.1180813566e+01    0.3331982    0.1951207  44.50    0.0018005    3.448    0.710
        18 -10.0674    176.8011      9.7742   1.6999117818e+01   3.9215004818e+01    0.1880718    0.1483568 -71.06 0.0004085489    1.335    0.251
        19  -9.6608     97.2869     10.2884   3.2599345476e+01   5.8246055511e+01    0.1868618    0.1482254 -65.59  0.001036009    1.923    0.480
        20 -11.7008     29.8727      7.8608   5.6325700184e+01   6.9581904088e+01    0.3523504    0.2301588  -3.48  0.002146257    1.375    0.273
        21 -10.6520     34.9829      4.1034   5.2125819468e+01   6.9482405020e+01    0.2226398    0.1442281 -34.43  0.001423719    1.581    0.367
        22  -9.4065      3.3342      9.3405   7.0321940478e+01   7.1672043139e+01     0.203574   0.08621728 -30.05  0.001138891    2.000    0.500
        23 -10.2329      2.9620      6.2802   6.9236218571e+01   7.2181389287e+01    0.1875841    0.1341782 -19.94 0.0004775825    1.093    0.085
        24  -9.8578     16.3136      8.3016   6.3171891237e+01   7.0860394558e+01    0.1761773    0.0880999 -36.58 0.0005336446    1.587    0.370
        25 -13.0003     20.3318      2.3028   5.8302680832e+01   7.1347002853e+01    0.2696049    0.1897919  -1.89 0.0009674197    1.182    0.154
        26  -9.7075    211.0167      7.0074   1.2257261755e+01   3.0931929007e+01    0.1612942    0.1347544  85.87 0.0003535012    1.061    0.057
        27  -9.8152     88.7366      6.8493   3.3547124347e+01   6.0346381845e+01    0.2045276    0.1382261   7.55  0.001023482    1.489    0.328
        28 -10.3379    247.1109      5.9640   8.8203775710e+00   2.2609507164e+01    0.1838235    0.1487869 -71.45  0.000363791    1.035    0.034
        29 -11.3289    148.4289      2.3779   1.8886882279e+01   4.7046422211e+01    0.2769633    0.2468916 -52.74 0.0003476101    1.268    0.211
        30 -11.3208    194.0079      4.7157   1.3474579873e+01   3.5365073680e+01     0.241732    0.2069161  64.54 0.0002631329    1.125    0.111
        31 -10.0109    151.4832      5.9301   1.9551012837e+01   4.5975030963e+01    0.1750337    0.1714438  30.70 0.0003541727    1.120    0.107
        32 -10.4258    104.5098      4.1784   2.8246829460e+01   5.7273618666e+01    0.2238263     0.167243  56.71 0.0004287508    1.302    0.232
        33 -10.3602     48.5289      4.0446   4.6205511646e+01   6.7667811583e+01    0.2159197    0.1553848  25.36 0.0008288436    1.272    0.214
        34 -10.1085    223.9653      3.7766   1.0248509002e+01   2.8149101121e+01    0.1667315   0.09470273  74.55 0.0002730709    1.603    0.376
        35  -9.2935     39.3000      3.6564   4.9958560775e+01   6.8990401706e+01    0.1006032   0.09001594 -35.31 0.0007036848    1.675    0.403
        36 -10.4840     13.3906      2.8228   6.2132800454e+01   7.1915871581e+01    0.2351823     0.162192  32.12  0.001636495    1.935    0.483
        37 -10.1478    138.1139      2.0281   2.0491913385e+01   4.9619303534e+01    0.1996474    0.1746206  49.50  0.000385871    1.022    0.021
        38 -12.4448     55.3828      9.8261   4.6218184028e+01   6.5956918800e+01    0.3908606    0.2300204  20.85  0.002192732    1.668    0.400
        39  -8.7577     90.4440      1.6223   3.0819737763e+01   6.0486523608e+01    0.1309302    0.1016796  29.62 6.423067e-05    1.078    0.072
        40  -9.3492     84.7320      1.3033   3.2290256383e+01   6.1667997559e+01    0.1680585   0.09506188  43.74 0.0004290979    1.510    0.338
        41 -10.6180     29.9755      1.3646   5.3095248466e+01   7.0430433113e+01    0.1693784   0.09643269  30.60 0.0004197082    1.780    0.438
        42  -9.7901      1.5240    132.5087   9.5956691124e+01   4.6462157809e+01    0.1154383   0.08763903 -79.09 0.0002813691    1.022    0.022
        43 -10.2351    109.9292    250.5741   8.5271550459e+01   9.7000743604e+00    0.1737998   0.09141867  43.01 0.0004104035    1.522    0.343
        44 -12.9684     18.2680    248.1461   1.0045231386e+02   2.1853804963e+01     1.220081    0.2052139  38.33   0.00531173    4.537    0.780
        45 -11.2883      2.0915    248.4360   1.0290296266e+02   2.3416623291e+01    0.3263081    0.2033084  70.73  0.001624792    1.083    0.077
        46 -12.3424     10.1247    245.6715   1.0158335384e+02   2.3101796291e+01    0.5357532    0.2322719 -68.08  0.002711689    2.401    0.583
        47 -12.8753      4.9412    241.7952   1.0220308805e+02   2.4271545219e+01    0.6189989    0.3587997  75.89  0.004737346    1.251    0.201
        48  -9.6277     22.0270    131.4588   9.0784076066e+01   4.5201801080e+01    0.1490503    0.1207236  30.42 0.0003880736    1.519    0.342
        49  -9.6215     52.9573    129.9868   8.2470915835e+01   4.2495320920e+01     0.158512     0.133819 -71.46 0.0004343951    1.029    0.028
        50 -10.0031     10.9237    128.3282   9.3228780002e+01   4.6759426642e+01    0.1595178    0.1355292 -75.43  0.001153326    1.110    0.099
        51 -10.4238    247.4974    127.0105   3.6637004461e+01   5.3361739182e+00    0.1993235    0.1067578 -52.30  0.000670769    2.509    0.601
        52  -9.7737     65.0091    125.2544   7.8366452436e+01   4.2123868099e+01     0.173518    0.1641588 -84.70 0.0001843767    1.074    0.069
        53  -9.7792    208.5026    123.4901   4.2674789719e+01   1.4123895479e+01    0.1492528    0.1429981 -11.19 0.0008105605    1.015    0.015
        54 -11.4453     11.0791    120.9972   9.2360081247e+01   4.8396320881e+01    0.3351255    0.2307463 -32.23 0.0008668694    1.842    0.457
        55 -11.0916     69.4518    115.4754   7.5215113533e+01   4.3816124188e+01    0.2914354    0.2662325  43.47  0.000542508    1.200    0.167
        56 -12.9453     23.4472    113.4332   8.8027358396e+01   4.9197829345e+01    0.2889591    0.2402434 -86.89 0.0004519409    1.147    0.128
        57  -9.9944     60.0480    114.5611   7.7749509554e+01   4.5247459141e+01    0.1794745    0.1329969  34.55 0.0003785086    1.512    0.339
        58 -11.1751      2.8110    111.8707   9.3486865185e+01   5.0963555385e+01    0.2272716    0.1529026 -84.21 0.0003260371    1.267    0.211
        59 -12.3183     13.7703    108.1066   8.9994867100e+01   5.1117870943e+01    0.5756855    0.1841146 -68.06  0.002559445    2.393    0.582
        60 -10.7728      6.9208    109.4393   9.2077844635e+01   5.1260551090e+01    0.3088829    0.1326669  86.94   0.00132106    3.207    0.688
        61 -10.1805     26.4394    107.2251   8.6234196565e+01   5.0373902482e+01    0.3123659    0.1072371 -69.39  0.001290659    2.618    0.618
        62 -10.9262      5.9650    103.9471   9.1644553761e+01   5.2544128575e+01    0.1792129    0.1360454 -66.52 0.0003716205    1.041    0.039
        63 -10.6171    247.5856    101.7493   3.0806020451e+01   9.3508264067e+00    0.2023895    0.1180944 -42.57 0.0009465407    1.600    0.375
        64 -11.7439     17.7498     95.3500   8.6914866198e+01   5.3713901544e+01    0.6033314    0.2696844 -75.89  0.002865483    2.254    0.556
        65 -11.2989     21.1100     92.4922   8.5393447947e+01   5.4114669733e+01    0.2749402    0.2002423 -73.15  0.000588168    1.233    0.189
        66  -9.9008    217.8792     98.4995   3.4778958221e+01   1.6390436675e+01    0.2116442    0.1467238  52.45   0.00051815    1.498    0.332
        67 -10.1109     56.1535     96.9194   7.5251990465e+01   4.9777375674e+01    0.1902377    0.1659729 -73.74  0.000276125    1.178    0.151
        68  -9.3724      4.6670     97.2942   9.1128594311e+01   5.4096745931e+01     0.112391   0.07784306  73.79   0.00038583    1.639    0.390
        69  -9.3289     74.6375     95.2042   6.9071624349e+01   4.7725340088e+01    0.1892323    0.1170388 -44.67 0.0002662626    1.492    0.330
        70 -10.1790     10.7613     93.9093   8.8817000335e+01   5.4491640827e+01    0.1836956    0.1234057 -54.95 0.0005952016    1.219    0.179
        71 -10.7891    125.2043     92.9936   5.3640063233e+01   3.9088614314e+01    0.2372562    0.2150552  38.33 0.0002785909    1.113    0.101
        72  -9.9237     92.0205     92.7251   6.3093154285e+01   4.5526263724e+01    0.1940586    0.1862871  -0.10 0.0002626269    1.071    0.066
        73 -12.4094     66.6379     91.5532   7.0678521983e+01   4.9658384238e+01      0.29047    0.2338829 -63.83 0.0002077088    1.255    0.203
        74 -13.7338     65.8106     81.8225   6.8438804574e+01   5.1904266521e+01    0.4460755    0.4170925  51.73  0.001524452    1.254    0.202
        75  -9.9108     43.9849     93.5047   7.8355101913e+01   5.1893391930e+01    0.1720569    0.1302201  23.10  0.000658908    1.553    0.356
        76 -10.6560    105.7773     91.9999   5.8813045481e+01   4.3204007202e+01     0.254263    0.2170124  50.54 0.0002835274    1.264    0.209
        77 -11.4676     57.5732     91.6952   7.3607270805e+01   5.0784622162e+01    0.2908342     0.213726 -18.62 0.0009374734    1.620    0.383
        78  -9.3202     28.6522     92.2378   8.2973749824e+01   5.3588150134e+01    0.1136332   0.08855321  68.41 0.0004847126    1.566    0.361
        79 -12.4411    159.8590     89.2709   4.3891253938e+01   3.1938156070e+01    0.5352151    0.3202276  34.26 0.0002338155    1.957    0.489
        80  -9.0864    142.2983     91.7368   4.8820514337e+01   3.5574984115e+01    0.1488724    0.1242535 -88.29 0.0002189317    1.512    0.339
        81 -10.2114      7.7268     90.1618   8.9170054362e+01   5.5501230703e+01    0.3030557    0.1195295 -68.20  0.001504476    1.975    0.494
        82  -8.8311    132.2924     90.2749   5.0970453577e+01   3.8110958804e+01    0.1513864    0.1203679   6.67 0.0006933985    1.521    0.342
        83  -9.8221     79.5093     89.0245   6.5953877360e+01   4.8362918283e+01     0.196478    0.1236776 -74.32 0.0008100393    2.521    0.603
        84  -9.6049     31.1891     87.2336   8.1180943775e+01   5.4494916951e+01    0.1482818    0.1292407 -82.84 0.0002679929    1.241    0.194
        85 -10.4040     17.5044     84.7676   8.5165691841e+01   5.6082856767e+01     0.199248    0.1524573 -52.85 0.0002965958    1.081    0.075
        86 -10.6856      7.6426     83.6963   8.8165391483e+01   5.6926032648e+01    0.2139532    0.1609217 -30.55  0.001101922    1.439    0.305
        87 -10.7234      8.8058     80.5830   8.7261231731e+01   5.7539611971e+01    0.2412677    0.1930181 -52.92  0.001108861    1.084    0.078
        88 -12.0518      5.1606     75.6057   8.7601481093e+01   5.8814607915e+01    0.7253941   0.09414224 -57.31  0.001568866    3.378    0.704
        89 -10.4501     47.9971     79.1964   7.3742895830e+01   5.4642715855e+01    0.2252127    0.1607397 -51.79 0.0005902973    1.201    0.167
        90  -9.6943     87.8392     77.5609   6.0077411335e+01   4.9451259355e+01    0.3494889    0.1469916 -35.38  0.001255227    2.766    0.639
        91 -10.2036     35.0902     77.2281   7.7698061545e+01   5.6353920679e+01    0.2792557    0.1291012 -52.07  0.001380553    1.717    0.417
        92 -10.0662     32.9676     73.0000   7.7442607304e+01   5.7454682564e+01    0.2402824      0.13026  46.34 0.0009173283    2.563    0.610
        93 -10.3272    176.8204     76.6440   3.6607042597e+01   3.0070342231e+01    0.3700396    0.2347893  54.37  0.001613266    1.558    0.358
        94 -10.3925     11.7909     76.8594   8.5597188696e+01   5.8173964234e+01    0.1801242    0.1264971 -48.58 0.0005619805    1.177    0.150
        95  -9.3556     74.8239     76.6128   6.4005478823e+01   5.1727132911e+01    0.1697286    0.1300653  46.23 0.0002618841    1.518    0.341
        96 -10.5056     54.0263     75.6415   7.0757004292e+01   5.4723272531e+01    0.3532177    0.2127867  28.48  0.001797922    1.870    0.465
        97  -9.3688     42.6996     76.6937   7.4940192015e+01   5.5740790453e+01    0.1324737   0.08399745 -32.56 0.0002023373    1.595    0.373
        98 -10.2500    140.7948     72.4249   4.3442609291e+01   3.9589063899e+01    0.3792723    0.2461998  29.38 0.0009206336    1.827    0.453
        99 -10.0919     45.3979     68.7171   7.1919258063e+01   5.7156651758e+01    0.3527888    0.1108005 -54.37  0.001371527    2.751    0.636
       100  -9.4254    105.7351     71.6840   5.2760183590e+01   4.7341872999e+01     0.195511    0.1333923  51.05 0.0007091033    1.626    0.385
       101  -9.3881    157.9767     70.2334   3.8731315644e+01   3.5842210603e+01    0.2015376    0.1267808  53.79 0.0004701509    1.566    0.361
       102 -12.9568     80.9165     67.2094   5.9132643113e+01   5.2683800906e+01    0.4161152    0.3441299  -6.17 0.0006284436    1.236    0.191
       103  -9.3059     39.3401     70.6620   7.4601328118e+01   5.7364367522e+01    0.1214604   0.09681509  81.02 0.0007050536    1.762    0.433
       104 -11.9372      8.0041     72.9660   8.6157099864e+01   5.9229593336e+01     0.434987    0.1718843 -42.42            0    2.237    0.553
       105 -11.8735    211.9505     67.3794   2.7760154421e+01   2.2884920079e+01    0.2588221    0.2429286 -63.75 0.0003198121    1.037    0.035
       106 -10.6599     14.7715     49.0361   7.8237840160e+01   6.3787854849e+01    0.3028716    0.1890964  47.15  0.001765013    2.444    0.591
       107 -12.0239     17.3427     64.0632   8.0979480457e+01   6.0552583345e+01    0.4702224    0.3366835 -13.17  0.003078257    1.562    0.360
       108 -13.5939     20.9611     58.5963   7.8302729026e+01   6.1435158138e+01    0.3861621    0.2565446 -48.60  0.000818235    1.173    0.148
       109  -9.0048    166.2817     64.6525   3.5264944031e+01   3.4717690657e+01    0.1563405    0.1176666 -66.93 0.0004727698    1.644    0.392
       110 -11.5935    128.3495     63.5255   4.3791576082e+01   4.4035513628e+01    0.2636351    0.2547937  13.34 0.0001782646    1.031    0.030
       111 -11.3354     51.3171     62.8028   6.8090670886e+01   5.7710670382e+01    0.4318144    0.2452643 -63.50  0.001282582    2.275    0.560
       112 -11.6983     11.7160     59.6985   8.2072632128e+01   6.1815101374e+01    0.2342868    0.1863565 -23.86 0.0002868606    1.284    0.221
       113 -10.9855      7.6096     63.1850   8.4358600959e+01   6.1322253494e+01    0.2971938   0.08257961 -53.57 0.0009071986    2.325    0.570
       114 -10.8410      4.6196     61.7722   8.5159954549e+01   6.1772602579e+01    0.2427967    0.1664064 -72.78  0.001480378    1.411    0.292
       115  -9.8406    119.9344     62.4875   4.5709464464e+01   4.6087012456e+01    0.2034222    0.1865438 -16.43 -1.189867e-05    1.067    0.063
       116 -10.3091     98.1079     60.9570   5.1567991450e+01   5.0829524274e+01     0.210242    0.1950931  -8.86 0.0003519904    1.027    0.026
       117  -9.7680     38.8713     59.8899   7.1852045554e+01   5.9644284923e+01    0.2016601    0.1467289 -29.49  0.001227917    1.251    0.200
       118 -11.3451     58.5109     58.9759   6.4289624190e+01   5.7581349960e+01    0.2537111     0.182226  25.64 0.0005692934    1.502    0.334
       119  -9.8808    229.1640     56.5059   2.2496174650e+01   2.0390623484e+01    0.2042267     0.175342 -42.51  0.000589193    1.115    0.103
       120  -9.4127    130.7091     57.2783   4.1132109568e+01   4.4553659680e+01    0.1409848    0.1190977 -77.85 0.0002756761    1.524    0.344
       121 -10.1237     71.7502     56.8806   5.8875513518e+01   5.6112680020e+01    0.2145104    0.1770998  71.72 0.0006437341    1.861    0.463
       122 -13.0290    114.7680     53.5425   4.4124175297e+01   4.8729588743e+01    0.3377301    0.3210886  13.73 0.0005263413    1.050    0.048
       123 -10.5314     98.4044     52.8740   4.8695097759e+01   5.2197667129e+01    0.4610162    0.2756703 -50.33  0.002065216    2.060    0.515
       124 -11.8133     86.0949     54.1800   5.3074463556e+01   5.4250715147e+01    0.3796222    0.2417056  24.69 0.0005303464    1.739    0.425
       125 -10.8619     81.2951     52.0886   5.3938990635e+01   5.5450369162e+01      0.37969    0.2541365  59.52  0.001296754    2.302    0.566
       126 -10.2685    225.3599     52.9626   2.2117380707e+01   2.1796094939e+01    0.2020415    0.1697216 -43.86 0.0004393885    1.138    0.122
       127  -9.1600    134.7039     52.6910   3.8611504860e+01   4.4359982177e+01    0.3466502    0.2793699 -18.17   0.00177561    1.300    0.231
       128 -10.2713    138.0958     50.4659   3.7053995319e+01   4.3899869066e+01    0.3301345    0.2225953  54.06  0.001176242    1.446    0.309
       129 -11.0789     66.4324     52.5542   5.9289615187e+01   5.7709227829e+01    0.3741726    0.1826456  31.36  0.001357881    2.221    0.550
       130 -11.4929     62.0034     49.9190   5.9990899856e+01   5.8824328532e+01    0.2462701    0.1897909 -31.22 0.0003468928    1.138    0.121
       131  -9.3818    148.6273     51.8191   3.5075822331e+01   4.1137379752e+01    0.1964916    0.1369673 -42.54 0.0003395563    1.524    0.344
       132 -11.7066    106.3225     50.2298   4.5383194228e+01   5.1053071470e+01    0.3469017     0.256986 -24.77 0.0002833777    1.343    0.256
       133 -10.9004    102.7351     47.3318   4.5409284792e+01   5.2255284079e+01    0.5337401    0.3071509 -17.96  0.001700436    2.142    0.533
       134  -9.3525     36.9887     52.2395   7.0307532546e+01   6.1352636217e+01    0.1512695    0.1019849  20.41 0.0008947066    1.656    0.396
       135 -10.1248      4.4757     51.5364   8.2969803621e+01   6.3878735177e+01    0.2131396   0.06367482 -52.76 0.0008077186    2.172    0.540
       136  -9.9291     53.8963     47.6188   6.2233657709e+01   6.0327247376e+01    0.2606653    0.1455003 -51.88  0.001296222    1.934    0.483
       137  -9.9956    156.2258     46.7079   3.1817953011e+01   4.0007558617e+01    0.3804333    0.1526468  53.04  0.001149004    2.272    0.560
       138  -9.7000     33.8469     55.1989   7.2415515187e+01   6.1066642084e+01    0.1795457   0.09319831   8.44 0.0008695024    2.587    0.613
       139 -10.6450     66.9550     45.3791   5.6557152788e+01   5.8917727075e+01    0.2795434    0.1965924  -7.27  0.001051329    1.520    0.342
       140 -10.9358     26.9925     43.9389   7.1747113996e+01   6.3866341566e+01    0.4245513    0.3125723  32.25  0.002773487    1.690    0.408
       141 -10.2195     16.8172     43.5761   7.5867775295e+01   6.4719335758e+01    0.2888634    0.2147788  75.91  0.001233917    2.389    0.581
       142 -10.2211     17.7581     39.9846   7.4392609181e+01   6.5339180919e+01    0.1932164    0.1081209 -30.45 0.0005313234    1.596    0.373
       143  -9.4680      2.2105     45.3827   8.2401485421e+01   6.5218134215e+01    0.1305576    0.1021325  22.58 0.0009479572    1.634    0.388
       144  -9.5008    117.5922     44.5164   4.0192866261e+01   4.9537388772e+01     0.225315    0.2062822 -13.10 2.125071e-05    1.093    0.085
       145 -10.0460    116.9810     41.2792   3.9202621710e+01   5.0152757291e+01    0.1997834    0.1934852  70.42 0.0002200007    1.203    0.169
       146 -10.4992     89.5843     42.9540   4.7880206320e+01   5.5512744616e+01    0.2644977    0.1957815  46.85  0.001422818    1.472    0.321
       147 -11.1855     37.0151     41.7544   6.6895202572e+01   6.3338490602e+01     0.480294    0.2367348  35.04  0.002343072    2.390    0.582
       148 -11.4143    183.4266     40.0452   2.4800519373e+01   3.4011928779e+01     0.530026    0.3310055  83.58  0.002323818    1.941    0.485
       149 -12.7751    141.7247     40.8322   3.3008182742e+01   4.4429623599e+01    0.2910636     0.280319  53.68 0.0005993752    1.068    0.064
       150  -8.7889    170.3030     41.6936   2.7542369833e+01   3.7144153326e+01    0.1488047     0.111233 -69.72 0.0007012226    1.600    0.375
       151 -10.5131    110.1906     40.4147   4.0743886563e+01   5.1762002008e+01    0.2430259    0.2209458 -52.48 0.0005348808    1.325    0.245
       152  -9.8485     57.9310     40.9084   5.8277593856e+01   6.0986865232e+01    0.1741019    0.1592941 -72.43 0.0004084057    1.617    0.382
       153 -11.0752     81.7439     38.5035   4.8777499318e+01   5.7636913035e+01    0.3020636    0.2615249  -3.73 0.0009772538    1.015    0.014
       154 -10.7720     51.6717     38.8275   5.9933714622e+01   6.2175267976e+01    0.2187167    0.1862756  24.82 0.0005166502    1.326    0.246
       155  -9.8708    191.8661     38.1446   2.2934749736e+01   3.2111734658e+01    0.2033452    0.1791688 -82.05  0.000255821    1.131    0.116
       156 -11.4890    121.5440     36.3951   3.6262700159e+01   4.9815443821e+01    0.4219697     0.313935 -34.46  0.002095769    1.420    0.296
       157  -9.8285    177.3094     35.9981   2.4621881705e+01   3.6107509805e+01    0.1890281    0.1778004 -38.88 0.0004204774    1.122    0.109
       158  -9.3396    102.7134     36.2631   4.1336049695e+01   5.3939833899e+01    0.1232159    0.1118115 -78.20   0.00068892    1.491    0.329
       159 -10.8425     14.9636     35.2993   7.4132925798e+01   6.6412921332e+01    0.2252364    0.1901204 -25.22  0.001479254    1.149    0.129
       160 -10.6448      2.9828     35.7171   7.9521404107e+01   6.7051103994e+01    0.1496784    0.1166282 -34.95 0.0003648343    1.095    0.087
       161 -11.3174     45.2080     32.6218   6.0179092600e+01   6.4030781790e+01    0.3033997    0.1759388 -43.53 0.0007941384    1.634    0.388
       162  -9.7680     49.6198     33.7395   5.8815296059e+01   6.3298158085e+01    0.1668169     0.107346 -45.19 0.0004116068    1.610    0.379
       163  -9.7837     28.0549     33.6013   6.7825523210e+01   6.5674886999e+01    0.1917218    0.1186886 -33.97 0.0005027062    1.302    0.232
       164  -9.7954      7.5253     34.5544   7.7182130372e+01   6.7023380909e+01    0.1993426     0.105507  14.46  0.001207266    2.180    0.541
       165 -11.5832    213.0134     31.9898   1.8375164243e+01   2.7599945398e+01    0.2355801    0.2171112 -62.75    0.0014127    1.061    0.057
       166 -12.4228    144.4227     31.0329   2.9147332604e+01   4.5056554773e+01    0.3173658    0.2777817 -39.18 0.0003793569    1.242    0.195
       167 -12.7248     11.1073     29.8912   7.4099898816e+01   6.7661803522e+01    0.2383322    0.2127706 -24.34 0.0006665901    1.250    0.200
       168 -11.6508     90.9987     26.7848   4.1165153766e+01   5.7601545143e+01    0.3585883    0.2144177 -21.94 0.0003053426    1.695    0.410
       169 -10.0022      1.3645     31.1746   7.8927008233e+01   6.7984564885e+01    0.1505378   0.08943859 -63.55 0.0004536653    1.699    0.411
       170  -9.9638     39.1599     30.0896   6.1726480157e+01   6.5155256152e+01    0.1876299    0.1317126 -17.15 0.0004638399    1.255    0.203
       171 -10.9642    135.7262     29.0877   3.0333519287e+01   4.7423242378e+01    0.2368178    0.1876356  48.96 0.0002958398    1.154    0.134
       172 -10.4249     68.0963     27.1441   4.9028558166e+01   6.1652054334e+01    0.2897299     0.233727  58.05  0.001704446    1.834    0.455
       173  -9.1818    162.0000     26.9757   2.4484150618e+01   4.1132606563e+01    0.2192462    0.0826305 -26.58 0.0007927839    2.876    0.652
       174  -9.5602    131.7168     26.0959   3.0171302713e+01   4.8748939845e+01     0.184872    0.1719583   2.34 0.0003795693    1.107    0.097
       175  -9.4440    230.1926    247.3796   6.3133037988e+01  -8.7212428614e+00     0.151927   0.09047098  39.56  0.000470549    1.516    0.340
       176 -10.9109     59.8144     24.1843   5.0892498099e+01   6.3370563726e+01    0.3420964    0.2144127 -44.79  0.001412026    1.940    0.485
       177  -9.9507     51.6752     24.7027   5.4326862703e+01   6.4459507082e+01     0.267825    0.1454602 -42.98  0.001401555    1.956    0.489
       178 -10.9141     33.1906     24.1734   6.1969031890e+01   6.6773747498e+01    0.2023093    0.1806802   2.77 0.0002814262    1.306    0.234
       179 -10.6995     31.8502     20.7041   6.1140437818e+01   6.7468214303e+01    0.2441055    0.1649352  -4.56  0.000954541    1.394    0.282
       180  -9.9301     25.7256     23.6212   6.5115508491e+01   6.7601896154e+01    0.3030461    0.1100153 -44.46  0.001468887    2.266    0.559
       181 -10.2400    131.3651    247.0663   8.1018800568e+01   6.9546397688e+00    0.1595575    0.1367552  55.78 0.0006194008    1.108    0.097
       182  -9.6556     21.5261     21.9711   6.6406173581e+01   6.8251307255e+01    0.2481942    0.1301523 -19.90  0.001076425    1.967    0.492
       183 -10.5068    115.8803    246.8235   8.3815966179e+01   9.3985389986e+00    0.1668507     0.144073  40.70  0.000672571    1.241    0.194
       184  -9.9882    100.8074     22.8518   3.6699853312e+01   5.6110222358e+01    0.1742686    0.1637808 -52.48 0.0006552863    1.354    0.261
       185 -10.6519     52.1895    244.6728   9.4799291441e+01   1.8609410635e+01    0.2083519    0.1634218  48.20  0.001524724    1.353    0.261
       186  -9.5467     84.2149     22.0711   4.1378314281e+01   5.9514818644e+01    0.1725733    0.1004249 -24.85  0.000868489    1.696    0.410
       187  -9.9137    189.9775    245.0000   6.9961805064e+01  -2.2008518259e+00    0.2116869   0.05582949  40.89 0.0008127177    3.014    0.668
       188  -9.3954     78.3251     21.2909   4.2985697125e+01   6.0701117730e+01    0.1358898   0.08837669  14.12 0.0002170671    1.614    0.381
       189 -11.5700    204.9207     18.6796   1.5903675816e+01   3.1184625367e+01    0.3696686    0.2859132  67.43  0.002089626    1.209    0.173
       190 -10.0015    163.4968     19.9762   2.2047127533e+01   4.1546042681e+01    0.2039776    0.1766005  60.50 0.0003491327    1.049    0.047
       191  -9.8233     80.6764     26.3578   4.4308167047e+01   5.9604532791e+01    0.1756357    0.1568759 -61.68 0.0005206092    1.634    0.388
       192 -10.6093     70.8579     18.6498   4.4427640261e+01   6.2351968451e+01    0.2290901    0.1765443  -4.37 0.0003648504    1.150    0.130
       193 -11.0325     25.7225     17.8438   6.2758314176e+01   6.8535172167e+01    0.2114512    0.1439062 -40.47 0.0007491141    1.393    0.282
       194 -10.7676    140.0260     17.9910   2.5613395452e+01   4.7642284534e+01    0.2427457    0.1786938  56.57   0.00129178    1.223    0.182
       195  -9.5171    134.8545     18.1625   2.6710937527e+01   4.8885980133e+01     0.189398    0.1447157  35.62 0.0003463771    1.249    0.200
       196 -10.2159     43.3203     18.3252   5.5061440406e+01   6.6501351944e+01    0.1274153    0.0784512  -6.77 0.0007046533    1.680    0.405
       197  -9.3067     37.6642     18.2988   5.7511702454e+01   6.7192951681e+01   0.09897643   0.09673174 -48.18 0.0004010299    1.655    0.396
       198  -9.7491    159.8341     15.8823   2.1368423485e+01   4.2910730920e+01    0.2097954    0.1714439  38.48 0.0004119493    1.234    0.190
       199 -10.4165    208.0439     12.8616   1.4046814613e+01   3.1048701127e+01    0.2125331    0.1620399 -68.32 0.0006686638    1.274    0.215
       200 -11.8240      2.9654    233.2058   1.0213545339e+02   2.5957319609e+01    0.3235245    0.1960762  43.81   0.00208037    1.629    0.386
       201  -9.9273    147.4742    243.5029   7.7617298845e+01   4.9239323565e+00    0.1230129   0.09785324  43.74 0.0002731905    1.006    0.006
       202  -9.0325    194.5001    242.5586   6.8778504026e+01  -2.6078380575e+00    0.1229828   0.09607227  31.03 0.0008076602    1.021    0.020
       203 -11.0697     27.1208    237.1862   9.8477868233e+01   2.2815952608e+01    0.1534104   0.08836317  67.31 0.0003473426    1.325    0.245
       204  -9.4477     59.0213    235.9939   9.3000656894e+01   1.9282253943e+01    0.1332627    0.1004114  68.23 0.0003515635    1.016    0.015
       205  -8.9350    204.2660    235.6468   6.5937714396e+01  -3.2776631151e+00    0.1072781   0.09436517  64.18   0.00034748    1.625    0.384
       206 -10.0750    174.2180    235.0205   7.1447525087e+01   1.7711241756e+00    0.1402209     0.103643 -40.57 0.0004074695    1.652    0.395
       207  -9.6944     54.0367    235.5274   9.3834350012e+01   1.9990983616e+01    0.1672598   0.05944317  56.27 0.0008092292    2.483    0.597
       208  -9.5411    152.6412    233.6848   7.5363317133e+01   5.5868244098e+00    0.1251239   0.09052789  15.76 0.0007043625    1.751    0.429
       209 -10.7994     31.4324    232.9411   9.7516291316e+01   2.3104661843e+01    0.3287535    0.1035002  43.19  0.001190114    2.487    0.598
       210  -9.9625    246.0049    230.4775   5.7638780788e+01  -9.1220318364e+00    0.2027773    0.1237961  36.13 0.0004434299    1.482    0.325
       211  -9.8247     56.9706    228.7363   9.2798572382e+01   2.0858128331e+01    0.1973263    0.1161668  83.91 0.0007549645    1.631    0.387
       212  -9.9878    140.1645    227.5606   7.6947299338e+01   8.6640281431e+00    0.2121382    0.1667736  73.61   0.00130784    1.450    0.310
       213 -10.6189      1.3837    227.2379   1.0211960347e+02   2.7169156000e+01    0.1644955   0.07467166 -79.02 0.0004078781    1.866    0.464
       214  -9.3621     85.8701     10.3306   3.5890111911e+01   6.0561667703e+01    0.1770485   0.09846982  39.44 0.0002694616    1.591    0.371
       215 -11.6857      3.4172    221.6401   1.0153362868e+02   2.8000802294e+01     0.492086    0.1646552  84.05  0.002430606    3.061    0.673
       216  -9.9861    223.4639    226.0305   6.0871404722e+01  -5.1177233505e+00    0.1675944   0.09489539  -5.82 0.0006766709    2.444    0.591
       217  -9.7726     18.9188    220.9241   9.8914819113e+01   2.6637460716e+01    0.2890993    0.1090276  70.79  0.001457846    2.706    0.630
       218 -10.5848      7.5596    221.4481   1.0084511564e+02   2.7650469371e+01    0.2024395   0.08040845 -79.67  0.001191568    2.130    0.531
       219  -9.3975    210.4431    215.5386   6.1481915347e+01  -1.5562684149e+00    0.1309172    0.1053798  18.65 0.0001324697    1.058    0.055
       220  -9.3291     85.6429    215.1450   8.6151187801e+01   1.9534503830e+01    0.1456843    0.1077519 -60.63 0.0001094675    1.531    0.347
       221  -9.8290    111.3273    214.6809   8.0986811132e+01   1.5690581402e+01    0.1338259   0.08613453  67.42 0.0004359219    1.682    0.405
       222 -10.1759      3.6612    211.3437   1.0098354761e+02   2.9901500391e+01    0.1726237   0.08272664  67.13  0.001091045    1.688    0.407
       223  -9.8433    229.9911    209.2135   5.6744525415e+01  -3.9513798924e+00    0.1630067    0.1433758 -46.40  0.001039624    1.609    0.378
       224 -10.3414     39.2542    207.1967   9.4351945354e+01   2.7106058662e+01    0.1667694    0.1386534  58.05 0.0004244835    1.240    0.193
       225 -10.8457      5.5586    207.0791   1.0043343480e+02   3.0545844021e+01    0.1564925   0.08075883 -85.39 0.0004451945    1.559    0.358
       226  -9.4176     21.9690    180.2112   9.5582601596e+01   3.4449668737e+01    0.1385553   0.08562099  39.25 0.0008726981    1.728    0.421
       227  -9.7657      4.9885    168.0094   9.8100374353e+01   3.8511722229e+01    0.1791095   0.09903973  68.60 0.0004705638    1.640    0.390
       228  -9.2162    229.4907    165.5019   4.8247250988e+01   2.6212533851e+00    0.1404264    0.1222288   3.02 -8.412761e-05    1.023    0.023
       229  -9.4547      3.7653    158.6364   9.7658900363e+01   4.0605337827e+01    0.1101005   0.06646335 -60.92 0.0002996328    1.591    0.372
       230 -10.4833      6.9308    147.7266   9.6074647173e+01   4.2738905161e+01    0.2352598    0.1354398 -85.31  0.001440325    1.412    0.292
       231 -10.4366     28.7807    139.8809   9.0103713604e+01   4.2698986297e+01    0.3519867    0.1280252 -67.01 0.0008565086    2.199    0.545
       232  -9.4451      1.6560    140.2167   9.6620792627e+01   4.4757323008e+01    0.1591997   0.07843879 -68.80 0.0003576956    1.570    0.363
       233  -9.5674    235.7351    138.0097   4.1101463000e+01   5.8780009156e+00    0.1872203    0.1154052 -33.42 0.0008864322    1.521    0.343
       234  -9.8371     21.4777    135.8729   9.1440662796e+01   4.4245607949e+01    0.1775016   0.09824914 -74.56 0.0003985905    1.481    0.325
       235 -10.0054     95.9549    134.0965   7.1682124471e+01   3.5471922941e+01     0.260947    0.1959656 -58.42 0.0009954992    1.279    0.218
