#   1 NUMBER                 Running object number                                     
#   2 MAG_AUTO               Kron-like elliptical aperture magnitude                    [mag]
#   3 X_IMAGE                Object position along x                                    [pixel]
#   4 Y_IMAGE                Object position along y                                    [pixel]
#   5 X_WORLD                Barycenter position along world x axis                     [deg]
#   6 Y_WORLD                Barycenter position along world y axis                     [deg]
#   7 A_WORLD                Profile RMS along major axis (world units)                 [deg]
#   8 B_WORLD                Profile RMS along minor axis (world units)                 [deg]
#   9 THETA_WORLD            Position angle (CCW/world-x)                               [deg]
#  10 FWHM_WORLD             FWHM assuming a gaussian core                              [deg]
#  11 ELONGATION             A_IMAGE/B_IMAGE                                           
#  12 ELLIPTICITY            1 - B_IMAGE/A_IMAGE                                       
         1 -12.8261     57.1715    131.3491   1.0727745915e+02   4.1887323440e+01     2.973742     0.840956 -71.68  0.005887236    9.887    0.899
         2 -13.1146    216.2665     29.9634   4.1964955091e+01   2.7760289887e+01    0.7611433     0.583419 -42.66  0.004280275    1.246    0.197
         3 -13.5180    223.0812     23.9501   3.9776374387e+01   2.6894857262e+01    0.8401363    0.7762737 -41.92  0.001355585    1.183    0.155
         4 -11.5941      2.2050      3.7113   9.3604182944e+01   7.3946591424e+01      0.57485    0.1602931 -48.37  0.002606565    3.175    0.685
         5 -13.3061    243.0936      5.1704   3.3820609572e+01   2.4527936020e+01    0.6851408    0.4835269 -71.46  0.002811709    1.221    0.181
         6 -11.4884    129.3317    236.5032   1.0549502799e+02   8.1884498002e+00    0.2454266    0.2096133   3.30  0.001185968    1.455    0.313
         7 -12.6078     73.1513    247.2408   1.1737533769e+02   1.4409748174e+01    0.6763417    0.3858087  73.75  0.003993403    1.858    0.462
         8 -14.4279    119.7932    248.8807   1.0880195498e+02   7.5679967001e+00     2.254128    0.7281948  41.14  0.009982452    2.427    0.588
         9 -12.8506     84.6496    248.2520   1.1534826530e+02   1.2697162048e+01    0.7464502    0.4075656  47.69  0.004458836    1.454    0.312
        10 -10.7186     51.7774    250.1265   1.2140602261e+02   1.6579492393e+01    0.2663857    0.1047188  51.09  0.001458855    1.969    0.492
        11 -15.9147      6.9216    239.0259   1.2840311488e+02   2.3403809058e+01     10.65397     4.641086 -81.77    0.0664673    2.005    0.501
        12 -15.3316     37.7658    195.3045   1.1995371465e+02   2.9022782955e+01     7.151523     2.431956  67.59   0.02196997    5.909    0.831
        13 -14.4423      9.9987    207.9744   1.2633560034e+02   2.9114014529e+01     1.554208     1.014836 -71.20    0.0049087    1.498    0.333
        14 -13.2929    152.4354    228.7487   9.9817263054e+01   5.8201019334e+00     1.330154    0.3389654  36.38  0.004481236    3.702    0.730
        15 -12.9370     23.5040    212.9065   1.2409749936e+02   2.6815009807e+01    0.4197709    0.3692151 -53.98  0.002425288    1.589    0.371
        16 -10.1958    193.2039    194.6149   8.5728543616e+01   4.6757036765e+00    0.2599279    0.1678413 -71.52 0.0009517526    4.157    0.759
        17 -11.5375     53.7709    183.7618   1.1534879385e+02   2.9755624261e+01    0.3501576    0.2596793 -36.21  0.001265453    1.900    0.474
        18 -11.5761     60.1463    177.4269   1.1315351675e+02   3.0420015469e+01    0.2824349    0.2515801 -52.25 0.0006958687    1.310    0.237
        19  -9.7488    231.2337    170.6377   7.3502002302e+01   1.9781947718e+00    0.1854961    0.1188029  28.14 0.0003796154    1.596    0.373
        20 -10.8477     71.2637    166.9406   1.0909150368e+02   3.1418239509e+01    0.2506732    0.2149396 -62.55 0.0003613961    1.169    0.145
        21 -13.0898     57.5275    163.6400   1.1205203489e+02   3.3980192948e+01    0.5226879    0.2912343 -46.99  0.001706916    2.055    0.513
        22 -12.3449     79.0184    159.7125   1.0604480150e+02   3.2052819021e+01    0.8419512    0.5481729  58.29  0.002404327    1.657    0.396
        23 -12.9978     67.8061    144.0943   1.0646571956e+02   3.7401465148e+01    0.8689151    0.5775526  78.18  0.003204672    1.838    0.456
        24 -11.2133     64.2802    240.6493   1.1847268386e+02   1.6739922575e+01    0.2216841    0.1654993 -87.71 0.0009453973    1.312    0.238
        25 -11.8349     22.6781    147.7148   1.1888739733e+02   4.1406121731e+01    0.2710183     0.237883  14.10  0.001494362    1.494    0.331
        26 -10.0360     94.3087    145.4669   9.9505231947e+01   3.3142866259e+01     0.293516    0.2712794 -44.28  0.000792442    1.126    0.112
        27  -9.4337     97.7235    141.8503   9.7864727898e+01   3.3453332470e+01     0.282286    0.2181078  -1.23 0.0008752876    1.773    0.436
        28 -11.9209     82.1630    143.8536   1.0250055942e+02   3.5431012271e+01     0.309396    0.2542474 -51.04 0.0004313045    1.199    0.166
        29 -10.7861     44.2486    144.6501   1.1291452471e+02   4.0085601729e+01    0.2589811    0.1488081 -81.94  0.001263061    1.737    0.424
        30  -8.5520    179.9732    148.0000   7.8764084267e+01   1.5967085814e+01    0.2394358    0.0860156  44.15 0.0006868838    2.805    0.644
        31 -10.5764     35.0927    139.6395   1.1469201035e+02   4.2230390442e+01    0.2383043    0.1576454 -82.38  0.001060415    1.375    0.273
        32 -10.6709    106.8004    132.0330   9.3275938008e+01   3.4238894951e+01     0.408904    0.3899231 -83.57  0.001491912    1.068    0.063
        33 -10.3838     93.8769    129.4299   9.6332122108e+01   3.7100011600e+01     0.272092    0.2536872 -29.30 0.0004549903    1.131    0.116
        34  -9.4035    104.9783    120.9159   9.1200392640e+01   3.7215118027e+01    0.2223516    0.2083328 -41.94 0.0003147288    1.034    0.033
        35 -14.5184     31.7836    204.4701   1.2190758967e+02   2.7703931883e+01     1.459028     1.005879  89.71   0.00712141    1.223    0.182
        36 -11.3605     27.4883    112.2321   1.1292403209e+02   4.9572733944e+01    0.4075673     0.220943  69.89  0.001827995    2.681    0.627
        37 -10.9974     22.8065    111.3988   1.1422820215e+02   5.0142241684e+01    0.2221974    0.1702572   3.51  0.001360174    1.675    0.403
        38  -8.9374    167.7990    113.1961   7.2870276866e+01   2.5727342320e+01    0.2572661    0.1733517 -80.13 0.0009323094    2.726    0.633
        39  -9.3822    204.4940    110.9669   6.4676086893e+01   1.7831580296e+01    0.3376206    0.1817393  32.98  0.001279926    2.474    0.596
        40 -10.3913     52.7671     89.6307   1.0004046378e+02   5.2515097469e+01    0.2625157     0.227817 -33.32 0.0007510199    1.101    0.092
        41 -11.7672     33.4809    156.6104   1.1716203721e+02   3.8303441736e+01    0.3524632    0.2183483  80.45   0.00190716    1.618    0.382
        42  -8.6792     63.3047     83.6461   9.4768961605e+01   5.2570594092e+01    0.1373711    0.1107451  88.25 0.0007040821    1.712    0.416
        43 -10.3426     58.8668     78.6034   9.4937146956e+01   5.4283942397e+01    0.3483039    0.1208691 -42.01   0.00125177    2.772    0.639
        44  -9.7007     13.4003     60.2088   1.0770337024e+02   6.2603121168e+01     0.167666    0.1025035 -68.59 0.0006452337    1.613    0.380
        45 -11.0734      1.9902     47.7718   1.0949542787e+02   6.5836919120e+01     0.375298    0.1071113 -62.64  0.001607961    2.759    0.638
        46 -12.7344    206.3883     39.0324   4.5465474915e+01   2.8967529375e+01     0.961594    0.6882077  24.49  0.004783974    1.965    0.491
        47 -13.0762     96.7917    248.1613   1.1307852637e+02   1.1028553512e+01    0.9573315    0.4916161  37.80  0.005339587    1.697    0.411
        48 -11.9476     57.8966    240.7377   1.1965012258e+02   1.7523846197e+01    0.4035368    0.1618619 -74.20  0.002071444    2.663    0.625
        49  -9.6462    189.4283     15.2440   4.1177980835e+01   3.5928728640e+01    0.1849757    0.1153238 -43.04 0.0009185019    1.599    0.375
        50 -12.9457    133.0213    247.2959   1.0608775627e+02   5.8339414759e+00    0.6902624    0.3748057  37.16  0.003818309    1.535    0.349
