#   1 NUMBER                 Running object number                                     
#   2 MAG_AUTO               Kron-like elliptical aperture magnitude                    [mag]
#   3 X_IMAGE                Object position along x                                    [pixel]
#   4 Y_IMAGE                Object position along y                                    [pixel]
#   5 X_WORLD                Barycenter position along world x axis                     [deg]
#   6 Y_WORLD                Barycenter position along world y axis                     [deg]
#   7 A_WORLD                Profile RMS along major axis (world units)                 [deg]
#   8 B_WORLD                Profile RMS along minor axis (world units)                 [deg]
#   9 THETA_WORLD            Position angle (CCW/world-x)                               [deg]
#  10 FWHM_WORLD             FWHM assuming a gaussian core                              [deg]
#  11 ELONGATION             A_IMAGE/B_IMAGE                                           
#  12 ELLIPTICITY            1 - B_IMAGE/A_IMAGE                                       
         1 -15.0572     12.3476    159.4571   1.4655144565e+02   4.0340157979e+01     5.585341     1.706983 -84.88   0.02247032    3.771    0.735
         2 -13.5952    190.7035     27.3593   7.2800314175e+01   3.3709059573e+01     1.383136      1.26145  53.58  0.006064609    1.091    0.083
         3 -13.8460    205.2477      8.5286   6.5626467206e+01   3.2004409077e+01     1.694547     1.042553  46.66  0.008397743    1.745    0.427
         4 -13.3010      2.9899      8.0029   1.2032633139e+02   7.2197326862e+01     1.331745    0.5307787 -50.34  0.007317306    2.120    0.528
         5  -9.7515    170.7615    247.0041   1.2624046752e+02   2.9541777501e+00    0.1205068   0.09799121 -41.56 0.0006071161    1.589    0.371
         6 -10.7863    248.7960    249.1053   1.1378554734e+02  -9.1055675153e+00    0.2168488    0.1593059  39.47  0.001598011    1.472    0.321
         7 -10.7105    138.5919    249.7863   1.3197301289e+02   7.5837907608e+00    0.1909721    0.1337757  62.18  0.001310495    1.400    0.286
         8  -9.5602    126.5342    250.4697   1.3405347877e+02   9.3062275168e+00    0.1114999   0.08504353  51.55 0.0001536811    1.009    0.009
         9 -10.4352     98.8050    249.4290   1.3852221036e+02   1.3471684219e+01     0.179662    0.1411514 -89.34  0.001032698    1.349    0.259
        10  -8.9440     67.4840    250.5519   1.4362645176e+02   1.7466293454e+01    0.1056267   0.07408673  63.49 0.0001010352    1.034    0.033
        11 -10.5409     33.6914    247.6611   1.4862975179e+02   2.1896264875e+01    0.4277242    0.1719976  66.86  0.002597858    2.200    0.545
        12 -10.6134     35.9938    243.9916   1.4808045456e+02   2.2230635988e+01    0.3299964    0.2085049  34.43  0.002255951    2.055    0.513
        13 -10.6121     28.0343    248.7336   1.4952666397e+02   2.2336312312e+01    0.3269871    0.1400062  58.42  0.002207428    1.711    0.416
        14 -10.9547      2.4699    248.5711   1.5319888707e+02   2.4920979761e+01    0.4153416    0.2077538  62.49   0.00325523    1.370    0.270
        15 -10.9068      2.3445    240.1805   1.5289210684e+02   2.6270763640e+01    0.4017178    0.1412588 -86.88  0.002478974    2.496    0.599
        16  -9.7853    198.6567    246.3229   1.2147931240e+02  -1.3429194088e+00    0.1072204   0.08119644  59.98  0.000705047    1.731    0.422
        17  -9.1073     47.4593    249.5086   1.4665437812e+02   2.0052316747e+01    0.1024067   0.07059696  66.54 0.0001372567    1.021    0.021
        18 -10.1175     12.9799    241.1094   1.5138201640e+02   2.5101771521e+01    0.1986633     0.128376  84.00  0.001396536    1.215    0.177
        19  -9.2195     57.2203    240.5569   1.4455082972e+02   2.0324097965e+01    0.1304595   0.08782922  40.72 0.0006900719    1.597    0.374
        20 -14.0868      8.4547    206.8219   1.5040492223e+02   3.1439825228e+01     7.837811          nan  41.36  0.005319022    5.821    0.828
        21 -12.4881      2.2620    181.5476   1.5004261593e+02   3.6744923596e+01     1.146367    0.4056294 -72.14 0.0006170957    2.249    0.555
        22  -9.8601    152.8211    249.1654   1.2951987017e+02   5.4797336940e+00    0.1483899    0.1161424  29.70 0.0004228079    1.309    0.236
        23 -10.5827    145.7282    230.0218   1.2842133934e+02   9.2857161869e+00    0.2264508    0.1347539  34.08  0.001297362    1.658    0.397
        24 -10.7883      6.4299    227.5027   1.5174801127e+02   2.7990794515e+01    0.3142648    0.2835346 -26.84  0.002729784    2.210    0.547
        25 -14.2477     46.3411    227.9380   1.4544309203e+02   2.3730209128e+01      2.87579    0.4899973  39.79  0.005597941    4.555    0.780
        26  -8.9503    152.5068    213.0197   1.2489795028e+02   1.0760328754e+01    0.1520519    0.1247698 -52.44 0.0003110642    1.443    0.307
        27  -9.1095     33.0112    207.5294   1.4628097082e+02   2.8863762972e+01    0.1558468    0.1096724  82.81 0.0003155282    1.114    0.102
        28 -12.0420     22.1595    201.0023   1.4772835004e+02   3.1202662696e+01    0.3571035    0.1592268  56.51  0.001549079    1.882    0.469
        29 -11.2044     14.6481    197.7526   1.4883083588e+02   3.2541959172e+01    0.2988097    0.2047603  56.87  0.001702199    1.298    0.230
        30 -11.6010     65.3333    200.1430   1.3981047336e+02   2.6434600328e+01    0.2924114    0.2104496 -52.32 0.0006680139    1.789    0.441
        31 -10.4521    195.1784    199.2125   1.1477759974e+02   5.3403933035e+00    0.3967091    0.2232785 -59.40  0.001678693    3.558    0.719
        32  -8.5178     51.4726    197.4120   1.4215346728e+02   2.8679212176e+01    0.1155127   0.08637328  73.18 0.0002009779    1.069    0.065
        33  -9.6079     43.6987    192.6314   1.4319055287e+02   3.0510030339e+01        0.264    0.2156494 -29.93  0.000854492    2.120    0.528
        34 -11.8928     71.0437    191.9895   1.3787809946e+02   2.7255482392e+01    0.2416687    0.2049074 -69.96 0.0004511802    1.295    0.228
        35 -13.3471     67.6950    177.0276   1.3686449167e+02   3.0694344672e+01    0.4599497    0.2667488 -46.16  0.002010388    2.320    0.569
        36  -8.5773    103.9692    180.0529   1.2970498982e+02   2.4783788485e+01    0.1949834    0.1343357  72.07 0.0003011153    1.565    0.361
        37 -10.9278     80.5275    179.0069   1.3444589676e+02   2.8533344887e+01    0.2194556    0.1907071 -89.39 0.0004435447    1.081    0.075
        38 -11.8845     87.8376    169.2844   1.3158777497e+02   2.9464239580e+01    0.6016172    0.5476975  64.99  0.003976019    1.119    0.106
        39  -8.6842    250.7217    171.6761   9.9792090022e+01  -7.8789692177e-01    0.1321088   0.08692293   6.77 0.0002419749    1.587    0.370
        40  -9.2100    192.7748    156.3523   1.0695241895e+02   1.2565515123e+01    0.3173467    0.2098109 -84.08  0.001136248    3.919    0.745
        41 -10.1151     99.5721    153.0424   1.2641965528e+02   3.1060003955e+01    0.2898912    0.2406256 -58.44 0.0008293583    1.207    0.171
        42  -9.3678    102.3265    148.9571   1.2506541352e+02   3.1481473132e+01    0.2000881     0.179778 -31.98 0.0003959453    1.333    0.250
        43 -12.0777     88.3066    152.6043   1.2894290296e+02   3.2926459935e+01    0.2662373    0.2314733 -48.75 0.0004603862    1.289    0.224
        44 -12.6713     67.1438    143.9778   1.3254418466e+02   3.7821898986e+01    0.6891123    0.4663297  78.61   0.00379237    1.624    0.384
        45 -13.4385     54.3329    215.3181   1.4315035853e+02   2.5001343968e+01     3.053149    0.7487997  46.63   0.01390222    3.089    0.676
        46  -9.7213    155.6459    228.7032   1.2648956064e+02   7.8642008636e+00    0.1180015   0.08474504  20.78 0.0007034339    1.693    0.409
        47 -10.0819    177.4523    227.0905   1.2240130705e+02   4.4818401126e+00    0.2111098     0.166322 -88.46  0.001311929    1.982    0.495
        48  -9.9008    110.5612    137.8378   1.2100159228e+02   3.2462232301e+01    0.3470899    0.2368993 -25.26  0.001586008    2.185    0.542
        49 -11.8185     56.5489    128.2688   1.3266996168e+02   4.2661252661e+01    0.6849831    0.2974901 -65.88  0.003113057    2.096    0.523
        50 -10.5830    173.1135    221.8693   1.2241669505e+02   5.9344395625e+00    0.3003023    0.2169613  52.93  0.001093643    1.351    0.260
        51 -10.6915     98.0409    135.1876   1.2351486966e+02   3.5178205525e+01    0.2539097    0.2277942 -32.54 0.0005068632    1.287    0.223
        52 -10.7407     33.2824    132.6784   1.3910317508e+02   4.4201702307e+01    0.2170337    0.1565746  85.95 0.0007217158    1.281    0.219
        53  -8.4205    116.3202    130.3249   1.1803901452e+02   3.3037960030e+01    0.1426258     0.114623 -11.20 0.0003080788    1.679    0.404
        54  -9.4854    107.6014    124.3238   1.1888521740e+02   3.5915674901e+01    0.1984861     0.185853  37.36 0.0003732087    1.148    0.129
        55 -12.8015     40.1208    235.1528   1.4691788538e+02   2.3220456949e+01    0.2768413    0.2094779 -74.12 0.0007831564    1.514    0.339
        56  -9.7998     86.8398    136.7277   1.2655626160e+02   3.6620698822e+01    0.2366152    0.1839783  76.07 0.0005776177    1.377    0.274
        57 -10.4848    168.0636    113.1799   1.0188581749e+02   2.5745551967e+01    0.3369486    0.2814296 -81.53 0.0007536942    1.501    0.334
        58  -9.6107    203.2160    111.7802   9.4473883014e+01   1.7936526874e+01    0.2128691    0.1724657   7.57 0.0007260899    1.366    0.268
        59 -11.1955    241.7795     83.7685   8.1032025345e+01   1.3600899169e+01    0.2711222    0.2189999  12.34  0.001455965    1.407    0.289
        60 -11.6118     10.0974     64.0580   1.3452753432e+02   6.1094510127e+01    0.6331737    0.2175484  31.02  0.003110403    3.446    0.710
        61 -10.5194      2.1818     61.2018   1.3671235609e+02   6.2149430497e+01    0.2295033    0.1367826 -69.05 0.0009185518    1.390    0.281
        62  -9.8778     29.8999     61.2566   1.2683823049e+02   6.0187964625e+01     0.223158     0.177472  42.96 0.0005995151    1.605    0.377
        63 -11.1462      2.7248     38.2737   1.3107387393e+02   6.6756115538e+01    0.2563053    0.1357102 -62.70  0.001538239    1.625    0.385
        64 -10.1652     81.6476    248.8375   1.4125108754e+02   1.5900514475e+01    0.2173029     0.119222  67.69  0.001089472    1.718    0.418
        65  -9.5281    161.6673    248.3278   1.2793450892e+02   4.2118139904e+00    0.1123731   0.07670593  63.40 0.0007051661    1.716    0.417
