#   1 NUMBER                 Running object number                                     
#   2 MAG_AUTO               Kron-like elliptical aperture magnitude                    [mag]
#   3 X_IMAGE                Object position along x                                    [pixel]
#   4 Y_IMAGE                Object position along y                                    [pixel]
#   5 X_WORLD                Barycenter position along world x axis                     [deg]
#   6 Y_WORLD                Barycenter position along world y axis                     [deg]
#   7 A_WORLD                Profile RMS along major axis (world units)                 [deg]
#   8 B_WORLD                Profile RMS along minor axis (world units)                 [deg]
#   9 THETA_WORLD            Position angle (CCW/world-x)                               [deg]
#  10 FWHM_WORLD             FWHM assuming a gaussian core                              [deg]
#  11 ELONGATION             A_IMAGE/B_IMAGE                                           
#  12 ELLIPTICITY            1 - B_IMAGE/A_IMAGE                                       
         1 -15.3637    236.3282    149.1533   7.3971179571e+01   3.8875112787e+00      17.3589     9.204709 -45.75   0.04910211    2.143    0.533
         2 -13.2443    219.8259     76.8900   5.9087695783e+01   1.9465981639e+01     3.344676    0.8529171 -47.26  0.008274064    5.405    0.815
         3 -13.0587    230.4224     74.0101   5.6781867077e+01   1.7412246262e+01     2.957298    0.9592907 -53.00  0.006942428    6.661    0.850
         4 -14.1922    239.3100     26.9184   4.3927865747e+01   2.1933046257e+01     1.793384    0.7080083 -30.96  0.006012853    2.397    0.583
         5 -14.2943    219.1369     28.2837   4.6339088997e+01   2.6624990439e+01     3.145968     1.658473 -27.75   0.01424424    1.971    0.493
         6 -15.2984    244.6459     49.8948   4.8957603461e+01   1.7677811275e+01     2.024444       1.1747  53.45  0.007091206    1.925    0.481
         7 -10.0024    188.2976     45.1781   5.5155240263e+01   3.2263538841e+01    0.8559175    0.2254181 -36.97  0.002670655    3.338    0.700
         8 -11.5916    201.5070     18.3859   4.5665067051e+01   3.2241456916e+01     1.878523    0.5317844 -33.59  0.006697289    3.082    0.676
         9 -11.3572    133.6967     19.8213   5.6548078089e+01   4.9571417273e+01    0.5237936    0.4599951   4.26  0.002868087    1.188    0.158
        10 -10.6842    125.8903     14.9322   5.6322306649e+01   5.2008352293e+01    0.4952134    0.3386431  74.97  0.002477695    1.649    0.394
        11 -11.6827    118.8697      9.8054   5.5814949161e+01   5.4203574522e+01    0.7280005    0.6270431  53.62  0.003148173    1.099    0.090
        12 -11.1790    142.2009     12.1755   5.2160145237e+01   4.8236583906e+01    0.9105434    0.4341727 -13.81  0.003495354    2.572    0.611
        13  -9.3112    136.2090      8.6042   5.1941560635e+01   5.0083869045e+01     0.258849    0.2297617  -7.65 0.0002694945    1.212    0.175
        14  -9.9356    156.4869     10.6550   4.9285386482e+01   4.4729154065e+01    0.4709577    0.2741815  -7.05  0.002129409    2.183    0.542
        15  -8.4300    206.4775     10.0462   4.2860526671e+01   3.1887384516e+01    0.3162711    0.1642785  82.88  0.001071488    1.941    0.485
        16  -8.3741    181.8263      5.9730   4.4407466326e+01   3.8608273296e+01    0.3122387    0.1652617  40.02   0.00135652    2.288    0.563
        17 -14.7515    248.0378     21.3641   4.1827631475e+01   2.0597929561e+01     2.686688    0.7559164 -47.14    0.0100038    3.059    0.673
        18 -10.6775     44.9233    153.4514   1.1765653389e+02   3.8343285936e+01    0.3282008    0.2998921 -43.25   0.00092917    1.427    0.299
        19 -12.0897     53.1965    149.2402   1.1511428244e+02   3.8350145907e+01     1.039369    0.7597278 -53.66  0.006085508    1.455    0.313
        20 -11.2769     59.7464    146.3258   1.1307914928e+02   3.8215852762e+01    0.6175009    0.3814423 -86.86   0.00143688    1.677    0.404
        21  -9.7610    133.4323    144.2138   9.4258409832e+01   2.6390673017e+01     0.289236    0.1511559 -55.50   0.00114979    2.043    0.511
        22  -9.7111    142.1634    146.1723   9.2600637575e+01   2.4182976242e+01    0.4010185    0.2044828  34.60   0.00151898    2.318    0.569
        23  -7.3745    157.9598    193.0000   9.8102499251e+01   1.1665602046e+01    0.2255433   0.07112038  42.87  0.000354006    2.837    0.647
        24  -8.1044    150.0120    147.0469   9.0961162483e+01   2.2364110082e+01    0.2459015    0.1871571  89.09  0.001127696    1.738    0.425
        25 -10.9214    136.1096    127.2417   8.9754067780e+01   2.9592505075e+01    0.7277719    0.2633504 -50.02   0.00236873    2.853    0.649
        26  -9.1016    161.0436    128.7174   8.4174458907e+01   2.3824885153e+01    0.3074852    0.2652174 -64.75   0.00153448    1.256    0.204
        27  -7.4910     95.6912    128.6768   1.0054937325e+02   3.7041736750e+01     0.144154    0.1140269 -24.71 0.0007036399    1.649    0.393
        28  -9.2721    162.6150    120.6468   8.1802427812e+01   2.5142009648e+01    0.2827855    0.2577195 -72.65 0.0004152468    1.179    0.152
        29  -8.0864    168.4103    114.1929   7.8830844832e+01   2.5116806358e+01    0.2277972    0.1452015 -51.44 0.0009426157    1.679    0.405
        30  -9.2310    154.9767    113.0987   8.1615885275e+01   2.8465352825e+01    0.2494259    0.2282602 -24.12            0    1.142    0.125
        31 -10.9648    126.9336    111.8910   8.8259025447e+01   3.4935476056e+01    0.5054762    0.4149244  29.41  0.002482466    1.359    0.264
        32 -12.3085    124.0257    103.6832   8.6845718900e+01   3.7360081396e+01    0.9041741    0.6957834  82.88  0.004141537    1.700    0.412
        33  -9.0772    211.3913    109.0436   6.8849932972e+01   1.5992450234e+01    0.2281281    0.2101075  59.95  0.000209505    1.161    0.139
        34 -10.0252    141.4976    107.2081   8.3302666511e+01   3.2780946071e+01    0.3347906    0.2893669 -85.43  0.001642984    1.320    0.243
        35 -10.1055    118.1487    109.5043   8.9967608180e+01   3.7282537203e+01    0.2814474    0.2089137 -48.55 0.0005574077    1.303    0.232
        36 -10.7340    155.7913     99.7449   7.7793577275e+01   3.1024123815e+01    0.5886341    0.3590544  41.24   0.00180895    1.736    0.424
        37  -9.9399    170.2711     92.9615   7.2624933552e+01   2.8856883126e+01    0.6775055    0.5569376  23.70  0.003227559    1.397    0.284
        38  -9.1195      1.9780    182.0426   1.2936145849e+02   3.6239484478e+01    0.1693962    0.1213632  83.98 0.0004608725    1.024    0.023
        39 -10.1045    146.8491    104.0009   8.1110272315e+01   3.2240177094e+01    0.3459504    0.2980128 -24.49 0.0007040639    1.243    0.195
        40 -10.4956    153.9803     90.9569   7.5706123820e+01   3.3214457461e+01    0.3624308    0.3152488 -24.61 0.0005830527    1.201    0.168
        41  -8.7255    157.2698     86.7247   7.3704837299e+01   3.3241963890e+01    0.2145835    0.1475235 -28.70 0.0009175283    1.564    0.361
        42  -9.3228    178.0394     89.2184   6.9930367861e+01   2.7641809366e+01    0.2653649    0.2208734 -43.09 0.0003336943    1.182    0.154
        43  -9.2308    100.0012     90.1085   8.9804455202e+01   4.5143342374e+01    0.2168069       0.2065 -53.74  0.000280429    1.039    0.037
        44  -8.2737    250.2012     86.4335   5.7135476999e+01   1.1054085223e+01    0.2179046     0.179594 -17.22  0.001212567    1.266    0.210
        45  -9.6486    186.7680     84.9838   6.6997576583e+01   2.6236594025e+01    0.4436593    0.2338302  45.31  0.001461308    2.013    0.503
        46  -9.1459    191.6388     82.7484   6.5447362103e+01   2.5414433151e+01    0.2992694    0.2144044  34.67 0.0009452238    1.620    0.383
        47  -9.1030    179.9408     84.0049   6.8059194929e+01   2.8121032252e+01    0.2862511    0.2327982 -59.72 0.0004632393    1.319    0.242
        48  -8.3461    176.5367     81.0623   6.7894204084e+01   2.9506219019e+01    0.2959118     0.183823 -48.34  0.001230194    1.675    0.403
        49 -10.2783    200.7798     76.3196   6.2021495389e+01   2.4229244310e+01    0.8762587    0.6454785 -64.64  0.004085739    1.549    0.355
        50 -10.5319    211.7164     80.7399   6.1392504191e+01   2.0796123213e+01    0.5685414    0.2681689 -48.89  0.001605607    2.293    0.564
        51  -9.6625    209.3114     76.6537   6.0685911314e+01   2.2059394557e+01    0.2886617    0.2069322  64.09 0.0005248451    1.472    0.321
        52 -10.3494    207.1672     72.9679   6.0032573535e+01   2.3191743223e+01    0.4562377    0.2828865 -52.71  0.001172153    1.715    0.417
        53 -11.2493    168.7818     80.1765   6.9236412440e+01   3.1615824247e+01    0.4867492    0.3651394  -9.14  0.001572719    1.678    0.404
        54 -13.6582    249.3624     33.8273   4.4623727971e+01   1.8752999514e+01    0.5739887    0.5460695 -19.10  0.001353128    1.264    0.209
        55 -10.6349    114.9827     69.2248   7.8963878425e+01   4.6438224126e+01    0.3003178    0.2804538   1.01 0.0002697539    1.076    0.070
        56 -10.1326    152.8466     55.5376   6.4964886668e+01   3.9885063804e+01    0.5115559    0.2542791 -42.47  0.001986929    2.065    0.516
        57  -7.0930    189.8237     35.8267   5.2166113735e+01   3.3139499074e+01    0.4073967    0.2489007   1.56  0.001626916    2.654    0.623
        58  -8.9860    192.3787     46.7907   5.4990866277e+01   3.0974992044e+01    0.2755095    0.2396113 -59.07   0.00070501    1.133    0.117
        59 -10.2782    189.9051    179.8027   8.9167786985e+01   7.8837079472e+00    0.2688228    0.2459504  44.89 0.0003703748    1.130    0.115
        60  -9.4125    159.7346     39.4420   5.8285636164e+01   4.0512417060e+01    0.3775776    0.1903997 -16.38  0.001393612    2.676    0.626
        61 -10.2024    120.9929     38.7563   6.6525754270e+01   5.0231244583e+01    0.3769971    0.2249284   5.94  0.001467485    2.656    0.623
        62  -8.3512    142.2582    180.9859   9.9352548504e+01   1.6911605748e+01    0.1818378    0.1746989  87.95 0.0002714075    1.087    0.080
        63  -8.1258     92.0000     31.4475   7.1769284991e+01   5.7588136782e+01    0.4567177   0.07471082 -32.77  0.001162367    5.995    0.833
        64  -9.0682    159.2970     29.7409   5.5166127224e+01   4.1892525594e+01    0.2780813    0.2020047 -12.81 0.0007726535    1.580    0.367
        65  -9.9206    112.5083     29.0266   6.4963622155e+01   5.3519467644e+01    0.2965652    0.2060205 -15.93  0.001319559    1.512    0.339
        66 -10.8715    112.8512     23.5864   6.2716282026e+01   5.4123421718e+01    0.4567205      0.31006  38.26  0.002332716    1.404    0.288
        67  -8.9322    125.0000     29.9267   6.2229347220e+01   5.0487052605e+01    0.2317903   0.08126786 -27.84 0.0008032505    2.948    0.661
        68 -10.8124    128.0033     22.4567   5.8730696410e+01   5.0672369494e+01    0.4516551    0.2891578  19.24  0.002085574    1.902    0.474
        69  -9.0116     75.3655    178.2725   1.1374343609e+02   2.8793215259e+01    0.1998889    0.1738331  64.22 0.0003489678    1.125    0.111
        70  -9.0053    234.0479    216.0247   8.7642490512e+01  -5.3212812393e+00    0.1832998    0.1480945  15.82 0.0003139481    1.025    0.024
        71 -12.3276     16.5328    166.5386   1.2536698591e+02   3.8275052552e+01    0.7932247    0.5991272  86.74   0.00388398    1.009    0.009
        72  -9.2510    198.9322     44.4353   5.3329355813e+01   2.9615163649e+01    0.4256915    0.2041426 -26.51 0.0008052509    2.259    0.557
        73  -8.7310    210.1460    163.3440   8.1832498408e+01   6.7065802808e+00    0.2151007    0.1805461 -10.99 0.0003075482    1.182    0.154
        74  -8.6827     75.4778    162.8483   1.1164308660e+02   3.2232128905e+01    0.2075765    0.1708988  53.06 0.0002680623    1.215    0.177
        75  -8.9696    211.0128     15.9176   4.3957403385e+01   3.0109809845e+01    0.2050164    0.1792906 -73.83 0.0004245053    1.029    0.028
        76 -10.0482    123.1132    241.4876   1.1164647776e+02   9.3255303233e+00    0.1939786    0.1714266  73.24 -6.422237e-05    1.188    0.158
        77  -8.0124    167.7780     13.7552   4.8618999474e+01   4.1489681621e+01    0.1815869    0.1498011 -72.80  0.000272638    1.260    0.206
        78 -10.4076    192.2325    193.7153   9.1340612139e+01   5.1110776127e+00    0.8937011    0.4162405 -59.33  0.002554737    6.712    0.851
        79  -7.6796    169.2218     10.3540   4.7342767167e+01   4.1455775847e+01    0.1345343    0.1008895  27.77 0.0002469156    1.556    0.357
        80 -12.1095     67.9465    144.7766   1.1077647647e+02   3.7493167917e+01     1.391201      1.02179 -78.31  0.005686034    1.247    0.198
        81 -13.1757    249.4171     58.7176   5.0554714523e+01   1.5358307960e+01    0.7188946    0.3022316 -44.05  0.001477067    2.091    0.522
