#   1 NUMBER                 Running object number                                     
#   2 MAG_AUTO               Kron-like elliptical aperture magnitude                    [mag]
#   3 X_IMAGE                Object position along x                                    [pixel]
#   4 Y_IMAGE                Object position along y                                    [pixel]
#   5 X_WORLD                Barycenter position along world x axis                     [deg]
#   6 Y_WORLD                Barycenter position along world y axis                     [deg]
#   7 A_WORLD                Profile RMS along major axis (world units)                 [deg]
#   8 B_WORLD                Profile RMS along minor axis (world units)                 [deg]
#   9 THETA_WORLD            Position angle (CCW/world-x)                               [deg]
#  10 FWHM_WORLD             FWHM assuming a gaussian core                              [deg]
#  11 ELONGATION             A_IMAGE/B_IMAGE                                           
#  12 ELLIPTICITY            1 - B_IMAGE/A_IMAGE                                       
         1 -13.2341     58.5843    131.1246   6.2161933133e+01   4.2270544626e+01     2.434058     1.059396 -85.58  0.007146138    4.245    0.764
         2 -13.4253    222.0216     46.0969   1.7979725773e+00   2.4081457869e+01    0.8767257    0.7462987  30.99  0.001805701    1.572    0.364
         3 -12.2316    248.3883     24.6174   3.5510723601e+02   2.1431153440e+01    0.8283882    0.3478098 -30.31  0.004325677    2.056    0.514
         4  -9.5094      2.1266      2.3401   5.8429759340e+01   7.9703204303e+01    0.2196827    0.1396124 -39.86  0.001263131    1.358    0.264
         5  -9.3327    125.0000    243.9043   5.9093964477e+01   8.7532969975e+00    0.1575235   0.07084848 -54.01 0.0008003996    2.928    0.659
         6 -10.2254     75.2691    248.1579   7.0253448715e+01   1.4253117186e+01    0.4140521    0.1906949 -49.64  0.002151415    3.032    0.670
         7 -13.1474     43.1417    245.0782   7.7068255948e+01   1.8397650953e+01     1.599869    0.6281103  24.84  0.006749102    2.299    0.565
         8 -14.7021     56.6795    232.2793   7.3300601095e+01   1.9243937755e+01     4.550424     3.292793 -36.91   0.01683235    1.996    0.499
         9  -8.8462    216.0000    233.5107   4.0066656998e+01  -1.0870313982e+00    0.2082649   0.05567336 -37.15    0.0009267    3.870    0.742
        10 -10.1104     72.8575    232.8382   6.9623929051e+01   1.7229714710e+01    0.2501377    0.2000414  67.94 0.0008345346    1.352    0.260
        11 -11.7429     82.3541    221.3274   6.6402095631e+01   1.8183906026e+01    0.5183173    0.3518783  39.80   0.00153263    1.172    0.147
        12 -13.0544     97.8785    223.4582   6.2949414276e+01   1.5744434614e+01     1.398079      0.62701  50.83  0.005974806    2.482    0.597
        13 -11.9887     89.1578    223.4975   6.4999294585e+01   1.6891557439e+01     0.791061    0.4551912  54.84  0.004161959    1.849    0.459
        14 -12.4559    132.3245    230.3156   5.5952151076e+01   9.9135992258e+00    0.8786727    0.3317201  23.31  0.003522626    2.904    0.656
        15 -11.2877     45.3640    229.7401   7.5745178863e+01   2.0988520943e+01    0.5667012    0.2764435  15.63  0.002194495    2.565    0.610
        16 -11.5585    118.6824    230.7707   5.9006574047e+01   1.1676947242e+01    0.4487951    0.1842877  29.04  0.002035574    1.984    0.496
        17 -11.2392    147.5112    228.3239   5.2443302173e+01   8.1737132716e+00    0.3361002      0.19703  35.59  0.001917492    1.443    0.307
        18 -10.7919     72.0505    225.5944   6.9223334014e+01   1.8675483827e+01    0.3674269    0.1984823  39.80  0.001353116    1.422    0.297
        19 -10.0524    163.8418    226.3792   4.8794198883e+01   6.2729812965e+00     0.183066   0.09402467  22.23 0.0009507576    1.729    0.422
        20 -10.5203    114.8576    225.2952   5.9238017960e+01   1.3121848791e+01     0.197523    0.1745266  69.40  0.001312694    1.420    0.296
        21 -10.9363    173.7740    223.7610   4.6429461527e+01   5.3327698303e+00    0.4104833    0.2038508  11.25  0.001780706    2.627    0.619
        22 -13.8362     79.6493    187.5376   6.3508163134e+01   2.5493543389e+01     2.240751     1.497099 -88.44   0.01126385    1.867    0.464
        23  -8.9738    118.4916    221.4801   5.7959621104e+01   1.3282599881e+01    0.1310576    0.1043359  29.16 2.157992e-05    1.009    0.009
        24  -8.6670    223.3146    239.6707   3.9722402006e+01  -2.5820712764e+00   0.09033722   0.07790467  19.68 0.0003530621    1.676    0.403
        25  -9.6177     96.0464    211.5471   6.2090046244e+01   1.8227115433e+01    0.2726403    0.1797978 -79.92  0.001445471    2.084    0.520
        26  -9.1377    102.4534    211.0440   6.0478542195e+01   1.7429716149e+01    0.1694074    0.1335861 -57.77 0.0003915151    1.539    0.350
        27  -9.6857    211.0239    198.7450   3.5504847890e+01   3.8884690016e+00    0.1925187    0.1452606 -13.36 0.0004876422    1.147    0.128
        28  -9.2422    192.4029    193.5866   3.8041331889e+01   7.1720416516e+00    0.2221414    0.1110551 -52.06 0.0009521474    3.460    0.711
        29 -13.7279     42.7414    174.6997   7.2516281507e+01   3.3168363836e+01     2.098824     1.206685  75.15   0.01000634    1.876    0.467
        30 -11.2800    108.0976    188.9551   5.6203069648e+01   2.0983117343e+01    0.3801959    0.2901956 -29.98  0.002049513    1.578    0.366
        31  -8.7687    207.5321    189.5310   3.4553554936e+01   5.6344723748e+00    0.1241005   0.09787377   0.01 0.0005864604    1.026    0.026
        32 -15.2233      4.8581    140.2654   8.1773215916e+01   4.5173600838e+01     8.322063     1.552596 -83.17   0.01570043    5.092    0.804
        33  -9.6395     65.0916    185.7618   6.7276330633e+01   2.7862114441e+01    0.2161571    0.1813604  74.90 0.0004679684    1.217    0.178
        34 -10.0216     73.2271    188.2938   6.5331081348e+01   2.6211261680e+01    0.5034881    0.2600026  79.71  0.001963425    3.140    0.682
        35 -10.1479    116.0041    181.5101   5.3067159591e+01   2.1274402199e+01    0.1990713    0.1963827   3.62 0.0005322087    1.135    0.119
        36  -8.5152     93.8456    182.1740   5.8990163511e+01   2.4604516796e+01    0.1765565    0.1589229  -5.21 0.0002403779    1.260    0.206
        37  -8.4028     63.4439    181.5112   6.7282637394e+01   2.9050710480e+01    0.1405049    0.1213021  48.14 0.0001483064    1.006    0.006
        38  -9.8739     59.9957    178.8772   6.7974556386e+01   3.0107733800e+01    0.2252549    0.1888334 -82.43 0.0005876304    1.273    0.214
        39  -9.1317    174.5110    179.5010   3.9123470079e+01   1.2097278540e+01    0.1342562    0.1148816   8.00 -0.0001236903    1.001    0.001
        40 -10.6975    172.1692    174.8294   3.8759543801e+01   1.3266007726e+01    0.4043069    0.2815534  19.87  0.001086757    1.390    0.280
        41 -11.0355    173.0209    170.3176   3.7740126617e+01   1.3902207589e+01    0.5281743    0.2749971  34.12  0.002470326    1.823    0.451
        42 -10.5841    180.6828    167.3419   3.5600045828e+01   1.3140150364e+01    0.2963809    0.2032568 -40.70  0.001222404    1.525    0.344
        43 -10.0663    178.6376    164.1465   3.5398384627e+01   1.4024367578e+01    0.2735641    0.2360793  10.81 0.0008787714    1.044    0.042
        44  -9.2935    101.7365    166.9573   5.4550427276e+01   2.6748112181e+01     0.296561     0.205133  19.91   0.00117037    1.554    0.357
        45 -10.4017     90.3951    166.4348   5.7663448152e+01   2.8691204439e+01    0.3987114    0.2533602 -64.90  0.001651456    1.770    0.435
        46 -10.1342    110.5943    166.9788   5.2127955257e+01   2.5269302945e+01    0.2774002    0.2474579  61.01 0.0004170643    1.193    0.162
        47 -11.3387     76.7309    165.1583   6.1447301987e+01   3.1071374763e+01     1.478621    0.7367533  73.51  0.004796145    3.939    0.746
        48 -12.5792     66.6317    125.5843   5.8352488027e+01   4.2563407468e+01     1.417843     0.756413  87.85  0.004752334    3.242    0.692
        49 -11.0075     74.9508    131.4697   5.6566839039e+01   3.9745573869e+01    0.8318736    0.2855404 -56.07  0.001853436    2.851    0.649
        50  -9.3769    138.3171    246.6900   5.6613108852e+01   6.6396353491e+00    0.1152232   0.07735324  45.68 0.0002459564    1.638    0.389
        51 -10.9726     79.7998    137.6756   5.6102239018e+01   3.7384941406e+01    0.5035051    0.3534818  68.13  0.001014304    1.671    0.401
        52 -11.8563     60.1187    161.3641   6.5942006534e+01   3.4313678421e+01    0.5641778    0.5117433   8.39  0.003214621    1.248    0.199
        53 -11.6741     64.9689    157.6730   6.3974915111e+01   3.4576110450e+01    0.6255724    0.4957808 -44.14 0.0008193797    1.459    0.315
        54 -11.6921     74.6307    150.1458   5.9866437179e+01   3.5059077776e+01     0.663288    0.4259557  27.82 0.0005090004    1.540    0.350
        55 -13.2021     61.5704    145.7156   6.3388913091e+01   3.8065888050e+01    0.8023204    0.5618308  -6.88  0.001255365    2.012    0.503
        56 -15.2830     30.2543    182.0435   7.6611780425e+01   3.2747067339e+01     3.984949     2.144682  53.41   0.02004411    1.616    0.381
        57 -11.1966    238.6271    161.8496   2.4458427785e+01   5.1835355305e+00    0.2851838    0.2012512  19.57   0.00127633    1.430    0.301
        58  -8.6222     95.5705    160.5010   5.5235438732e+01   2.9242140553e+01    0.1495007    0.1357403  45.71 8.252644e-05    1.028    0.027
        59  -9.6428    185.2354    235.1592   4.5829237893e+01   2.3272650911e+00    0.2344415   0.09405831 -42.51  0.001187514    2.986    0.665
        60  -9.9640     93.0658    156.3823   5.5276935003e+01   3.0622542316e+01    0.2838941    0.2230698 -78.30 0.0009759036    1.461    0.315
        61 -10.1561    124.8531    153.8059   4.5907857162e+01   2.5643957173e+01    0.4883015    0.2772502 -69.68   0.00181212    2.968    0.663
        62 -12.3492     69.8438    144.8308   6.0557791876e+01   3.7112732745e+01    0.6231084    0.4634359  62.55  0.002037559    1.393    0.282
        63 -10.1141     89.6941    150.8285   5.5333834306e+01   3.2508618227e+01    0.2724428    0.2373483  79.84 0.0005182264    1.234    0.189
        64 -10.6094    133.2813    144.6290   4.1844788414e+01   2.6038725876e+01    0.9832597    0.3381637 -54.89  0.002941342    4.003    0.750
        65  -9.7168    113.9143    145.9513   4.7339558556e+01   2.9404801579e+01    0.2207083     0.207165  44.10  0.000290227    1.035    0.034
        66 -10.4381    109.0485    145.3716   4.8606829495e+01   3.0431881458e+01    0.2997643    0.2617945  39.83 0.0006402366    1.069    0.064
        67 -10.5665     36.8037    142.3829   7.1231409076e+01   4.1945111499e+01    0.5356942    0.2798401  63.79  0.001625763    2.091    0.522
        68  -9.4697    100.8656    143.4103   5.0616006273e+01   3.2371079611e+01    0.2358379    0.2065836 -80.27 0.0004131504    1.262    0.208
        69 -14.5786     12.2044    246.7399   8.3710557501e+01   2.1137222062e+01    0.9317908    0.6499276 -57.13  0.005439083    2.049    0.512
        70 -10.6872     98.2118    134.0302   4.9538528244e+01   3.5105126208e+01    0.6320186      0.39616   1.60  0.002222644    3.025    0.669
        71  -9.0360     39.0082    138.7116   7.0064595997e+01   4.2672876952e+01    0.1948171    0.1733136  46.17 0.0005571803    1.079    0.073
        72  -9.2055    114.5103    134.0832   4.4691724824e+01   3.2014652765e+01    0.2268212    0.1539913 -47.83 0.0005076115    1.548    0.354
        73 -11.6795     85.2001    132.2023   5.3301174200e+01   3.7863009537e+01    0.3042221    0.2926372 -84.61 0.0004804781    1.071    0.066
        74  -8.9616     71.3717    167.2409   6.3309664066e+01   3.1343208063e+01    0.1905465    0.1343851 -89.00 0.0002932603    1.625    0.384
        75  -8.9067    123.1268    130.3891   4.1440360207e+01   3.1151757699e+01    0.2462144    0.2012329  65.02 0.0006188163    1.386    0.279
        76 -10.2751    105.6445    130.7223   4.6565538937e+01   3.4509487859e+01      0.39282    0.3415285 -62.46  0.001047909    1.225    0.184
        77  -9.7337    108.9982    125.8105   4.4459185312e+01   3.5020099649e+01    0.3147099    0.2305914 -39.12 0.0007562058    1.496    0.332
        78 -10.6702     44.2030    131.0534   6.7266168931e+01   4.4116522674e+01    0.3637016    0.1978517 -54.03  0.001303572    1.889    0.471
        79  -9.5820    243.6678    128.3393   1.7297306101e+01   9.0172156211e+00     0.116993   0.08544056 -54.09            0    1.745    0.427
        80  -8.4720    139.4433    128.2175   3.6625273111e+01   2.8296822593e+01    0.2017479    0.1476132 -59.21 0.0006952385    1.586    0.370
        81  -8.4822    219.0159    126.0075   2.0307965749e+01   1.3301568348e+01    0.1552495    0.1302079 -24.36 0.0003288364    1.029    0.028
        82  -9.3855     32.0003    124.7215   7.0907410767e+01   4.7116870839e+01    0.3657682    0.1500309 -54.50  0.001409838    2.421    0.587
        83  -9.1205    115.6815    121.6672   4.1516323849e+01   3.4641181136e+01    0.2516921    0.1926967  -2.14    0.0011055    1.768    0.434
        84 -10.6894     95.6619    121.4459   4.7608998564e+01   3.8648881349e+01    0.3178723    0.2697661  20.89 0.0008527861    1.264    0.209
        85 -15.4147      4.6949    232.8631   8.4960809873e+01   2.4344512433e+01     1.422808    0.6720859 -84.07  0.008285237    2.277    0.561
        86 -10.2121     41.2738    118.3303   6.6519605374e+01   4.7858810394e+01    0.3076574    0.1991964  57.22 0.0005948126    1.612    0.380
        87 -10.1749     27.6811    118.6722   7.1812706713e+01   4.9149128216e+01    0.3122011    0.1982884  57.68  0.001010897    1.595    0.373
        88  -9.7700    105.8682    116.4139   4.3190733934e+01   3.7863509054e+01    0.3245035    0.2258573 -40.27 0.0002255731    1.566    0.362
        89 -10.5446    244.4560    115.0244   1.4515599036e+01   1.0718851358e+01    0.2647586    0.1743219 -63.11  0.001448403    2.346    0.574
        90  -9.8000     32.9998    114.9989   6.9261290269e+01   4.9635744821e+01    0.2502165    0.1535574  59.79 0.0008965415    1.733    0.423
        91 -12.1861     82.1632    145.2082   5.6683143383e+01   3.5115348096e+01     2.048783      1.14759 -34.49  0.006669431    2.599    0.615
        92 -10.4700     32.7475    107.8446   6.8327938312e+01   5.1593927647e+01    0.4795175    0.1404726 -59.50  0.001626091    2.890    0.654
        93  -8.7963     36.3141    107.7339   6.6842007888e+01   5.1259321292e+01      0.22828    0.1915157  59.43  0.000203764    1.190    0.160
        94 -10.3823     19.9979    108.4882   7.3660332383e+01   5.2535254892e+01    0.2750381    0.1742164  19.18 0.0009030696    1.678    0.404
        95 -11.0201     24.1807    105.0364   7.1494701425e+01   5.3133669646e+01    0.4410093    0.3205584  50.91  0.002132606    1.387    0.279
        96 -10.0898    133.5179    104.1346   3.2106956023e+01   3.4660566535e+01    0.4809299    0.2849513 -68.77  0.001670636    2.920    0.657
        97  -9.2293     44.8779    102.4363   6.2349721466e+01   5.1710404898e+01    0.2504724    0.1939756 -86.32 0.0004823539    1.352    0.260
        98 -11.4646     15.6041     99.0960   7.4413246952e+01   5.5379139386e+01     0.616149    0.3170043  11.46  0.002728046    2.184    0.542
        99  -9.4575     58.1156     96.5864   5.5558237239e+01   5.1459101674e+01    0.3623024    0.1581356  18.98    0.0011016    3.369    0.703
       100  -9.7603    104.7585     93.5955   3.7458929549e+01   4.3410077501e+01    0.4858304    0.2915142  76.96  0.001199566    3.602    0.722
       101 -16.3673      6.2210    217.6750   8.4251381552e+01   2.7179749750e+01     3.321424     1.854738  35.59  0.008669671    1.408    0.290
       102 -11.9051     39.5556     90.5994   6.2298357476e+01   5.5502599396e+01    0.6316527    0.3170391  33.32  0.001523046    1.946    0.486
       103  -9.2406     35.9968     83.4908   6.2436687594e+01   5.7782775152e+01    0.2076328    0.1430099  25.10 0.0003923186    1.491    0.330
       104  -8.7681    117.7198     80.5809   2.9577955320e+01   4.3250752363e+01      0.20998    0.1500703  60.73 0.0003321955    1.463    0.317
       105  -8.6627     92.1980     79.3977   3.7345041562e+01   4.9361688541e+01    0.2214965    0.1458429  54.17 0.0004932467    1.589    0.371
       106  -9.3189     35.4070     74.4902   6.0630446090e+01   6.0195017167e+01    0.2693988    0.1111974  37.47  0.001020331    2.421    0.587
       107  -8.4441    128.6735     73.3263   2.4316648081e+01   4.2010385604e+01    0.1638592    0.1223662 -80.00  0.000704982    1.697    0.411
       108  -9.2517     85.2900     73.4086   3.7890231814e+01   5.2184412093e+01    0.2190257    0.1454884  52.82 0.0004866856    1.561    0.359
       109  -8.7390     65.6623     73.6632   4.5959338235e+01   5.5982742777e+01    0.1615508    0.1201094 -13.96 0.0007051438    1.753    0.430
       110 -10.4149     29.9471     71.2582   6.2674082364e+01   6.1603948466e+01    0.5205448    0.2248825  47.20  0.001929128    2.843    0.648
       111  -9.8906     20.1648     66.8563   6.6978494493e+01   6.3601269997e+01    0.2087948    0.1853488  59.75 0.0005249772    1.229    0.186
       112  -8.6621     65.5601     64.5014   4.2899873115e+01   5.8136977204e+01    0.1495805    0.1471867  37.98 8.340293e-05    1.033    0.032
       113 -12.0408    199.3081     61.5443   8.0232640568e+00   2.6879443778e+01    0.5643286    0.4116689  55.90    0.0015297    1.506    0.336
       114 -12.8590    210.1733     54.5713   5.0086486404e+00   2.5472249765e+01    0.8898456    0.7918256 -39.17  0.003261965    1.120    0.107
       115  -8.8079     82.8967    245.8141   6.8406082765e+01   1.3735581912e+01     0.163969    0.1094018  46.44  0.000441611    1.282    0.220
       116  -9.3700     46.8746     51.1590   4.7159888556e+01   6.4352134053e+01    0.3581486    0.2130325  55.02   0.00136192    2.300    0.565
       117 -10.7899     15.0517     50.1458   6.6099561444e+01   6.8186152985e+01    0.3873797    0.1516569  23.37  0.001305404    2.525    0.604
       118  -8.6574     69.4659     47.5488   3.4502717476e+01   6.0970443403e+01    0.1495121     0.141543  27.86 9.651952e-05    1.004    0.004
       119 -11.3748      9.9914     44.5505   6.8042441048e+01   6.9871912833e+01    0.3605041    0.2429299  30.04  0.001189924    1.606    0.377
       120  -9.0656    146.8294    242.8526   5.4411611474e+01   6.1092422095e+00      0.16035     0.116563  36.65 0.0004742257    1.321    0.243
       121 -14.8298     10.1268    206.4009   8.2999262565e+01   2.9175213089e+01     1.091517    0.7513933   9.23  0.004796013    1.789    0.441
       122 -10.3073     14.3270     30.7652   6.0483075433e+01   7.2820335733e+01    0.2375715    0.1893762  41.71 0.0007382329    1.468    0.319
       123  -9.8625      2.0511     22.0319   6.7676760824e+01   7.5539998050e+01    0.2470485    0.1576626 -79.92  0.001137404    1.795    0.443
       124  -9.5092     60.7668     21.2714   2.5532457566e+01   6.7390852404e+01    0.2304832    0.2109921  68.52 0.0006547009    1.240    0.194
       125 -10.2132    103.5661    238.1275   6.3151247733e+01   1.2439765928e+01     0.275673    0.2098443 -35.70   0.00145568    1.686    0.407
