#   1 NUMBER                 Running object number                                     
#   2 MAG_AUTO               Kron-like elliptical aperture magnitude                    [mag]
#   3 X_IMAGE                Object position along x                                    [pixel]
#   4 Y_IMAGE                Object position along y                                    [pixel]
#   5 X_WORLD                Barycenter position along world x axis                     [deg]
#   6 Y_WORLD                Barycenter position along world y axis                     [deg]
#   7 A_WORLD                Profile RMS along major axis (world units)                 [deg]
#   8 B_WORLD                Profile RMS along minor axis (world units)                 [deg]
#   9 THETA_WORLD            Position angle (CCW/world-x)                               [deg]
#  10 FWHM_WORLD             FWHM assuming a gaussian core                              [deg]
#  11 ELONGATION             A_IMAGE/B_IMAGE                                           
#  12 ELLIPTICITY            1 - B_IMAGE/A_IMAGE                                       
         1 -12.8891    185.3614     27.0009   1.8650540522e+01   3.4999811667e+01      1.03594    0.7087021  51.67   0.00560802    1.646    0.393
         2 -14.9767    225.1778      9.9610   1.1193096421e+01   2.7907844685e+01     4.422639      1.79997  77.45    0.0218561    2.412    0.585
         3 -10.8972    125.1132     41.2126   3.2509542289e+01   4.8279121319e+01    0.6502638    0.3651941  21.65  0.002287493    3.457    0.711
         4 -12.9074    214.2482     27.7525   1.6063304207e+01   2.8290243485e+01     1.879537    0.7258936 -57.56  0.007836726    2.749    0.636
         5 -11.5190    119.4703      9.6869   2.2127468352e+01   5.3377822091e+01    0.6481315    0.4331397  55.12  0.002497806    1.350    0.259
         6  -9.9217     99.2745      4.8167   2.4007443477e+01   5.8869324240e+01    0.3932714    0.1392316 -37.49  0.001292221    3.059    0.673
         7  -9.0548    240.9834    213.9198   5.1502684898e+01  -3.2190699381e+00    0.1614041    0.1227749   0.16 0.0003214294    1.043    0.042
         8 -15.1411    191.5383    155.5594   4.9428422215e+01   1.2933697757e+01     1.334276      1.06415 -64.29  0.006958145    1.706    0.414
         9 -19.2598    229.2925    125.7235   3.6643088069e+01   1.1221031971e+01      6.28306     5.891414   3.13   0.02216261    1.145    0.127
        10 -10.0980    133.1754    191.7134   6.8987333904e+01   1.6295685659e+01    0.2795662    0.2356611 -86.04 0.0007429729    1.535    0.349
        11  -9.8469    133.6171    187.0508   6.8110037136e+01   1.7153808895e+01    0.2525603    0.2103395  27.23 0.0003595305    1.113    0.101
        12  -9.3753    167.1568    190.7450   6.1217212366e+01   1.0848623850e+01    0.1948392    0.1810531 -39.99 0.0003127079    1.249    0.199
        13 -15.4275    223.7862     84.3475   2.8269238629e+01   1.8635598315e+01     1.266673    0.9763803  39.85  0.007403471    1.585    0.369
        14  -8.5444    233.9212    187.4450   4.8072724379e+01   1.2107767725e+00    0.1536821    0.1055254  22.33 0.0003137505    1.418    0.295
        15  -9.4569    169.9432    185.3649   5.9660769751e+01   1.1348682901e+01    0.2310074    0.1963068 -43.94 0.0004432724    1.319    0.242
        16  -9.7999    164.9499    179.8935   5.9721889834e+01   1.3190877101e+01    0.3704008    0.2780817  84.06  0.001635578    2.427    0.588
        17 -11.2797    141.6624    181.7381   6.5301033452e+01   1.6849683250e+01     0.626331    0.4174486  88.14  0.002496822    3.210    0.689
        18 -10.0636    158.0883    181.7081   6.1559038988e+01   1.4028716210e+01    0.2388178    0.1935805 -29.88 0.0002509552    1.271    0.213
        19 -10.2203    149.8967    181.3294   6.3329305955e+01   1.5510804169e+01    0.1994519    0.1674456  26.80 0.0003837752    1.101    0.091
        20  -9.7404    243.4181    178.9212   4.5011025519e+01   1.1124290740e+00    0.2250029    0.2134344   7.48  0.001075241    1.408    0.290
        21  -9.0872     76.9405    174.7546   8.0638339324e+01   2.8944336763e+01    0.2004818    0.1874197  -9.67  0.000909602    1.254    0.203
        22 -10.2274     95.3667    249.1617   8.4760829961e+01   1.1200181026e+01    0.2052701     0.199033  18.38 0.0005477125    1.251    0.201
        23 -11.2783    111.2816    168.5706   7.0477091090e+01   2.4905982101e+01    0.4364169    0.3039151  78.99  0.001571878    2.058    0.514
        24 -10.8759     82.1587    161.9723   7.7287796378e+01   3.1215783416e+01    0.4543964    0.2489399  13.41  0.001660937    3.034    0.670
        25 -10.8444     69.8919    159.5832   8.0421948738e+01   3.3619044895e+01     0.361556    0.2352988 -69.75 0.0008143488    1.577    0.366
        26 -13.1569     68.0362    144.1451   7.8528311472e+01   3.7735749614e+01     1.432449    0.7314124 -74.94  0.005615499    2.368    0.578
        27 -10.2110    101.0106    141.2043   6.8096566694e+01   3.3089962035e+01    0.4564229    0.2135238 -55.03  0.001736106    2.191    0.544
        28  -9.8125     91.8805    138.9912   7.0323730713e+01   3.5232758010e+01    0.2306996    0.2245739  80.45 0.0006298691    1.015    0.015
        29 -11.2133    106.4937    131.6619   6.4464099465e+01   3.4352191934e+01    0.3910943    0.3671519 -13.51  0.001562541    1.149    0.130
        30 -11.2834    107.1555    126.5491   6.3105874302e+01   3.5433083488e+01    0.4362214    0.2726681 -58.99  0.001058769    1.732    0.423
        31 -10.5294     93.0226    132.0019   6.8529502172e+01   3.6740259071e+01    0.4047559    0.2869873  -8.28   0.00153265    2.141    0.533
        32  -8.1887     32.2509    132.9619   8.8281942981e+01   4.4991495877e+01    0.1657001    0.1098972 -75.05 0.0002138253    1.399    0.285
        33 -10.2987    179.0652    209.8433   6.2010327900e+01   5.7603267734e+00    0.4511404    0.2681607  55.63  0.001550155    2.960    0.662
        34 -10.5463     53.6873    118.9158   7.8726249557e+01   4.6160410215e+01    0.2451945    0.2319992   7.33 0.0002688343    1.155    0.134
        35 -14.0544     44.6890    102.7538   7.8809827272e+01   5.1420358910e+01     1.824174     1.376287  46.12  0.006769865    1.411    0.291
        36 -13.9645     75.4178    106.9438   6.8506071810e+01   4.5940435086e+01     1.852417     1.280907  45.29  0.008654437    1.487    0.327
        37 -12.1214     63.5670    104.5420   7.2141084353e+01   4.8417745525e+01      0.56996    0.5176582  31.34 0.0007831717    1.139    0.122
        38 -13.4870      8.8404     96.7719   9.1889018816e+01   5.6161817022e+01    0.7018465    0.2961798  23.91  0.002307846    2.521    0.603
        39 -11.1116    171.8556    204.5231   6.2596615433e+01   7.7236652849e+00    0.3794494    0.2853671  65.05   0.00128928    2.174    0.540
        40  -8.7207    144.5482    209.4571   6.9208245241e+01   1.1116826913e+01    0.1983602    0.1458254  27.39  0.001121674    1.200    0.166
        41  -9.9429    125.2038     82.6236   4.6137813388e+01   4.1211268242e+01    0.2776911    0.2450577  72.71  0.000879254    1.198    0.165
        42  -9.9720    141.4283    205.5755   6.9303218958e+01   1.2311094863e+01    0.2982355    0.2278046  64.79  0.001622613    1.754    0.430
        43  -9.8798    119.8400    201.0962   7.3579116965e+01   1.6582080456e+01     0.214408    0.1971392  46.54 0.0004844154    1.092    0.084
        44 -10.0151    205.2310    199.6877   5.5246384887e+01   3.4743453967e+00    0.4383199    0.2624976  -2.29  0.002071397    2.054    0.513
        45  -9.8902    236.9845    197.1012   4.9289126746e+01  -5.2742149704e-01    0.1864552    0.1386812  17.78 0.0005649182    1.259    0.206
        46 -11.8175    152.3454     67.1925   3.5184110924e+01   3.7472346621e+01    0.4509177    0.3338214  88.91  0.002141812    1.600    0.375
        47 -10.1957    192.6855     65.3361   2.7842611879e+01   2.8140045704e+01     0.560212    0.2733493  39.22  0.002123223    3.203    0.688
        48  -9.9963    245.3775     60.9548   2.0721736341e+01   1.7771346208e+01    0.1956245    0.1560795 -80.97 0.0005299514    1.320    0.242
        49  -9.9283    213.4297     58.3965   2.3454535919e+01   2.4540744928e+01    0.2928315    0.2691801 -23.02  0.001860203    1.247    0.198
        50  -9.3907    180.6368    194.8103   5.9140786130e+01   7.9761405153e+00    0.4372389    0.1497575 -45.72  0.001682002    3.258    0.693
        51 -10.0151    195.9027     55.8853   2.4972882732e+01   2.8782091737e+01    0.2895301    0.2045307  51.43  0.000663317    1.579    0.367
        52  -8.8833     47.5075    212.4899   9.2122154989e+01   2.4283147157e+01    0.1254991    0.1063005  55.69 -5.021587e-05    1.039    0.038
        53 -11.4106    229.6884     49.1205   1.9600074047e+01   2.2386859208e+01    0.9803698    0.6488643 -86.49   0.00563579    1.648    0.393
        54  -8.7743    120.0151    238.2758   7.8410290167e+01   9.7025365225e+00    0.1692437    0.1303921  33.47 0.0002436756    1.050    0.048
        55 -12.3084    199.7950     38.1106   1.9982722446e+01   3.0268976121e+01    0.8950945    0.5341117  44.56  0.003170002    2.192    0.544
        56  -8.7189    244.8109    196.0000   4.7847139408e+01  -1.3821750093e+00    0.1718277   0.06079612  36.68 0.0005389968    2.950    0.661
        57  -8.2621     46.2773    236.3146   9.4112112986e+01   1.9620832072e+01     0.101124    0.0911563 -22.50 0.0002492494    1.567    0.362
        58 -11.3267    210.6690     33.6638   1.7793638694e+01   2.8372777528e+01    0.5613527    0.3340432  68.99 0.0006638069    1.704    0.413
        59  -9.4360    118.4853     51.9802   3.7855840412e+01   4.8307499283e+01    0.3717248    0.2413418  -1.52  0.001317276    2.542    0.607
        60  -8.8581    233.9485     35.5132   1.6201305533e+01   2.3227131372e+01    0.1900329    0.1389141 -45.22 0.0006190795    1.159    0.137
        61  -9.8091    236.2968     38.3501   1.6633266728e+01   2.2411977844e+01    0.3534922    0.2134903  -3.72  0.001590007    3.474    0.712
        62  -9.6886    170.6672    223.4386   6.5838470522e+01   4.8529386415e+00    0.2363198    0.1033839  37.47  0.001054373    2.022    0.505
        63  -8.9878    155.2273     24.8074   2.1723385798e+01   4.2697114713e+01    0.1877396    0.1555675  46.10  0.000672959    1.330    0.248
        64  -9.2267    204.9418     48.9701   2.2129994078e+01   2.7690529118e+01    0.1937487     0.177397 -76.76 0.0004776338    1.081    0.075
        65 -10.6861    130.9843     18.9910   2.3534427222e+01   4.9522125334e+01    0.3362723    0.2017407 -73.53  0.001511354    2.083    0.520
        66  -9.5737    125.9957     14.0260   2.2611069536e+01   5.1303823724e+01    0.3007126    0.1870152  86.62  0.001446195    1.713    0.416
        67  -9.7328    145.7143    221.0016   7.0662577468e+01   8.9198708203e+00    0.3035887    0.2207861  84.66   0.00155798    2.555    0.609
