#   1 NUMBER                 Running object number                                     
#   2 MAG_AUTO               Kron-like elliptical aperture magnitude                    [mag]
#   3 X_IMAGE                Object position along x                                    [pixel]
#   4 Y_IMAGE                Object position along y                                    [pixel]
#   5 X_WORLD                Barycenter position along world x axis                     [deg]
#   6 Y_WORLD                Barycenter position along world y axis                     [deg]
#   7 A_WORLD                Profile RMS along major axis (world units)                 [deg]
#   8 B_WORLD                Profile RMS along minor axis (world units)                 [deg]
#   9 THETA_WORLD            Position angle (CCW/world-x)                               [deg]
#  10 FWHM_WORLD             FWHM assuming a gaussian core                              [deg]
#  11 ELONGATION             A_IMAGE/B_IMAGE                                           
#  12 ELLIPTICITY            1 - B_IMAGE/A_IMAGE                                       
         1 -12.3564    159.7108     47.5146   8.0694110205e+01   3.9334834309e+01     1.346171     1.092825  -2.81  0.004645133    1.422    0.297
         2 -11.2208    173.9883     13.0022   6.7307460031e+01   3.9723327638e+01    0.8062056    0.4627539 -87.23  0.003490535    2.076    0.518
         3 -10.7200    171.2423     19.9873   6.9864843076e+01   3.9730174066e+01     0.972174    0.4557231  68.24  0.003982536    1.976    0.494
         4 -10.0527    169.1716     15.8237   6.8872661320e+01   4.0718235153e+01    0.5105318    0.3100452  72.14  0.001988178    1.539    0.350
         5  -9.3784    119.6885      9.6739   7.5671241956e+01   5.4063884343e+01    0.4916197    0.3031655  31.21   0.00223359    1.650    0.394
         6  -9.4579    234.8866      5.4212   5.8847161352e+01   2.4964566652e+01    0.3438553    0.2200959 -43.28 0.0008328216    1.452    0.311
         7  -9.8447    246.8176      3.8116   5.7580116237e+01   2.2354907372e+01    0.3436206    0.2442259  54.75  0.001505008    1.633    0.387
         8  -7.3197    206.7182      1.2605   6.0245355185e+01   3.2306569518e+01    0.1337382   0.08871918 -67.86 0.0006869644    1.479    0.324
         9  -9.4993    197.2965    177.5756   1.0660447436e+02   7.4711127702e+00    0.2762128    0.2386379  26.03  0.001109983    1.020    0.019
        10  -9.3961    166.0255    248.9676   1.2425536088e+02   2.3390577681e+00    0.2018279    0.1842567  28.39 0.0004468452    1.224    0.183
        11  -8.6037    162.6241    246.2322   1.2453113245e+02   3.2625385546e+00    0.2175991    0.1943502   6.43 0.0009386249    1.335    0.251
        12  -8.0159    150.2913    249.6931   1.2722090317e+02   4.7797911669e+00     0.231475    0.1489623  46.41 0.0007529834    1.207    0.171
        13  -9.0518    154.8395    248.3932   1.2623146118e+02   4.2282668275e+00    0.3723982    0.1547053  41.90 0.0009583482    1.814    0.449
        14 -18.5648     72.9510    233.1493   1.3981216140e+02   1.9159257362e+01     4.667465     3.666867  69.59   0.01391274    1.087    0.080
        15 -10.4431    156.2662    192.1344   1.1782916264e+02   1.2945059897e+01    0.6895128    0.4373929 -76.02  0.002960173    2.895    0.655
        16  -9.2107    201.8748    168.7880   1.0390978239e+02   8.0111416218e+00    0.4939598    0.2476647  41.27  0.002140331    1.838    0.456
        17  -8.8394    203.9658    163.2770   1.0234132084e+02   8.5053826324e+00    0.4785229    0.2087141 -37.53  0.001600029    2.407    0.585
        18 -10.6793    192.7480    164.8504   1.0493912166e+02   1.0534994970e+01    0.9152008    0.4994352 -52.38  0.002196952    2.492    0.599
        19  -8.4516    154.8326    166.5984   1.1348686418e+02   1.8017215022e+01    0.2729735    0.2068754  70.55 0.0007366576    1.624    0.384
        20  -9.2182    153.9323    157.0594   1.1177380842e+02   2.0087991356e+01    0.3091447    0.2347622  54.35 0.0009398528    1.312    0.238
        21  -8.9352    149.6750    153.1188   1.1194266136e+02   2.1768473602e+01    0.2265612    0.1883181 -75.67 0.0005906365    1.434    0.303
        22  -9.6926    149.5269    160.9930   1.1358766191e+02   2.0205355576e+01    0.3945571    0.3180614 -33.43  0.001242546    1.404    0.288
        23 -10.0974    146.7294    158.3258   1.1370079847e+02   2.1314425036e+01    0.6413302    0.3957082  60.93  0.001668669    1.961    0.490
        24  -9.3344    129.3923    191.2256   1.2347977931e+02   1.8085895367e+01    0.2839383    0.1870903  56.29 0.0002507499    1.469    0.319
        25  -9.2600     25.2079    160.4363   1.4328150363e+02   3.9377795065e+01    0.3239585    0.2125117  13.33  0.001554094    2.337    0.572
        26  -8.3949     28.9687    157.2416   1.4212058394e+02   3.9722657108e+01    0.2101226    0.1487953  84.57 0.0006351179    1.201    0.168
        27  -8.1576    159.0942    158.0765   1.1080457238e+02   1.8811650973e+01    0.2285128     0.180309  81.54 0.0005038098    1.665    0.399
        28  -9.6189    142.4193    166.5619   1.1631122327e+02   2.0509527327e+01    0.2925074    0.2567434 -76.14  0.000653921    1.275    0.215
        29  -8.1664     17.7655    154.9876   1.4450569653e+02   4.1233731655e+01    0.1665569    0.1258033 -66.84  0.000447247    1.304    0.233
        30 -10.9580    133.9709    145.8568   1.1418512506e+02   2.6515089355e+01     1.239555    0.4383848 -56.90  0.003672125    4.070    0.754
        31 -10.4430    142.4519    146.5070   1.1225805421e+02   2.4637701875e+01    0.6568353    0.4520293  58.31  0.002737325    1.565    0.361
        32  -8.5610    140.0346    141.5179   1.1176276305e+02   2.6193019261e+01    0.2159922    0.1873723  46.90 0.0003780617    1.098    0.090
        33  -8.4978     18.0775    148.9247   1.4390094248e+02   4.2539438865e+01    0.1831424    0.1577743  61.23 0.0009594253    1.227    0.185
        34 -14.2110     59.4322    209.9052   1.4041326451e+02   2.5242325465e+01    0.3897385    0.3476216  57.76  0.001366608    1.279    0.218
        35  -8.8335     26.9240    146.6882   1.4156031141e+02   4.2262018827e+01    0.2212838    0.1943743  76.09 0.0007891232    1.135    0.119
        36  -8.2459    172.2166    145.2066   1.0506212422e+02   1.8512792607e+01    0.2039075    0.1809975  86.57 0.0007246566    1.351    0.260
        37 -10.2457    179.0125    186.0615   1.1196809053e+02   9.6340871352e+00    0.6037621    0.3110762  34.30  0.001973682    1.897    0.473
        38  -8.4018     28.9089    141.6848   1.4053707746e+02   4.3205923922e+01     0.199746    0.1175197  15.63  0.001070754    2.469    0.595
        39  -9.1930    195.3870    183.1717   1.0808090232e+02   6.9305248094e+00    0.2799617    0.2357101  -8.35 0.0008641055    1.240    0.194
        40  -8.8943    136.5785    137.6253   1.1175363329e+02   2.7743407987e+01     0.368167    0.2205927 -61.79  0.001501842    2.090    0.521
        41  -7.4685     25.6266    139.7217   1.4114865339e+02   4.3945928959e+01    0.1159873   0.08309604 -43.36 0.0007008744    1.696    0.410
        42 -10.0746     45.4642    137.1654   1.3571445492e+02   4.2575546357e+01    0.4289881    0.2556233  11.29   0.00191741    2.710    0.631
        43  -8.5608    188.9906    137.0127   9.9540765765e+01   1.6336312217e+01    0.2216372    0.2081719  22.31            0    1.008    0.008
        44  -7.4350     12.2556    136.3546   1.4415440903e+02   4.5789209522e+01    0.1162311   0.07135288 -56.09 0.0005717291    1.608    0.378
        45 -10.2405    235.1084    129.3495   8.8974364038e+01   7.6072459853e+00    0.2666646    0.2433487  36.34 0.0003954387    1.147    0.128
        46 -10.2828    137.6817    171.9705   1.1840093855e+02   2.0342714096e+01    0.5684962    0.3972557  43.27  0.002874461    1.302    0.232
        47  -9.9000    140.9803    181.6686   1.1936489911e+02   1.7796268447e+01    0.4570508     0.317872  77.53 0.0009925433    2.005    0.501
        48  -8.9637    110.9645    123.7042   1.1527693856e+02   3.5936904780e+01    0.2616114    0.2150085 -44.18 0.0007597628    1.250    0.200
        49  -8.7840    137.5269    177.5412   1.1942416242e+02   1.9259860383e+01    0.2245836    0.2099161 -43.12 0.0001097231    1.211    0.175
        50  -7.4860    164.3186    121.2446   1.0113934818e+02   2.5010518140e+01    0.1545831    0.1196736  19.66 0.0002094184    1.520    0.342
        51  -9.0673    165.2279    181.1362   1.1396479312e+02   1.3200059681e+01    0.3979013    0.2777335  71.80  0.001438609    2.087    0.521
        52 -10.0553    171.9149    196.8380   1.1536092976e+02   9.1716794775e+00    0.3794547    0.3214079  81.69  0.001003717    1.558    0.358
        53  -7.9433    115.0558    118.2823   1.1288715106e+02   3.6361252525e+01    0.2097455    0.1911104  48.75 0.0003459845    1.092    0.084
        54 -10.0921    106.8322    113.9225   1.1412109805e+02   3.8921257367e+01    0.3089225    0.2878318 -60.52  0.001695647    1.061    0.058
        55  -7.3604     53.2836    117.3036   1.3045605444e+02   4.6313932419e+01    0.1296311   0.09312344 -39.43 0.0002517941    1.557    0.358
        56  -7.4716    181.4956    114.5175   9.5592013693e+01   2.2267811766e+01    0.1552856    0.1509027  28.78 0.0001300726    1.008    0.008
        57 -10.3035     67.8949    109.8923   1.2466479323e+02   4.6196136668e+01    0.3767889    0.2906902 -38.37  0.001520504    1.382    0.276
        58 -11.4724     61.9648    107.7446   1.2603029700e+02   4.7479792415e+01    0.8902028    0.6479748 -33.66  0.003361975    1.569    0.363
        59  -9.5635    222.1730    178.3638   1.0194231520e+02   2.5656083159e+00     0.247825    0.1919539 -34.25 0.0007046314    1.409    0.290
        60  -9.2412    238.6324    110.2514   8.3910778575e+01   9.8681123453e+00    0.2472219    0.2135401 -52.64 0.0005101706    1.260    0.207
        61 -10.9206    112.2222    108.0490   1.1113408094e+02   3.9190820635e+01     1.046762    0.4941104  59.32  0.003301541    3.626    0.724
        62  -9.0916     77.0278    104.7515   1.2074137394e+02   4.6074876659e+01    0.2778105    0.1676896  35.76  0.001317797    1.772    0.436
        63  -8.6349     30.3178     98.6219   1.3421408326e+02   5.2951142995e+01    0.1980728    0.1901588  -4.08 0.0008726266    1.244    0.196
        64  -9.5749     36.0286     96.7813   1.3205937306e+02   5.2867422571e+01    0.2962894    0.2479846  24.09  0.001918999    1.411    0.291
        65  -9.0165     24.2837    107.4936   1.3747565030e+02   5.1413412538e+01    0.3161504    0.2032977  -8.07   0.00176187    2.299    0.565
        66  -8.0210     99.2978     97.5366   1.1214393488e+02   4.3977205719e+01    0.1884626     0.144655  27.75 0.0002893644    1.429    0.300
        67  -8.3502     47.8272     93.2079   1.2749215053e+02   5.2502205083e+01    0.1779132    0.1422718 -29.75 0.0008163212    1.353    0.261
        68  -8.3280    211.9403    177.6528   1.0373982676e+02   4.6107948925e+00    0.1924997    0.1642823  30.87 0.0004870946    1.094    0.086
        69 -10.0266    151.7071     69.2008   8.9370671735e+01   3.7964037137e+01    0.5602458    0.2668818 -46.13  0.001145305    2.353    0.575
        70 -11.3980    149.1250     61.6752   8.7574511831e+01   3.9883402445e+01    0.6082069     0.568884  68.49   0.00158089    1.102    0.092
        71 -10.0022    204.7165    176.3998   1.0489525297e+02   6.2068760091e+00    0.3552416    0.3245665  42.20  0.001042907    1.199    0.166
        72  -8.3320    189.9661     66.9205   8.0833985282e+01   2.8471347303e+01    0.2140618    0.2084674  62.74  0.001159153    1.016    0.016
        73  -8.8052    171.2910    242.3769   1.2242578972e+02   2.3675540017e+00    0.2860887    0.1570193  38.25 0.0009471657    1.414    0.293
        74  -9.8009    245.2610     54.1770   6.9445801875e+01   1.6683184438e+01    0.2388209    0.2228987  82.11 0.0003003787    1.116    0.104
        75  -8.7999    130.8348     55.0088   8.9815514205e+01   4.5499565518e+01    0.2439094    0.2072883  46.07 0.0002657185    1.127    0.113
        76  -8.5330    249.1522     50.1489   6.8049672943e+01   1.6339708889e+01    0.1933288    0.1811713  16.32 0.0005006249    1.277    0.217
        77  -8.1722    187.0676     39.8678   7.3450397812e+01   3.3140735264e+01    0.3885825    0.2201322  16.59  0.001361734    3.352    0.702
        78 -10.7864    164.3879     38.5283   7.6895960793e+01   3.9338509773e+01     0.460227    0.4367621 -78.68 0.0008509005    1.097    0.088
        79 -10.3266    140.8595     31.5321   7.9217685587e+01   4.6378429151e+01    0.2451307    0.2352048 -17.42 0.0001322537    1.118    0.106
        80  -9.9541    168.1677    238.7388   1.2251700776e+02   3.3871917555e+00    0.4227405    0.2755866 -31.20  0.001736923    2.067    0.516
        81  -8.8254    152.0829    238.2003   1.2547189638e+02   6.1420584591e+00    0.3128793    0.1603288  38.02   0.00068238    1.594    0.373
        82  -9.6021      6.5350    232.8801   1.5128374061e+02   2.6868901431e+01    0.3363814    0.1812165  84.40  0.002431567    1.475    0.322
        83  -9.7718    189.7431     15.2392   6.5902395875e+01   3.5326413197e+01    0.3108504    0.2186517 -89.08  0.001081058    1.422    0.297
        84 -10.1230    177.7337    221.7799   1.1825012027e+02   4.1898203528e+00    0.2532949    0.2185164 -26.33   0.00120702    1.385    0.278
        85  -9.1304    147.4110    205.3681   1.2181660360e+02   1.2238872445e+01    0.3049651    0.1568416  43.82  0.001314408    1.635    0.388
        86  -9.8076    152.9103    200.9367   1.1998279415e+02   1.2011815036e+01    0.4324815    0.2606582 -57.86  0.001496441    2.120    0.528
