#   1 NUMBER                 Running object number                                     
#   2 MAG_AUTO               Kron-like elliptical aperture magnitude                    [mag]
#   3 X_IMAGE                Object position along x                                    [pixel]
#   4 Y_IMAGE                Object position along y                                    [pixel]
#   5 X_WORLD                Barycenter position along world x axis                     [deg]
#   6 Y_WORLD                Barycenter position along world y axis                     [deg]
#   7 A_WORLD                Profile RMS along major axis (world units)                 [deg]
#   8 B_WORLD                Profile RMS along minor axis (world units)                 [deg]
#   9 THETA_WORLD            Position angle (CCW/world-x)                               [deg]
#  10 FWHM_WORLD             FWHM assuming a gaussian core                              [deg]
#  11 ELONGATION             A_IMAGE/B_IMAGE                                           
#  12 ELLIPTICITY            1 - B_IMAGE/A_IMAGE                                       
         1 -11.9095    244.3349     29.3069   4.8602848354e+01   2.0238121690e+01    0.7384551    0.2401463 -30.91  0.002695969    2.724    0.633
         2 -11.2511    245.3729     20.0026   4.6098406217e+01   2.1100345923e+01    0.4041063    0.2830026 -14.70  0.001867627    1.639    0.390
         3 -11.7301    213.6911     28.2288   5.1983229117e+01   2.8142867291e+01    0.5044823    0.4319704 -36.67  0.001066077    1.161    0.139
         4 -11.5262    224.0889     12.4139   4.6303964150e+01   2.7291739969e+01    0.4230485    0.3272279 -44.26  0.001014572    1.253    0.202
         5 -11.3229    105.7181     13.6041   6.7214221081e+01   5.6761082828e+01    0.2679969    0.2313984  -9.56 0.0002674551    1.095    0.086
         6 -10.9023    126.5200     10.8565   6.1026775704e+01   5.2481514246e+01    0.3422436    0.2852636  52.06 0.0007600738    1.187    0.157
         7 -11.4742    243.2629      7.8265   4.3201391052e+01   2.2981793367e+01    0.6156149    0.2698486 -41.54  0.002587367    2.051    0.512
         8 -11.0326    248.1099      4.0159   4.1824329099e+01   2.2210104694e+01    0.4042737    0.3529292  72.33  0.001032447    1.180    0.152
         9  -9.2816    201.1072     10.0169   4.8273871246e+01   3.3533351648e+01    0.2096391    0.2003244 -86.66 0.0005408992    1.021    0.021
        10 -10.5146    161.9227      9.4437   5.3701883224e+01   4.3891506938e+01    0.3278365    0.2034732 -25.81    0.0015523    1.667    0.400
        11  -9.2755    119.0065     10.0132   6.2403440813e+01   5.4289921881e+01    0.2129221     0.185289  10.58 0.0006933317    1.061    0.058
        12  -9.8475     56.0937     10.3096   8.1674140284e+01   6.5860125668e+01    0.2720233    0.1511393  33.90  0.001386597    1.923    0.480
        13 -10.0297     15.5661      6.8094   9.7353250606e+01   7.0773613139e+01    0.3467045    0.1738242 -59.41  0.001770555    3.014    0.668
        14  -9.9285    236.2620      1.4193   4.2197510788e+01   2.5378400686e+01    0.3272695    0.1497857  63.12  0.001144662    2.063    0.515
        15 -10.9760    234.1104      5.2610   4.3387177304e+01   2.5518618868e+01    0.4594675    0.2329281 -51.51  0.002062455    1.970    0.492
        16 -10.7087    230.0082      1.9918   4.2915766488e+01   2.6884281047e+01    0.3915831    0.2616587 -64.82  0.001692195    1.505    0.336
        17 -10.1250    110.4628      5.5584   6.2605648080e+01   5.6647130913e+01    0.4043775    0.2524296  44.86  0.001919567    1.478    0.323
        18  -9.7212     73.0236      7.0412   7.4086076442e+01   6.3699295230e+01    0.1928607      0.16343  -6.45   0.00072902    1.076    0.071
        19  -9.1940    215.5029      5.9281   4.5435725218e+01   3.0192010176e+01      0.20697    0.1352452 -28.02   0.00102346    1.567    0.362
        20 -10.9672    127.5586      1.9007   5.7250029591e+01   5.3136966159e+01    0.2999623     0.224329  74.47 0.0009854991    1.542    0.352
        21  -9.5639     61.7602    216.3602   1.2240524487e+02   2.4107940828e+01     0.198383     0.108533 -89.24  0.001271035    1.725    0.420
        22 -10.2075    160.3860    249.5835   1.0957458789e+02   4.5662245674e+00    0.1892744    0.1568804  61.61  0.001472307    1.199    0.166
        23 -10.6628    126.3506    249.6787   1.1495378261e+02   9.8295923543e+00    0.2591898    0.1500947  53.40 0.0008286078    1.281    0.219
        24 -10.6126    115.8185    249.4961   1.1657619820e+02   1.1422079079e+01    0.2269958    0.1669161  56.70 0.0008046333    1.058    0.055
        25  -9.8169    100.0298    250.0387   1.1904967925e+02   1.3616875275e+01    0.1779038   0.09461782  66.70  0.001141371    1.723    0.420
        26  -9.9934    234.5520    212.6611   9.2214041794e+01  -3.3590493952e+00    0.2570795    0.2387891  83.44  0.001774097    1.660    0.397
        27  -9.3229    222.5096    214.0578   9.4446395071e+01  -1.4679163416e+00    0.1604404    0.1174718 -28.22 0.0007854119    1.591    0.372
        28 -10.1779    109.1748    246.1635   1.1731200449e+02   1.2868532528e+01    0.1581994    0.1254117  54.78 0.0008910195    1.208    0.172
        29 -10.0213    185.2461    210.3707   1.0026879307e+02   5.5713723132e+00      0.26718    0.2232303  65.29  0.001069617    1.332    0.249
        30 -10.7409    149.8006    205.1585   1.0584146181e+02   1.2647382606e+01    0.4707093    0.3031177 -67.27  0.002660868    1.991    0.498
        31  -9.8649    145.4419    201.4991   1.0612603547e+02   1.4002519293e+01    0.3395881    0.2164738 -83.55  0.001192593    2.349    0.574
        32 -10.8456    229.0776    205.6709   9.1947830075e+01  -1.6055136594e+00    0.3403761    0.1775816 -39.25  0.001805738    2.332    0.571
        33  -9.2251    174.3900    208.2241   1.0186537308e+02   7.8196136006e+00     0.155827    0.1178067 -63.73 0.0009488003    1.719    0.418
        34  -8.9797     26.0356    207.9781   1.2758251539e+02   2.9659703528e+01    0.1353005    0.1119417 -66.03  0.000871179    1.726    0.421
        35 -10.5188    220.9855    204.9357   9.3193549624e+01  -9.4695365514e-02     0.265534    0.1804946 -41.49  0.001582754    1.840    0.457
        36 -10.3028    123.9837    203.7324   1.1034005231e+02   1.7268168323e+01    0.3022912    0.1739828 -57.19  0.001166155    1.966    0.491
        37  -9.5757    126.6535    198.9580   1.0924062446e+02   1.7647113089e+01     0.288581    0.1827382  75.90   0.00157086    1.873    0.466
        38 -11.3900    246.2867    178.9987   8.4177046615e+01  -1.3811101125e+00    0.9182655    0.5444341 -47.81  0.004546657    2.508    0.601
        39 -10.0643    249.9595    202.9809   8.8024725043e+01  -4.8647750085e+00    0.4436121    0.2789384  64.16  0.002137908    3.217    0.689
        40 -10.9714    250.0814    198.2070   8.7151600864e+01  -4.3483660819e+00    0.7279512    0.3637666 -44.23  0.003316526    3.039    0.671
        41 -11.3337    232.8184    194.8417   8.9417044214e+01  -9.4260040385e-01    0.6926861    0.3304865 -34.29  0.003466078    2.327    0.570
        42 -10.6707    237.3419    188.8506   8.7554951552e+01  -1.0052900143e+00    0.4828649     0.369367  45.52  0.002138982    1.335    0.251
        43  -9.5288    206.6275    190.1609   9.3142412831e+01   4.4889336009e+00    0.2437249    0.1974629  64.07  0.001456204    1.492    0.330
        44 -10.2912    129.6044    189.4546   1.0739600468e+02   1.8821197129e+01    0.3221931    0.2182963  73.28 0.0009156063    1.613    0.380
        45 -10.0224    125.4401    183.5333   1.0735391108e+02   2.0612652042e+01    0.3905694    0.2303791 -83.86  0.001839346    2.492    0.599
        46  -8.9715    158.8166    189.5901   1.0186451532e+02   1.3574211773e+01    0.1894945    0.1076926  54.37  0.000944651    1.654    0.395
        47  -9.6430    192.1587    185.9225   9.5017944467e+01   7.8589015783e+00    0.3252536    0.1848217 -54.72  0.001437237    2.475    0.596
        48  -9.7489     61.3516    185.6212   1.1982846578e+02   2.9774195916e+01    0.2056054    0.1446242  89.20 0.0006097911    1.185    0.156
        49  -9.7317    205.4552    181.3498   9.1757681686e+01   5.9831490737e+00    0.2629159    0.2078806  17.21 0.0009341781    1.307    0.235
        50  -8.7464    229.8168    177.3606   8.6664733644e+01   1.8816192669e+00    0.1893537    0.1049986  36.13 0.0009320237    1.651    0.394
        51 -10.5438     70.3780    170.9779   1.1656724302e+02   3.1497614469e+01     0.427166    0.2458131 -84.42  0.002404247    1.717    0.417
        52 -10.1646     43.4237    172.9438   1.2198678222e+02   3.4377808433e+01    0.2463628    0.1791142  72.43 0.0009059916    1.130    0.115
        53 -11.1117    229.1087    168.0977   8.4956423478e+01   3.2992145006e+00    0.4053879    0.2992145  33.09 0.0008434398    1.223    0.182
        54 -12.1804    221.0226    166.4789   8.6062925039e+01   5.1196476110e+00    0.7719703    0.6506048 -74.94  0.003786377    1.737    0.424
        55 -10.0812    150.5841    168.7419   1.0000578626e+02   1.8783931494e+01    0.3905874    0.2048777 -50.31  0.001815854    2.079    0.519
        56  -9.7203     87.9920    169.7261   1.1288939820e+02   2.9288686121e+01    0.2327372    0.1648247 -82.79 0.0006968355    1.327    0.247
        57 -13.0316    249.0092    152.4487   7.8288830378e+01   1.6101703686e+00     1.333949    0.7710828 -35.61  0.006660389    1.771    0.435
        58  -9.0172    106.8192    168.8602   1.0894008739e+02   2.6546798531e+01    0.1790699    0.1339775  76.94 0.0003997752    1.294    0.227
        59 -10.3521    163.1843    166.4254   9.7061706095e+01   1.6756193167e+01    0.3366257     0.260341 -89.80  0.001084192    1.645    0.392
        60  -9.6082    110.5340    167.0065   1.0790317392e+02   2.6306109561e+01    0.2488883    0.1623517  62.24 0.0007043955    1.499    0.333
        61 -10.4553    190.4793    163.9758   9.1236090014e+01   1.1680363686e+01    0.2472434     0.239306 -32.93 0.0003765037    1.135    0.119
        62 -10.1029    183.5439    163.3951   9.2464056295e+01   1.3192963321e+01    0.2909477    0.2207015 -85.91  0.001233842    1.920    0.479
        63  -9.3117    141.4247    163.2281   1.0090491443e+02   2.1558982536e+01    0.1862828    0.1276464 -66.89 0.0006578491    1.669    0.401
        64  -8.9955    153.6667    161.2977   9.8040634376e+01   1.9568989794e+01    0.1409303    0.1042338  78.11 0.0004139977    1.647    0.393
        65 -10.2029    214.0781    158.3250   8.5648974973e+01   7.7472212657e+00    0.3255068    0.1856057 -44.47  0.001242605    2.012    0.503
        66  -9.1121    101.2392    156.2097   1.0820342647e+02   3.0017214745e+01    0.1827755    0.1370505  83.51 0.0005497514    1.329    0.247
        67 -10.2291    228.3478    153.9815   8.2159768041e+01   5.4929901335e+00    0.2863564    0.2119565 -50.91  0.001334966    1.718    0.418
        68 -11.0825    247.3574    139.5119   7.5726741152e+01   3.7514074657e+00    0.3507172    0.3308335  36.40  0.001432767    1.193    0.162
        69  -9.7300     49.7930    149.0232   1.1824496518e+02   3.8573083951e+01    0.2832597     0.154206 -88.41  0.001089851    1.827    0.453
        70 -10.3783    182.1592    146.1775   8.9210810501e+01   1.6489663665e+01    0.2028446    0.1764276  85.88  0.001091508    1.355    0.262
        71 -12.8854    238.6378    136.4624   7.6503342233e+01   5.9831605462e+00    0.9374067    0.6435807  -5.29  0.004627127    1.662    0.398
        72 -10.6102    233.5177    129.9596   7.5885776038e+01   8.0491201539e+00    0.3068457     0.213532 -38.29  0.001053072    1.469    0.319
        73  -8.8810    137.5196    144.4698   9.8246660464e+01   2.5999399337e+01    0.1414941    0.1298766  76.86  0.000226542    1.034    0.033
        74 -11.7173    207.9020    131.5943   8.0900369052e+01   1.3395928619e+01    0.6473731    0.3778612 -40.66  0.002884291    1.769    0.435
        75 -11.0677    249.8628     91.6320   6.3926283327e+01   1.0275076032e+01      0.94998    0.2759744 -30.65  0.003067479    3.233    0.691
        76 -13.1777    248.9815    112.9150   6.9282268623e+01   7.3041968302e+00     1.615815    0.7984191 -20.12  0.005990831    2.356    0.576
        77 -11.7715    247.4324    100.0321   6.6382999076e+01   9.5654888499e+00     1.148466    0.2786373 -36.16  0.003539544    3.563    0.719
        78  -9.0394    140.0415    133.2804   9.5397977031e+01   2.7778316823e+01    0.2027401    0.1858553  68.06 0.0007157454    1.056    0.053
        79  -8.8558    192.5515    131.5667   8.3866936139e+01   1.6824751992e+01    0.1464884    0.1399489  29.81 8.966718e-05    1.004    0.004
        80 -10.5572    155.6548    126.3087   9.0376813928e+01   2.5949610711e+01    0.5111299    0.3349452 -73.66  0.002117788    2.305    0.566
        81  -8.6319     24.9976    130.5047   1.2154302512e+02   4.4996276964e+01    0.1541366   0.07149465  59.54 0.0007138712    2.393    0.582
        82 -10.5375     74.6001    125.7480   1.0929666316e+02   4.0534595522e+01    0.3730616    0.2147456 -61.28  0.001374743    1.535    0.349
        83  -8.6933    171.4774    126.4406   8.6988002945e+01   2.2471072058e+01     0.147739    0.1430262  59.09 0.0001158625    1.024    0.023
        84  -9.3261    139.9907    122.6203   9.3057453181e+01   2.9979083784e+01    0.2782121    0.2059005 -77.18  0.001322129    1.673    0.402
        85 -10.3068    119.4909    122.0263   9.7729468111e+01   3.4109739326e+01    0.3792827    0.2616734 -58.41  0.001027981    1.429    0.300
        86  -9.6121     98.4366    122.9808   1.0300308476e+02   3.7576972581e+01    0.3009568    0.1580113  60.29  0.001263737    2.486    0.598
        87 -10.9969    227.6778    119.0811   7.4317095828e+01   1.1029945466e+01    0.4982632    0.2280758 -44.30  0.001910545    2.425    0.588
        88  -9.0468    132.3080    122.6612   9.4845530298e+01   3.1516177742e+01    0.1500446    0.1121663 -89.24 0.0007042996    1.683    0.406
        89  -9.8170     82.4986    121.4569   1.0660877315e+02   4.0369008508e+01    0.2365893    0.1641561  82.49 0.0007022326    1.676    0.404
        90 -11.3604    250.1492    127.2058   7.2466874510e+01   4.9574516727e+00    0.9736394    0.2774834 -32.61  0.003283809    3.283    0.695
        91  -9.8899    218.4870    112.5161   7.4332996894e+01   1.4180026767e+01    0.3177758    0.1441402 -33.60  0.001213952    2.176    0.540
        92 -10.0870    192.6516    111.5148   7.8969592957e+01   2.0387595769e+01    0.3388735    0.2878299 -76.40 0.0009074531    1.423    0.297
        93 -12.2219    183.9676    104.9103   7.9020504704e+01   2.3637374272e+01    0.5726981    0.4617073 -82.34 0.0008276455    1.579    0.367
        94  -9.8101    136.4347    108.8317   9.0609632597e+01   3.3564772007e+01    0.3186993    0.2318558  80.46  0.001008176    1.840    0.457
        95  -9.6170    174.9251    107.0982   8.1476513703e+01   2.5360599387e+01    0.2214288    0.2200511 -55.24 0.0003302188    1.022    0.021
        96 -11.4715    236.5234    104.5457   6.9241023693e+01   1.1325178587e+01    0.4881354    0.3469758  31.71  0.002377533    1.524    0.344
        97 -10.9804     46.9829    102.9224   1.1235111263e+02   4.8908751855e+01    0.3894406    0.2251407 -67.19  0.001070139    1.441    0.306
        98  -9.4776     73.1858    102.2005   1.0521737369e+02   4.5936542329e+01    0.3048319    0.1343957  58.78  0.001066087    4.216    0.763
        99 -10.3987    131.9915     99.0186   8.9185155848e+01   3.6514782545e+01    0.3683304    0.2781238 -83.34  0.001020999    1.743    0.426
       100  -9.5830    227.1726     98.7341   6.9328604498e+01   1.4396392331e+01     0.272363    0.1866382 -40.92 0.0009342089    1.453    0.312
       101  -9.3396    119.2914     99.6458   9.2516516640e+01   3.8919336832e+01    0.1493957     0.112725 -82.06 0.0004954916    1.681    0.405
       102  -9.9738    235.1738     95.5781   6.7199500821e+01   1.3027671927e+01    0.2972055    0.2271443 -56.01  0.001277894    1.512    0.338
       103 -10.5792    149.2732     93.9524   8.3677061278e+01   3.3806798859e+01    0.3380967    0.2515673 -54.00 0.0005379618    1.414    0.293
       104  -9.6652    210.0440     93.9695   7.1080239852e+01   1.9268585802e+01    0.2819403    0.2166776  46.33 0.0003253697    1.310    0.236
       105 -11.2107    213.4515     89.9019   6.9385122484e+01   1.9114090404e+01    0.8800755    0.2455302 -37.84  0.002661847    3.307    0.698
       106  -9.2466    158.1917     92.2068   8.1143297136e+01   3.2108508989e+01     0.216277    0.1828963 -66.63 0.0007933657    1.321    0.243
       107  -9.0532     16.1459     92.6128   1.1896027552e+02   5.3831445275e+01    0.1329173    0.1063181 -15.91 0.0009500588    1.745    0.427
       108 -12.1790    243.1725     82.6684   6.2652339275e+01   1.3137693893e+01     1.165636    0.2408888 -37.52  0.003323698    4.008    0.751
       109 -10.8655    196.3998     82.0779   7.0351421346e+01   2.4641332734e+01     0.516706    0.2559166 -41.61  0.001076977    2.015    0.504
       110  -8.6013    167.6564     84.2832   7.6802229140e+01   3.1355522032e+01    0.1570251    0.1233683 -80.46 0.0006103296    1.638    0.390
       111 -10.1176    119.4686     82.5055   8.7841057319e+01   4.2441009101e+01    0.3114679    0.2340941 -45.51 0.0008255393    1.264    0.209
       112 -10.0727    121.7123     80.3280   8.6625646958e+01   4.2430356115e+01    0.3363269    0.2832417 -65.18  0.001039239    1.299    0.230
       113 -10.6179    147.1614     80.7530   8.0416814626e+01   3.6848004363e+01    0.4492461    0.3044977 -32.24  0.002029586    1.514    0.339
       114 -10.8860    249.4592     75.5573   5.9925133266e+01   1.2728509955e+01    0.4683649    0.2699652 -39.25  0.001177964    1.615    0.381
       115  -8.8022     16.9768     79.0194   1.1660082157e+02   5.6683077344e+01    0.1421085    0.1048937 -66.21 0.0005260606    1.020    0.020
       116  -8.9191    179.0158     77.7018   7.2505274579e+01   2.9743834236e+01    0.2160685    0.2004667  61.35 0.0004754007    1.104    0.094
       117 -10.2889    164.7227     78.8917   7.5871027042e+01   3.3050620453e+01    0.4238581    0.2930306 -85.46  0.001699859    2.284    0.562
       118  -9.6976    216.9236     73.6382   6.4368816062e+01   2.0871779375e+01    0.2681001    0.2127182 -15.16  0.001310474    1.340    0.254
       119  -9.9250    173.9807     72.9113   7.2125768008e+01   3.1833474305e+01     0.457794    0.2800774 -15.03  0.001778528    2.204    0.546
       120 -10.9134    183.0864     71.4212   6.9845343627e+01   2.9798477681e+01    0.4458254    0.3300942 -28.35 0.0007081072    1.371    0.271
       121 -11.4989    185.6315     62.4849   6.6685845991e+01   3.0619751440e+01    0.3525773    0.2972052 -25.52 0.0001673649    1.200    0.166
       122 -11.4212    165.5162     69.6547   7.2927287155e+01   3.4500416516e+01    0.8359097    0.2601782 -34.80  0.002510475    3.183    0.686
       123  -9.6790    151.1902     71.9387   7.6822426281e+01   3.7554436150e+01    0.2668403     0.223639  54.73 0.0006440969    1.228    0.186
       124 -11.7890    206.7141     68.7178   6.4712075151e+01   2.4221678550e+01    0.5267728    0.4294465 -79.19   0.00144781    1.443    0.307
       125  -9.0790    200.7288     86.3804   7.0736567524e+01   2.2834234991e+01     0.283346    0.2242424 -74.78 0.0007385006    1.580    0.367
       126 -10.3313    142.2522     68.5264   7.7873196637e+01   4.0255140402e+01    0.3548628    0.2874329 -76.70  0.001719284    1.563    0.360
       127 -10.9236    227.6317     65.9723   6.0576645066e+01   1.9375460509e+01    0.4734766    0.3447592 -13.47  0.002252859    1.528    0.345
       128 -10.5095    249.8522     66.6705   5.7598930232e+01   1.3915043648e+01    0.2649688    0.2419138  -5.44 0.0004429108    1.137    0.121
       129 -10.8133     47.4900     63.0044   1.0365452636e+02   5.7466065971e+01      0.30669    0.2016617 -62.41 0.0006318883    1.418    0.295
       130  -9.8634    161.7919     61.3164   7.1138264346e+01   3.6847495217e+01    0.3049874    0.2034837  -0.66  0.001229885    2.151    0.535
       131 -10.1748    122.0375     61.6150   8.0756907112e+01   4.5964295215e+01    0.2868304    0.1968786 -53.07 0.0008813696    1.625    0.385
       132  -9.0218      8.7646     62.5985   1.1618668224e+02   6.0648582530e+01    0.1247197    0.1013378  47.66 0.0005139431    1.601    0.376
       133 -10.6137    171.2957     59.3350   6.8527517875e+01   3.4791778015e+01    0.4132102    0.2614722 -55.29 0.0008685627    1.924    0.480
       134  -8.7475    112.2805     61.6639   8.3406046847e+01   4.7940657231e+01    0.1422654    0.1124853 -68.91 0.0003642433    1.617    0.381
       135 -10.2290     17.9893     58.7849   1.1239780236e+02   6.0863862733e+01    0.4048235    0.2163029 -87.67  0.001973126    2.989    0.665
       136  -9.7222    197.8651     58.8258   6.3375600828e+01   2.8035636085e+01    0.4295453    0.1896036 -36.81  0.001428387    2.168    0.539
       137  -8.7440     24.3186     60.3005   1.1063079905e+02   6.0101084218e+01    0.1195171   0.06960566 -40.11 0.0003167081    1.620    0.383
       138 -12.0100    107.7433     57.1872   8.3193396798e+01   4.9655918561e+01     0.295179    0.2637587 -29.32 0.0002751876    1.036    0.035
       139  -9.2772    249.5074     58.0066   5.5417956943e+01   1.5214034742e+01    0.2281678    0.1327278 -30.36  0.001036918    1.602    0.376
       140 -10.5474    227.3955     56.4964   5.8026138156e+01   2.0821523524e+01    0.4067597    0.2302265 -40.11   0.00118229    1.684    0.406
       141  -9.5388     77.5671     56.5962   9.2046430743e+01   5.4943217353e+01    0.2542578    0.1162445 -55.04  0.001035253    2.515    0.602
       142 -10.3461     51.3917     55.7749   1.0036390778e+02   5.8519266775e+01     0.410151    0.2871882 -13.82   0.00238359    1.780    0.438
       143 -11.7960    177.5210     52.9887   6.5311232565e+01   3.4203910905e+01    0.4198587     0.334554 -63.54 0.0005032484    1.442    0.306
       144 -10.6037    167.1780     50.3734   6.6513463109e+01   3.7258034067e+01    0.5085916    0.2558857 -26.80 0.0007617525    2.107    0.525
       145 -11.0393    248.7902     48.4806   5.3051665438e+01   1.6686048570e+01    0.3692517    0.2387661  -7.94  0.001457933    1.973    0.493
       146 -10.9467    121.0483     49.2490   7.6834918149e+01   4.8352971512e+01    0.4806058    0.3223041  66.92  0.002184636    2.012    0.503
       147  -9.5793     73.2307     50.2142   9.1350539686e+01   5.6805676701e+01    0.1720258    0.1480836 -60.99 0.0005634496    1.341    0.254
       148  -9.7124    235.3895     48.1876   5.4668370281e+01   1.9991000937e+01    0.2188282    0.1200544 -40.65 0.0006962634    1.713    0.416
       149 -10.3392    227.6816     44.7269   5.4753842923e+01   2.2394914432e+01    0.6184188      0.19966 -41.09  0.002077286    2.900    0.655
       150 -10.2996    188.8133     44.8996   6.0738406773e+01   3.2465065544e+01    0.3051462    0.2284635 -47.73 0.0004196198    1.390    0.281
       151  -9.0697    202.1789     45.4219   5.8686173515e+01   2.8885499296e+01    0.2118282    0.1450862  82.54 0.0009191597    1.722    0.419
       152 -12.1702    146.4001     39.6868   6.7320200804e+01   4.4051639489e+01    0.6344804    0.4226634 -64.39  0.001221334    2.169    0.539
       153 -11.1754     73.3420     42.7408   8.8728105400e+01   5.8168493517e+01    0.2626323    0.2206965 -31.13 0.0004715218    1.032    0.031
       154  -8.8396    163.4607     42.4956   6.4681941736e+01   3.9387553368e+01    0.1517351    0.1443484  22.55 3.669005e-05    1.038    0.036
       155 -10.9227     96.3405     39.2887   8.0172773918e+01   5.4935692659e+01    0.2745956    0.2376845 -23.68 0.0003675451    1.053    0.051
       156 -10.0217    188.6305     38.8386   5.8892090038e+01   3.3360597813e+01    0.2785755    0.2174889  31.46 0.0005980676    1.402    0.287
       157  -9.7331     89.5720     38.1931   8.1825263495e+01   5.6332730862e+01    0.2336345    0.2094419 -70.29  0.000704008    1.479    0.324
       158  -9.6519    194.8499     21.0543   5.2433909225e+01   3.3966746058e+01    0.2826714    0.2341579 -50.86 0.0005517558    1.240    0.193
       159 -10.7978    194.2843     37.3714   5.7517162150e+01   3.2069004388e+01    0.5278508    0.2999689 -35.44  0.001095706    1.727    0.421
       160  -9.7783    190.2725     31.3814   5.6307223620e+01   3.3914949937e+01    0.2821752    0.2168812   4.62 0.0006873832    1.538    0.350
       161 -10.9619    191.4734     26.9914   5.4758890428e+01   3.4149230161e+01    0.4696147     0.317007 -36.91  0.001732589    1.486    0.327
       162 -10.1940    194.5168     30.0648   5.5243590991e+01   3.2960085390e+01    0.4340545    0.2302939 -37.54   0.00112554    1.857    0.462
       163 -10.1131    195.4284     26.2383   5.3935966809e+01   3.3194661063e+01    0.4060137    0.2529432 -38.32  0.001353801    1.602    0.376
       164  -9.0753    165.4792     37.5257   6.2630972402e+01   3.9580547140e+01    0.2286616    0.1684655  34.14 0.0005933431    1.437    0.304
       165 -10.0764    162.6723     36.3309   6.2776866149e+01   4.0465351044e+01    0.3689187    0.2595094 -74.33  0.001207501    1.952    0.488
       166  -9.9949    225.1564     36.7694   5.2891319698e+01   2.4095611411e+01    0.2611239    0.1851594 -41.89 0.0006457166    1.357    0.263
       167  -9.8018    226.2442     30.6200   5.1053994354e+01   2.4602407031e+01    0.3874248    0.2733493   3.11  0.001827671    1.855    0.461
       168 -11.0691    180.0699     35.9878   5.9451662151e+01   3.5998832962e+01    0.4651186    0.3312043 -39.88 0.0004620801    1.428    0.299
       169  -9.9917    182.7016     32.6979   5.7952496055e+01   3.5743278567e+01    0.2759975    0.2159372  22.39 0.0006291345    1.446    0.308
       170 -10.3305    173.1501     36.0840   6.0714796158e+01   3.7795002750e+01     0.344998    0.3260236  -3.94  0.001162838    1.080    0.074
       171  -9.7432    200.3249     35.3011   5.5951421839e+01   3.0751004047e+01    0.2389054    0.2113651  26.60 0.0005263549    1.220    0.180
       172  -9.4705    215.4262     34.0345   5.3414665763e+01   2.6958399257e+01    0.2714486    0.1933847  46.56 0.0006356715    1.474    0.322
       173 -12.4935    214.5669    239.3976   9.9586278852e+01  -3.0004547792e+00    0.7674171    0.6957119 -70.92   0.00588988    1.693    0.409
       174 -11.4451    176.4053    240.6584   1.0594186341e+02   3.0938281013e+00    0.4290614    0.3592112  85.35   0.00184699    1.551    0.355
       175  -9.9901     79.6883    243.1689   1.2161186853e+02   1.7422106650e+01    0.1648421    0.1016594  76.96 0.0009293022    1.419    0.295
       176 -10.2316    208.3267     27.0254   5.2351162503e+01   2.9695240114e+01    0.2806529    0.2490915  18.08 0.0005559615    1.257    0.204
       177  -9.7634    117.9720     29.6277   7.0435366283e+01   5.2065932038e+01    0.2530281    0.1969994 -34.37 0.0004848002    1.295    0.228
       178  -9.5830    109.5210     29.9593   7.2811000446e+01   5.3807944345e+01    0.2116022    0.1294697 -30.85 0.0005980094    1.558    0.358
       179  -9.0017    171.4964     28.5120   5.8520280815e+01   3.9221366297e+01    0.1466369    0.1436803  78.77 -2.732725e-05    1.046    0.044
       180  -9.3442    103.8231     28.1921   7.3701473817e+01   5.5220524818e+01    0.1954192    0.1843228 -39.71  0.000611591    1.230    0.187
       181  -8.6211    163.6918     27.6764   5.9652419989e+01   4.1351101546e+01    0.1570048    0.1080835  27.52 0.0007036031    1.648    0.393
       182  -8.8646    176.5601     25.4818   5.6654454832e+01   3.8272841411e+01    0.1457377    0.1419466  53.70 6.320942e-05    1.009    0.009
       183  -9.6861    116.3738     24.8511   6.8992486236e+01   5.3070844106e+01    0.2124756    0.1924429  56.08 0.0004574351    1.239    0.193
       184  -9.3561    127.5180     23.5229   6.5730915068e+01   5.0754103265e+01    0.1430043    0.1307864  15.34 0.0001306608    1.010    0.010
       185 -10.5504    183.8854     21.4490   5.4178943994e+01   3.6823886915e+01    0.2533425    0.2397454 -10.68 0.0002857886    1.106    0.096
       186 -10.3226     73.2226     21.3118   8.0389245342e+01   6.1721852846e+01    0.2886882    0.2525944 -82.28  0.001163161    1.855    0.461
       187  -9.7950    123.4767     19.3313   6.5065570068e+01   5.2203266635e+01    0.2386462    0.1943916 -45.37 0.0006791804    1.408    0.290
       188  -9.2371     23.6047     18.2718   9.8403151013e+01   6.8217410386e+01    0.1878887    0.1162295 -14.41  0.001181604    1.755    0.430
       189  -9.3499     59.1744     17.1902   8.3610590677e+01   6.4432515225e+01    0.1875217    0.1418471 -13.12 0.0005761355    1.151    0.131
       190 -10.1738    165.0321     16.0689   5.5456118051e+01   4.2383048119e+01    0.2217202    0.2130118  59.19 0.0005877123    1.035    0.034
       191 -11.2798    122.3632    241.1290   1.1475988777e+02   1.1636162602e+01    0.2284124    0.1785938  49.78  0.001082263    1.207    0.171
       192  -9.4433     11.3234    216.5442   1.3029367452e+02   2.9637148482e+01    0.1983056   0.08530495  38.46  0.001289735    2.556    0.609
       193  -9.3807    245.6507    237.6793   9.4403991482e+01  -7.7401139042e+00    0.2130407    0.1317891  18.41  0.001393853    1.505    0.336
       194 -10.3613    249.6440    235.0999   9.3386636023e+01  -8.1094575611e+00    0.2300654     0.177477  24.49  0.001720262    1.071    0.067
       195 -10.1834    100.7388    232.4401   1.1741984424e+02   1.6158113964e+01    0.2296078    0.1108396  59.85 0.0009482678    1.797    0.443
       196  -9.4831     26.8313    233.1650   1.2883929050e+02   2.5320632265e+01    0.1207416   0.09614132  80.13 0.0009077411    1.345    0.256
       197  -9.1166    176.6418    230.3200   1.0457539898e+02   4.3691682549e+00    0.1753227     0.125698  69.23  0.001103143    1.708    0.415
       198 -10.6934    247.4897    226.4839   9.2374575306e+01  -6.9402451506e+00    0.3122422    0.2052909 -36.08  0.002018318    1.986    0.497
       199 -11.1974    249.3916    218.2449   9.0731729348e+01  -6.4076515987e+00    0.5578589    0.2087467 -34.58  0.002743002    3.108    0.678
       200 -11.4490    153.7604    225.4805   1.0782144117e+02   8.8823005634e+00    0.4389836    0.3918139 -49.75  0.003254635    1.434    0.303
       201 -10.6351    150.4281    219.8225   1.0768075515e+02   1.0271551859e+01    0.3847144    0.2887218  55.11  0.002084899    1.095    0.087
       202  -9.9194    181.4785    222.9807   1.0275920441e+02   4.5124854130e+00    0.2845565    0.2047817  58.72  0.001067795    1.406    0.289
       203  -9.9472    177.0194    218.8134   1.0293890967e+02   5.8493019774e+00    0.2500266    0.2052235  80.90 0.0005402068    1.526    0.345
       204 -11.0944    209.5291    223.5451   9.8103101366e+01  -3.7312820305e-01    0.6110553    0.3851842 -54.10  0.003502325    2.539    0.606
       205 -10.6089    120.0985    218.2024   1.1273877864e+02   1.5490678364e+01    0.2752863    0.2011059  82.60 0.0006881746    1.395    0.283
       206 -11.4368     35.4012    215.7054   1.2657649051e+02   2.7315510069e+01    0.3350006    0.2772502  74.01  0.001559514    1.329    0.247
