#   1 NUMBER                 Running object number                                     
#   2 MAG_AUTO               Kron-like elliptical aperture magnitude                    [mag]
#   3 X_IMAGE                Object position along x                                    [pixel]
#   4 Y_IMAGE                Object position along y                                    [pixel]
#   5 X_WORLD                Barycenter position along world x axis                     [deg]
#   6 Y_WORLD                Barycenter position along world y axis                     [deg]
#   7 A_WORLD                Profile RMS along major axis (world units)                 [deg]
#   8 B_WORLD                Profile RMS along minor axis (world units)                 [deg]
#   9 THETA_WORLD            Position angle (CCW/world-x)                               [deg]
#  10 FWHM_WORLD             FWHM assuming a gaussian core                              [deg]
#  11 ELONGATION             A_IMAGE/B_IMAGE                                           
#  12 ELLIPTICITY            1 - B_IMAGE/A_IMAGE                                       
         1 -15.0288      6.4575     71.1444   7.6416930503e+01   6.2996612863e+01     1.270032    0.7909794 -60.71  0.005400623    1.331    0.249
         2 -12.9921    120.5665     25.8789   1.3536387444e+01   5.1714543484e+01    0.7929646    0.6228697  21.21  0.004155159    1.527    0.345
         3 -14.6671    119.7511     54.2688   2.4247163832e+01   4.7859390286e+01     1.214507    0.8071991  44.27  0.002026546    1.533    0.348
         4 -13.2782    136.1507     50.8674   1.9259695964e+01   4.4254764374e+01      1.67356    0.4640314 -35.17  0.005161008    3.488    0.713
         5 -13.0037    229.7695      2.7359   3.5514102735e+02   2.7726255326e+01      0.86408    0.2691831  78.06  0.003856595    3.135    0.681
         6 -15.3150    217.7244     17.4312   3.5918091418e+02   2.8716681846e+01     2.092395    0.9360223 -36.21   0.01050905    1.906    0.475
         7 -15.0342    189.7642     24.1778   3.1917905449e+00   3.4323734728e+01     1.505027    0.9059908 -57.38   0.00670177    1.528    0.346
         8 -13.7370    187.8636     11.8749   8.8464100171e-02   3.6129460239e+01    0.6621153     0.548694 -35.39  0.004134315    1.294    0.228
         9 -12.1494      3.0608      5.4062   5.6355115549e+01   7.7610374470e+01     0.232094     0.180191 -16.57 0.0003697856    1.030    0.029
        10 -12.7364      7.7112      2.3418   5.0126747795e+01   7.7689887136e+01    0.4598466    0.3394797 -15.96  0.001697695    1.121    0.108
        11 -15.9909     11.2374     23.2329   5.9243695121e+01   7.3621434607e+01     2.122927     1.093367 -32.73   0.01093334    1.803    0.445
        12 -14.2160     26.4682     12.8044   4.2589614849e+01   7.3739956107e+01    0.8346982     0.535258  -1.00  0.003725443    1.742    0.426
        13 -11.6927    245.5157     29.5052   3.5996714119e+02   2.1629868872e+01    0.3321169    0.1891137 -39.81  0.001963955    1.413    0.292
        14 -14.8765    166.6673     29.2890   7.2319410402e+00   3.9398294624e+01     1.072513    0.9127291  89.72  0.003611224    1.076    0.071
        15 -14.2236    122.3124     36.8036   1.7271966035e+01   4.9865981732e+01     1.247247    0.6099153  38.79  0.002969969    2.617    0.618
        16 -13.4515     57.9288     26.7514   3.3242122684e+01   6.6288702013e+01     1.106883    0.3579105  42.54  0.003015017    2.943    0.660
        17 -14.6871    147.7878     29.6175   1.0014309455e+01   4.4193802824e+01     1.446645    0.7874354  69.57  0.004973672    1.735    0.424
        18 -11.6637    108.9478      1.5229   6.0464623910e+00   5.7099530005e+01    0.1974057    0.1893768 -26.76 0.0003301535    1.188    0.158
        19 -15.3753     99.4827     11.6809   1.2236401574e+01   5.8626779526e+01     1.613158    0.9244497  58.19    0.0036252    1.511    0.338
        20 -11.7634     71.0744     16.0971   2.2410622497e+01   6.4956390436e+01    0.4038151    0.2360339 -15.03  0.001922973    2.001    0.500
        21 -11.9812     74.5081     10.4595   1.8328752695e+01   6.4791207669e+01    0.3920356    0.2625437 -11.25  0.001716313    1.676    0.403
        22 -12.2629     60.1879     15.2957   2.6134075128e+01   6.7404636413e+01    0.5831712    0.3111344  31.67  0.002567721    2.022    0.505
        23 -15.0039    212.3411     40.8055   5.2295477981e+00   2.7079830718e+01      2.19275    0.7199365  77.82  0.007510982    4.295    0.767
        24 -11.5424    175.9261     13.8218   1.6954533960e+00   3.8825575247e+01    0.2251079    0.1667326 -57.04 0.0002554071    1.225    0.183
        25 -12.0367     46.7531     12.9280   3.0859680749e+01   7.0364781879e+01    0.3363297    0.2807558  52.81  0.001312435    1.397    0.284
        26 -12.1334    123.0260     10.7279   7.3304188461e+00   5.2682531088e+01    0.3815792    0.2430148 -62.00  0.001216008    1.769    0.435
        27 -11.9860    152.8595      8.4369   2.4865558417e+00   4.5168935991e+01    0.2877171    0.2311842  62.44 0.0009411599    1.237    0.191
        28 -10.7562     80.3638      6.9675   1.4799109382e+01   6.3754512680e+01    0.2018786    0.1613569 -44.38 0.0008820657    1.458    0.314
        29 -12.2120    120.6304      3.2038   4.8477240047e+00   5.3959536983e+01    0.6204284    0.2753167 -86.93  0.002303498    3.052    0.672
        30 -10.5194    176.5609      4.5059   3.5903012861e+02   3.9592078883e+01    0.1320087    0.1095445 -74.21 0.0001001424    1.018    0.017
        31 -12.5165     85.5368     13.8692   1.6742316186e+01   6.1841416526e+01    0.4714828    0.4234761 -31.93  0.001859623    1.235    0.190
        32 -14.0954     41.4407      5.0999   2.8641930561e+01   7.2314701339e+01    0.9836622    0.6152798   9.37  0.004694369    1.823    0.451
        33 -11.0819     67.6750      2.6884   1.6332700951e+01   6.7090021231e+01    0.3063865    0.1741901  33.10  0.001522636    1.761    0.432
        34 -11.9004     80.3403      1.7567   1.2170582668e+01   6.4207142405e+01    0.6833211   0.08673152  59.27  0.002046889    4.233    0.764
        35 -11.3800     61.3667      1.4912   1.7777515184e+01   6.8606530878e+01    0.3802284    0.1189404  60.21  0.001426246    3.004    0.667
        36 -11.1940    109.3363    183.3223   6.0095087117e+01   2.1312454348e+01    0.1464743     0.112003 -10.33 0.0007050558    1.712    0.416
        37 -11.8041    209.6415    249.5706   4.8843432768e+01  -4.5590427111e+00    0.2164696    0.1293748  10.08  0.001388069    1.435    0.303
        38 -14.6512     95.1929    235.5072   7.0161245331e+01   1.2760962719e+01     1.695728    0.8701716  62.54  0.007722186    2.759    0.638
        39 -11.5166    109.5437    243.1217   6.7841747687e+01   9.4609602247e+00    0.3538275    0.2522839  48.82  0.001451465    1.321    0.243
        40 -12.5070     51.4874    248.3378   8.0596530150e+01   1.5894213811e+01    0.4587448    0.3596959  29.37  0.003179679    1.313    0.239
        41 -12.6620     57.4553    246.6316   7.9242521662e+01   1.5509683376e+01    0.5319858    0.3460576  26.66  0.003220666    1.517    0.341
        42 -11.7957     41.0683    248.0854   8.2726721685e+01   1.7118164682e+01    0.4549252     0.198021 -86.76  0.002349371    2.723    0.633
        43 -13.1289     28.1608    246.5137   8.5272294528e+01   1.8796808019e+01     0.550948    0.4479105  34.55  0.003396725    1.303    0.233
        44 -12.2249      2.8401    249.6276   9.0356903989e+01   2.0692906683e+01    0.3145596    0.1764733  47.91  0.001724573    1.266    0.210
        45 -14.0298      9.3517    245.5730   8.8977878106e+01   2.0840308983e+01    0.9441292    0.3650264  47.73  0.004091478    1.771    0.435
        46 -13.4204    197.4729    179.5053   3.9447912589e+01   7.2378073386e+00    0.6491648    0.4479041 -69.45  0.002869753    3.230    0.690
        47 -13.0109     85.2680    179.9668   6.5901543729e+01   2.5883162395e+01    0.4420067    0.2921891  74.48  0.002045572    1.869    0.465
        48 -11.8917    131.0183    173.1958   5.2879150191e+01   1.9845700585e+01    0.2628774    0.2264369 -48.12  0.001417664    1.229    0.186
        49 -13.0412    124.6093    167.7953   5.3495481627e+01   2.2171717169e+01    0.7055337    0.2843901 -51.42  0.002582993    2.586    0.613
        50 -11.4818     27.9795    158.9751   7.9572520968e+01   3.8391528567e+01    0.2203804    0.1840103  74.63 0.0008798004    1.054    0.052
        51 -12.0143     23.8061    158.5448   8.0752838556e+01   3.8898325004e+01    0.2784687    0.2248076 -63.60   0.00162605    1.279    0.218
        52 -12.3511     77.2899    156.9044   6.4656052930e+01   3.2750808942e+01    0.5072779    0.4073188  10.30  0.001365163    1.499    0.333
        53 -13.4695     74.0063    153.2996   6.5048702514e+01   3.4165272973e+01     0.798887     0.580667  31.99  0.002040316    1.393    0.282
        54 -12.7686    208.4577    154.0001   3.2304048239e+01   9.7479359255e+00    0.6500152    0.4374883  31.52  0.003483309    1.582    0.368
        55 -11.8813     89.8446    169.8529   6.3142312030e+01   2.7590763070e+01    0.2783645    0.1760188  25.79  0.001231035    1.699    0.411
        56 -11.5180     55.4996    155.9843   7.1027728287e+01   3.6054608016e+01    0.3596509    0.2378926  -8.02  0.001557711    2.385    0.581
        57 -11.9167     85.7771    152.6862   6.1436881246e+01   3.2483487589e+01     0.564384    0.2896003 -44.84  0.002208473    2.219    0.549
        58 -11.7386     13.3602    151.7179   8.3262280368e+01   4.1547233408e+01    0.2810304    0.1729388  60.95 0.0007100095    1.520    0.342
        59 -12.6741      7.7163    148.7918   8.4722343617e+01   4.2725059253e+01    0.6152474    0.3788683  65.41   0.00327122    1.500    0.333
        60 -10.9759     12.6671    148.6766   8.3232596093e+01   4.2383785030e+01    0.2261452    0.1642719 -58.07  0.001012802    1.419    0.295
        61 -11.8034    103.5550    149.6806   5.5706878195e+01   3.0196230822e+01    0.4009566    0.3031966 -20.61  0.001664974    1.718    0.418
        62 -12.0795     62.9972    146.0059   6.7253044734e+01   3.7649045773e+01    0.2470859    0.1996565  68.28  0.001267945    1.245    0.197
        63 -10.6503     38.1748    145.8118   7.5058858010e+01   4.0772143999e+01    0.1907171    0.1602095 -45.02 0.0004703758    1.333    0.250
        64 -12.3335    111.6126    155.4692   5.4588569359e+01   2.7352948719e+01    0.5865435     0.377618  81.28  0.002230694    2.660    0.624
        65 -12.3843    246.5380    133.3177   2.2005991599e+01   6.8612549181e+00    0.4247032    0.3015429 -42.45   0.00259798    1.316    0.240
        66 -14.1675    232.7243    127.5221   2.2752819647e+01   9.9864164896e+00      1.30524    0.6158733 -44.18  0.006096637    1.971    0.493
        67 -12.5875     43.8392    132.8844   7.1457027117e+01   4.3576254549e+01    0.4153489    0.2608862 -61.17  0.001619824    1.485    0.327
        68 -10.3813     10.5931    133.8349   8.2649737386e+01   4.6399182519e+01    0.1831215    0.1104657  84.04  0.000374781    1.543    0.352
        69 -12.4874    136.6464    131.8067   4.2742022485e+01   2.7980848789e+01    0.7417194    0.3125786  41.41   0.00260435    2.389    0.581
        70 -11.0148      5.4813    128.5309   8.3874273407e+01   4.8128590985e+01     0.316438    0.1466576 -45.28  0.001386906    2.424    0.588
        71 -14.3288    104.8039    121.3374   4.9102359676e+01   3.6929402364e+01      1.94055     1.274476  34.88  0.008338388    1.580    0.367
        72 -14.7180    106.1961    104.4989   4.4295164863e+01   4.0698142901e+01     1.587422      1.44178  60.69  0.008015314    1.135    0.119
        73 -10.7790     59.1421    124.8874   6.4865145108e+01   4.3771349227e+01    0.2083724    0.1698126 -41.89 0.0005340969    1.307    0.235
        74 -12.7857    180.0331    120.6352   3.0158085648e+01   2.1171995361e+01    0.5901579    0.2744674  44.38  0.001891206    2.292    0.564
        75 -12.7317      5.0928    118.6415   8.3141728320e+01   5.0746506464e+01    0.7745653    0.4751998 -48.68  0.004036956    1.657    0.396
        76 -12.0198     42.5741     90.3601   6.3915532410e+01   5.5014009792e+01    0.4198278    0.2882971 -62.75 0.0005423555    1.365    0.268
        77 -13.0607     21.0184     86.2032   7.2406648278e+01   5.8217406944e+01    0.7566368    0.4747338   4.55  0.003740085    1.897    0.473
        78 -14.6492     25.1543     93.9401   7.2060213490e+01   5.5861015308e+01     1.641772    0.9802161   1.21  0.007611393    2.126    0.530
        79 -14.2568     18.3816    110.9224   7.7429574632e+01   5.1905031185e+01    0.9142718    0.7418537 -47.49   0.00360541    1.247    0.198
        80 -13.6426      2.2848     96.9716   8.1988317274e+01   5.6575002294e+01     1.053644    0.3506695 -76.74  0.003538261    2.560    0.609
        81 -12.9325     84.5169    114.9766   5.4027245385e+01   4.2335304907e+01     1.012771    0.6057354  24.31  0.003419979    2.039    0.510
        82 -12.2137     78.6221    110.7916   5.5022602151e+01   4.4435108992e+01    0.3890061    0.2980976 -53.84  0.001850123    1.271    0.213
        83 -11.9750     88.3624    109.4991   5.1375356494e+01   4.3015276598e+01    0.5738876    0.3302777 -57.50  0.002036387    1.777    0.437
        84 -12.1124    186.3030    115.9226   2.7803886728e+01   2.0752214140e+01    0.2455461    0.2077378  68.52 0.0008099789    1.380    0.275
        85 -12.5015    121.4052    111.9489   4.1839575248e+01   3.5729657933e+01    0.3944077    0.3153882  75.48  0.001188113    1.515    0.340
        86 -11.6947     62.9910    110.4583   6.0523450321e+01   4.7033968275e+01    0.9384773    0.4021321 -69.50  0.003094944    2.978    0.664
        87 -11.0856     64.5262    101.5469   5.7851443377e+01   4.9114861161e+01    0.2940717    0.2415554 -40.80 0.0005301186    1.232    0.189
        88 -12.2551     61.8749     98.4990   5.8102236647e+01   5.0302879081e+01    0.5667536    0.3768592 -85.66  0.002389773    2.040    0.510
        89 -11.8608    177.1646    110.4095   2.8197330008e+01   2.3729849352e+01    0.3630452    0.2225355 -29.96  0.001579294    1.733    0.423
        90 -11.2456     45.9467    110.2863   6.6842527759e+01   4.9377662804e+01    0.3619946    0.2059482 -62.42  0.001596088    1.611    0.379
        91 -12.6991    223.5612    128.3297   2.4303435240e+01   1.1429935787e+01    0.6958063    0.4671079 -67.12   0.00334743    2.424    0.587
        92 -14.0518     10.6394    102.6945   7.9347038474e+01   5.4618251708e+01    0.8286763    0.7338133  31.13  0.004663545    1.276    0.217
        93 -12.6243    136.0654    102.9114   3.5437609694e+01   3.4480967915e+01    0.6596842    0.3614877  47.11  0.001801517    1.845    0.458
        94 -13.1945    137.4068     95.1107   3.2890660488e+01   3.5815798829e+01    0.5705072    0.4781838 -85.06  0.001480366    1.388    0.279
        95 -13.5167    120.0620    102.2261   3.9556081900e+01   3.8232769269e+01    0.7410647    0.3846181  43.16  0.002819148    1.950    0.487
        96 -12.6440     50.2015     98.7096   6.2733835038e+01   5.1896630246e+01    0.8162127     0.533353   0.47   0.00286007    2.104    0.525
        97 -11.8331     48.9982     93.2392   6.1927519233e+01   5.3471138073e+01    0.4648488    0.3245037  77.98  0.002108468    1.897    0.473
        98 -12.5675    249.2899     97.9062   1.4270619896e+01   1.1702177955e+01    0.4466178    0.1600205 -39.09   0.00197956    2.162    0.537
        99 -12.1878    163.1318     97.8697   2.7770360611e+01   2.9272916667e+01    0.4271278    0.3157185  60.44 0.0006001419    1.454    0.312
       100 -13.3462     32.3406    111.9777   7.2302339672e+01   5.0412565973e+01     1.026339    0.3561274 -60.55  0.003834611    2.387    0.581
       101 -11.6791    129.4707     95.9889   3.5188344382e+01   3.7472056139e+01    0.3133901    0.2286483  65.76   0.00137624    1.585    0.369
       102 -11.3442    100.6063     89.3084   4.1638393246e+01   4.5391977844e+01    0.3798115    0.1912869  43.11  0.001430289    1.995    0.499
       103 -12.2544     36.8102     92.8206   6.6909487848e+01   5.5028954787e+01    0.4269299    0.3005361  -2.95  0.001344102    1.743    0.426
       104 -14.8837    214.4290     77.2201   1.3860629698e+01   2.1431738862e+01     4.406567     1.559466  71.64     0.012605    6.181    0.838
       105 -14.3589    188.5765     82.7762   1.9017252228e+01   2.6166560374e+01     1.533201     1.030643 -86.16  0.006961654    2.035    0.509
       106 -14.3968    198.8951     69.9786   1.4146269951e+01   2.5916198056e+01     1.181653    0.8988709  34.99  0.006226427    1.700    0.412
       107 -14.7868    160.5169     80.8419   2.3558411438e+01   3.3079440226e+01     2.256829     1.440301 -11.20  0.005274279    2.585    0.613
       108 -14.5393    169.4335     76.8332   2.0708477634e+01   3.1646464408e+01    0.9801641    0.8210783  10.83  0.003188197    1.528    0.345
       109 -12.8254    242.2757     83.5823   1.1982742326e+01   1.5035238648e+01    0.4071446    0.2193801  60.71  0.002140837    2.242    0.554
       110 -13.4247    237.5812     80.1163   1.1742059272e+01   1.6409076157e+01    0.4723389    0.3523057 -88.58  0.002406721    1.628    0.386
       111 -12.9113     28.2892    122.0781   7.5300681132e+01   4.8090571643e+01     0.519944    0.3548198 -55.36  0.002382747    1.397    0.284
       112 -12.0741     39.9250     67.5240   5.8942965782e+01   6.1010047328e+01    0.9555904    0.3852505  26.70  0.003702671    2.650    0.623
       113 -13.8875     53.7699     67.0810   5.2324640170e+01   5.9205265908e+01     1.554881     1.170244  -5.36  0.007726016    1.565    0.361
       114 -13.4192     66.3485     49.1271   3.9940882487e+01   6.0829197054e+01     1.077623    0.6804625 -37.28  0.005088038    1.592    0.372
       115 -13.9483     88.8231     62.7198   3.6645146543e+01   5.3598492645e+01     1.496112    0.8803376 -16.57   0.00484458    2.998    0.666
       116 -13.0502     70.7463     75.3626   4.7894503231e+01   5.4483235441e+01    0.6259753    0.4663883  -4.02  0.001853479    1.737    0.424
       117 -12.5510     77.6221     72.3425   4.4194410914e+01   5.3880011634e+01    0.8177704    0.4038391 -33.89  0.002626535    2.540    0.606
       118 -12.9627     55.2211     80.9852   5.6056035863e+01   5.5690890853e+01    0.6151716    0.4524879 -37.09   0.00234252    1.373    0.271
       119 -13.8455     61.1804     75.8684   5.1975626070e+01   5.5999038550e+01    0.8346889    0.5423036 -37.75  0.001492731    1.586    0.369
       120 -11.9166    114.2087     79.8282   3.4480359620e+01   4.4409014193e+01     0.485143    0.3571202 -50.27  0.001711468    1.394    0.283
       121 -12.8052    135.3587     79.1757   2.8635537391e+01   3.9499746056e+01     0.853832    0.4119448  54.30  0.002912097    2.104    0.525
       122 -11.5009     42.6705     79.3213   6.1074675213e+01   5.7800125452e+01    0.3719335    0.2419395 -72.43  0.001497563    1.726    0.421
       123 -11.3658     41.6785     75.8826   6.0575820252e+01   5.8772584402e+01    0.3561138    0.2875963 -87.95  0.001529789    1.477    0.323
       124 -14.6442    170.3363    242.1866   5.5153430484e+01   1.3245801714e+00     1.152852    0.7108376  21.06  0.006923886    1.371    0.271
       125 -14.1998      5.2467     63.4016   7.5561610231e+01   6.4977092322e+01    0.6927022    0.6247361 -12.70  0.003722992    1.203    0.169
       126 -11.5796     27.4068     76.1172   6.7304854355e+01   6.0248888134e+01    0.3649915    0.2465985  84.15  0.001469885    1.919    0.479
       127 -12.0700    241.6250     70.8839   9.2686251928e+00   1.6979178210e+01    0.3889778     0.205265 -67.98  0.001795112    2.642    0.621
       128 -13.1164    133.8729     65.9608   2.4787990200e+01   4.2316513164e+01    0.8980003    0.7207938  19.85  0.003040166    1.561    0.359
       129 -11.8807     99.8431     64.0393   3.3456080356e+01   5.0885630159e+01    0.6126875    0.4519429  44.01  0.002905393    1.336    0.252
       130 -12.9377     79.0233     60.0212   3.9201389968e+01   5.6196877829e+01     0.729825    0.4972031 -50.75  0.003392655    1.577    0.366
       131 -11.6579     84.1962     52.1006   3.4192296092e+01   5.6625611806e+01    0.7905019    0.3941683 -23.11  0.002682166    3.272    0.694
       132 -14.2063    177.9857     56.8108   1.3634032498e+01   3.2824320535e+01    0.9972866    0.6111971 -49.50  0.002918951    1.557    0.358
       133 -12.2817     36.4303     54.2029   5.6278106752e+01   6.4509818652e+01    0.3663529    0.2103803 -34.36  0.001282907    1.787    0.440
       134 -11.2171     34.4512     60.5643   5.9469339362e+01   6.3296370062e+01    0.4933112    0.1967516 -46.66  0.001971978    2.247    0.555
       135 -11.7139     38.7674     59.7750   5.7013924173e+01   6.2961903146e+01    0.3470327    0.2636398  72.88  0.001744396    1.908    0.476
       136 -11.9206     24.8743     59.2095   6.4060034837e+01   6.4608822141e+01    0.4959244    0.2370548 -47.70  0.001922523    1.813    0.449
       137 -11.9272     27.9051    235.4992   8.4798530689e+01   2.0932469401e+01    0.4661483    0.2799219 -53.58  0.002737001    2.281    0.562
       138 -12.8841     25.0569    217.1863   8.4468703640e+01   2.4966043147e+01     1.356807   0.09855613  42.33   0.00466611    4.051    0.753
       139 -14.1518     26.2171    226.5545   8.4707205164e+01   2.2897783860e+01     1.307639     0.530724 -55.67  0.006084525    3.291    0.696
       140 -12.6242    110.1227     41.9498   2.2149492690e+01   5.2216010436e+01    0.6012504    0.2320722  54.44 0.0009254524    2.370    0.578
       141 -13.2927    113.6356     38.0338   1.9749355232e+01   5.1905717532e+01    0.4243393    0.3792255  70.95  0.001397447    1.089    0.082
       142 -13.0603    131.6060     33.2000   1.4049399525e+01   4.7945292332e+01    0.5698186    0.4437257  -5.83  0.001662708    1.597    0.374
       143 -12.9179    248.3402     52.2210   4.5980933864e+00   1.8260063720e+01    0.6677608    0.3219551 -34.21  0.003492832    1.753    0.429
       144 -12.5658    100.9403     43.3281   2.5224665285e+01   5.4259079067e+01    0.6554542     0.377518  43.86  0.001989584    1.719    0.418
       145 -13.5224    103.2611     50.3772   2.7309285123e+01   5.2554952967e+01     0.724582    0.4500805 -29.38  0.001022089    1.767    0.434
       146 -13.3277     97.9828     49.8110   2.8682038817e+01   5.3905042677e+01    0.6287217    0.4776964 -45.98  0.001813081    1.396    0.284
       147 -11.2422     17.7861     55.1630   6.6745445418e+01   6.6170453415e+01    0.3330878    0.1794385 -68.82   0.00156906    1.917    0.478
       148 -11.8789    230.8763     54.9255   6.7625565168e+00   2.1286150448e+01    0.3512172    0.1936066  77.25  0.001805413    2.127    0.530
       149 -10.6409     23.6637     49.9710   6.1797808265e+01   6.6856005395e+01    0.1884592    0.1488005 -46.28 0.0004235823    1.131    0.116
       150 -11.7656    201.8484     46.8293   7.8370317610e+00   2.8629605801e+01    0.1938289    0.1883104 -59.38 0.0008035543    1.186    0.157
       151 -12.6236    154.7690     46.0281   1.4142839638e+01   4.0209713960e+01    0.4073885     0.319926  51.18  0.002112703    1.333    0.250
       152 -13.3708    158.2605     43.0065   1.2623920724e+01   3.9746987952e+01    0.7380174    0.6354335  41.07  0.004047771    1.327    0.246
       153 -11.6896     38.9152     46.4139   5.1987781038e+01   6.5871047086e+01    0.2374463    0.1943272 -62.36 0.0008392574    1.438    0.305
       154 -13.8049     20.7618    224.2921   8.5778227566e+01   2.3914029768e+01    0.6206532    0.5374098  58.43    0.0029817    1.159    0.137
       155 -13.0937    237.0824    230.0661   4.1190578276e+01  -5.3412877194e+00    0.4768864    0.3564803 -30.17   0.00346808    1.555    0.357
       156 -12.5758    144.9821    231.9952   5.8934089762e+01   6.3865958378e+00    0.3101616    0.2171428 -46.97  0.001861493    1.705    0.413
       157 -11.7568    109.4937    249.0361   6.8470900010e+01   8.4692217135e+00    0.3979596    0.2396173  44.79   0.00233624    1.441    0.306
       158 -13.3159      6.4128     42.8965   6.9913922241e+01   6.9771588101e+01    0.9365113    0.4053404  12.66  0.004363507    2.508    0.601
       159 -13.7183     66.4200    223.0381   7.5452516109e+01   1.8979996742e+01    0.8729625    0.6539106  43.80  0.005391639    1.102    0.092
       160 -13.2991     59.3322    212.9490   7.6221814269e+01   2.1983515690e+01    0.5459034    0.3748731  -8.22  0.001129581    2.433    0.589
       161 -13.1426     57.6343    201.7918   7.5619168201e+01   2.4645788720e+01     1.564369     0.612371 -74.13  0.006433699    2.855    0.650
       162 -13.3024     94.2544    218.3309   6.8523798416e+01   1.6184687609e+01    0.4888459    0.2727501  31.75  0.002319309    1.578    0.366
       163 -11.1168     25.8402     44.1092   5.8433380900e+01   6.7932533763e+01    0.1923372    0.1891158 -71.36   0.00124196    1.243    0.195
       164 -12.7874     46.0339     33.1287   4.2251059519e+01   6.7378025119e+01    0.5849374    0.4804344 -13.61  0.003415063    1.157    0.135
       165 -12.4587     36.7713     34.3468   4.7896063092e+01   6.8570584057e+01    0.4916778    0.2587621  11.18   0.00198105    2.907    0.656
       166 -11.9853     40.1574     40.2613   4.8712724176e+01   6.6946725330e+01    0.5585061    0.3133246  32.62  0.002695887    1.797    0.443
       167 -12.8240     32.9669     40.4170   5.2799294919e+01   6.7885038490e+01    0.3568942    0.2952915  -4.43 0.0006788208    1.150    0.131
       168 -12.7121     75.8856     37.0569   3.0837118082e+01   6.1001407621e+01    0.5912824    0.3595956  49.94  0.001229505    1.600    0.375
       169 -11.6280     70.9497     36.0000   3.2255763923e+01   6.2218327028e+01    0.3050486    0.1929849  47.45  0.001048393    1.532    0.347
       170 -13.5112    242.0188     35.7709   1.5543971659e+00   2.1552266405e+01    0.6940528    0.4207624 -82.66  0.002877357    1.746    0.427
       171 -13.6120     64.5277    214.2633   7.5106835289e+01   2.1046342745e+01    0.4973553    0.3124431  44.69  0.002679311    1.327    0.247
       172 -10.7558      5.5721    219.2680   8.8843886022e+01   2.6387897649e+01    0.1489675   0.09786075 -77.40 0.0007634881    1.577    0.366
       173 -12.4902    181.5726    215.6954   4.8962879055e+01   3.7535490331e+00    0.2620356    0.1653531 -17.66  0.001425242    1.740    0.425
       174 -12.0764     85.6023    215.6011   7.0249713029e+01   1.7950960227e+01     0.271864    0.2059913  52.56  0.001593551    1.195    0.163
       175 -13.3903    148.2923    239.4023   5.9227034145e+01   4.7337927664e+00     0.631996    0.3805155  58.08  0.003096089    2.804    0.643
       176 -11.0094     97.8512     26.7535   1.9206090026e+01   5.7359211334e+01    0.3239714    0.2668316 -81.29  0.001733765    1.429    0.300
       177 -12.3736     30.7708     25.2997   4.6962930928e+01   7.1062148512e+01    0.4448974    0.2427218  17.87  0.001690614    2.104    0.525
       178 -11.5957     36.1169     22.9318   4.2459178418e+01   7.0696645251e+01    0.3320081    0.2038874 -24.87  0.001296013    1.680    0.405
       179 -12.4369      5.3625    209.4940   8.8521352633e+01   2.8478880770e+01    0.3297425    0.1776387 -55.23  0.001782328    2.402    0.584
       180 -11.6865    136.7189    210.9155   5.7756599659e+01   1.1297748493e+01      0.22208    0.1918616 -84.99  0.001177092    1.543    0.352
       181 -11.0116     51.1967     20.3952   3.2986689047e+01   6.8512226964e+01    0.3963511    0.1376842  41.34  0.001526563    2.728    0.633
       182 -11.8912     45.7436     20.1263   3.5564483691e+01   6.9547654767e+01    0.5070652     0.253918  37.53  0.002388201    1.900    0.474
       183 -12.3222    104.8586     36.1998   2.1265777703e+01   5.4362959988e+01    0.5253178    0.2239614 -23.88  0.001865769    3.025    0.669
       184 -12.5846     46.6617    208.8821   7.8904386693e+01   2.4399333746e+01    0.5062461    0.2165967  67.52  0.002079899    2.877    0.652
       185 -11.3228     80.3387    208.1890   7.0696776591e+01   2.0235123837e+01    0.2796029    0.1332313  51.83  0.001228262    2.096    0.523
       186 -13.0538     71.6921    206.7754   7.2651137678e+01   2.1718211083e+01    0.5070874    0.2479302  36.86  0.002392565    1.732    0.423
       187 -11.0956    151.7105    206.1337   5.3681007357e+01   9.8482023041e+00    0.2697856    0.1639331   9.51  0.001154574    2.146    0.534
       188 -13.8155     40.5739    196.3031   7.9393944498e+01   2.7930592150e+01    0.9129782    0.4557129  57.58  0.004133609    1.882    0.469
       189 -13.3045     15.8010    198.2531   8.5594881081e+01   3.0028258935e+01    0.9855842    0.2463755 -61.85  0.003671844    4.048    0.753
       190 -14.5630     30.2084    168.9412   7.9836393350e+01   3.5643353400e+01      2.00957     1.271441 -38.66  0.009886225    2.131    0.531
       191 -12.9228    140.3756     21.3433   8.3919524544e+00   4.7082663603e+01    0.8162674    0.3248876  66.31  0.001390613    2.234    0.552
       192 -13.8517     22.3588    181.0141   8.2904366450e+01   3.3445263595e+01    0.9407396    0.4717052 -56.79  0.004250249    2.196    0.545
       193 -15.2141      8.5103    183.1515   8.6586432773e+01   3.4173154204e+01     1.310936     1.092159 -89.29   0.00864694    1.156    0.135
       194 -15.2016     15.5879    175.0672   8.4287134213e+01   3.5508636878e+01     2.496025    0.9838154  59.50   0.01062067    2.453    0.592
       195 -11.2574    212.6923    199.8746   4.0356112524e+01   1.7586726622e+00     0.207621    0.1349221 -15.19  0.001195623    1.465    0.317
       196 -13.5083    164.4113    194.3535   4.8941729467e+01   9.9630000906e+00    0.6503908    0.4090973 -62.92  0.002975274    2.576    0.612
       197 -11.6491    180.1604    188.8085   4.4631511135e+01   8.4128655753e+00    0.1948112    0.1474291  -2.15  0.000942738    1.334    0.250
       198 -12.3367    201.1662    191.1577   4.0921003063e+01   4.7622431842e+00    0.3268079    0.2392128  -2.09  0.001310275    1.308    0.236
       199 -12.2135     48.6511    181.3779   7.5952366373e+01   3.0525417120e+01    0.5132974    0.3088531 -53.32  0.002410215    1.864    0.463
