#   1 NUMBER                 Running object number                                     
#   2 MAG_AUTO               Kron-like elliptical aperture magnitude                    [mag]
#   3 X_IMAGE                Object position along x                                    [pixel]
#   4 Y_IMAGE                Object position along y                                    [pixel]
#   5 X_WORLD                Barycenter position along world x axis                     [deg]
#   6 Y_WORLD                Barycenter position along world y axis                     [deg]
#   7 A_WORLD                Profile RMS along major axis (world units)                 [deg]
#   8 B_WORLD                Profile RMS along minor axis (world units)                 [deg]
#   9 THETA_WORLD            Position angle (CCW/world-x)                               [deg]
#  10 FWHM_WORLD             FWHM assuming a gaussian core                              [deg]
#  11 ELONGATION             A_IMAGE/B_IMAGE                                           
#  12 ELLIPTICITY            1 - B_IMAGE/A_IMAGE                                       
         1 -15.7941    245.7166    110.6134   1.4983034676e+01   1.0836751467e+01     2.727142     1.004322 -43.22   0.01209002    2.236    0.553
         2 -15.8836    246.8368    133.3051   1.9401433804e+01   7.1067966730e+00     1.891041     0.808819 -42.58  0.006368871    1.968    0.492
         3  99.0000    205.3908     71.1291   1.1578912894e+01   2.4620482545e+01     1.724687     1.014789 -38.58  0.008765494    1.565    0.361
         4 -15.4766     25.6666     67.7873   6.2158002504e+01   6.1765891127e+01     1.843959     1.221971  -1.88   0.00970942    1.623    0.384
         5 -13.9523    216.2660     34.4108   2.0044710801e+00   2.7324267719e+01      1.22218    0.3676596 -48.59  0.005026164    2.894    0.654
         6 -12.3742     37.8140     31.6151   4.2604010243e+01   6.7377618966e+01     1.904546     1.171095 -39.63   0.01033376    1.678    0.404
         7 -14.6091     58.2473     41.8641   3.7591703387e+01   6.2397585319e+01     1.110119    0.7430359  -9.42  0.005571533    1.759    0.431
         8 -15.1762     56.0125     27.2752   3.2093532695e+01   6.4987699975e+01     1.671131     1.027357  29.49  0.008740048    1.538    0.350
         9 -15.0968     66.0061      5.7042   1.8026853637e+01   6.5395474365e+01     1.276585    0.9650888  -0.64  0.006134445    1.417    0.294
        10 -14.5407    119.9567     23.2101   1.1680258083e+01   5.1240885377e+01     1.096825    0.7874728   7.42  0.005801122    1.826    0.452
        11 -14.9707    121.9576      5.9895   5.4467395633e+00   5.2361084069e+01     1.861689    0.7747308  79.20  0.007560601    2.645    0.622
        12 -14.1444     52.0708      3.9082   2.2053714315e+01   6.8402419811e+01    0.9745103    0.5029275  56.47  0.004394498    1.944    0.486
        13 -11.4388     16.3718     14.0418   4.6156422706e+01   7.2930629101e+01    0.2688644    0.1539093 -19.32   0.00149862    1.731    0.422
        14 -11.9212    223.7107     10.0857   3.5626856048e+02   2.8532493376e+01    0.3346679    0.1893724 -40.46  0.001974415    1.589    0.371
        15 -11.7489     39.1247     10.6139   3.1357742783e+01   7.0086545236e+01    0.3198513    0.1954328  45.39  0.001697621    1.629    0.386
        16 -13.7034    202.3003      5.0706   3.5665009266e+02   3.3525400009e+01    0.9321882    0.4537624 -79.60  0.004837908    2.022    0.505
        17 -13.4451     19.4361      4.0488   3.8461357895e+01   7.3906634198e+01    0.7152225    0.4354948  17.26  0.003189169    1.471    0.320
        18 -12.3896    169.3327      3.2795   3.5890297055e+02   4.1147112994e+01     0.364603     0.188059 -83.63  0.001816361    1.949    0.487
        19 -11.4496      5.9226      2.7773   4.6911904382e+01   7.5719980464e+01    0.2787772    0.1436175 -31.97   0.00162567    1.767    0.434
        20 -13.4450      1.8111    117.1764   8.1411293339e+01   5.1332665321e+01     0.684699    0.1848403 -72.99  0.002194464    3.042    0.671
        21 -16.6771     89.6479    232.8236   6.9991210419e+01   1.3665644730e+01     8.659091      2.40636  44.32   0.03058233    3.334    0.700
        22 -14.5894    190.1172    120.1090   2.5602505887e+01   1.9517457312e+01     1.302889    0.8566337  39.01  0.004626514    1.697    0.411
        23 -14.0124    121.6242    106.2465   3.7678920921e+01   3.7070377740e+01     1.205041    0.8930824  53.96    0.0054391    1.430    0.301
        24 -13.2810    127.7465    114.6559   3.8262359265e+01   3.3919022148e+01     1.080087    0.6740354 -18.99  0.004011324    2.515    0.602
        25 -14.1297    150.7022    113.3313   3.2149451367e+01   2.9207672280e+01     1.433776    0.6476408  55.31  0.005002584    2.687    0.628
        26 -13.7414    176.9044    109.0221   2.5451018520e+01   2.4341527459e+01    0.4951757    0.3719102 -16.91  0.002404711    1.605    0.377
        27 -12.2432    226.9627     98.2243   1.4812960051e+01   1.6086045430e+01    0.5392187    0.1984871 -37.93   0.00223957    2.336    0.572
        28 -14.6362    172.9279     79.9145   1.8771321715e+01   3.0426822433e+01     1.345668    0.8426152 -48.93  0.004557792    1.580    0.367
        29 -13.3030    158.6292     95.3165   2.5646774621e+01   3.0970982197e+01    0.7053308    0.5316907 -47.78  0.002466894    1.315    0.239
        30 -13.8168    164.2121     90.1150   2.3113772308e+01   3.0651442772e+01     1.053874    0.7842315  80.25  0.005060989    1.635    0.388
        31 -11.3943      4.6249     82.9850   7.5399787315e+01   5.9726768828e+01     0.335275    0.1655381 -74.30  0.001564891    1.983    0.496
        32 -14.0184      4.5765     94.4386   7.7335338111e+01   5.6919860418e+01    0.6813578    0.3342588  -5.38  0.003115845    2.534    0.605
        33 -14.0068      5.6383     89.3545   7.6073253006e+01   5.8119362237e+01      0.61668    0.3940123  11.43  0.003304566    1.762    0.433
        34 -14.1296    125.0169     88.5604   3.1720547960e+01   3.9985646577e+01     1.047192    0.9063066 -28.29  0.003966848    1.210    0.174
        35 -14.5549      3.4664    210.5395   8.8039637846e+01   2.8341580055e+01    0.7918018    0.4645691  64.99  0.003472671    1.464    0.317
        36 -14.4026    188.5472     72.5564   1.4312414302e+01   2.8075151008e+01     1.507605     0.948787 -54.88  0.007414129    1.602    0.376
        37 -13.7223    227.2216     80.1010   1.0853017185e+01   1.8843267476e+01     1.291097    0.8797429 -44.70  0.006089387    1.247    0.198
        38 -15.2437    234.1154    200.4238   3.4227304255e+01  -1.5616016694e+00     1.695881     1.437418  40.43   0.01140933    1.672    0.402
        39 -12.7198      4.2574     64.6561   7.1852954154e+01   6.4062775583e+01    0.9062848    0.4505605  83.74  0.003271587    4.561    0.781
        40 -12.3262    130.1566     66.2069   2.3632467084e+01   4.2863640765e+01    0.4231227    0.3287913 -85.18   0.00197387    1.598    0.374
        41 -13.7441     61.3888     57.1277   4.2316955014e+01   5.9171126729e+01    0.9736872    0.5069997  41.57  0.004315508    1.933    0.483
        42 -13.3477    165.8078     54.6823   1.3199720091e+01   3.6047790919e+01    0.6772812    0.4776049 -85.60  0.003409028    1.599    0.375
        43 -13.8226     73.3619     51.0321   3.5272151199e+01   5.8051599117e+01    0.9764748    0.7172549 -68.06  0.004648244    2.196    0.545
        44 -12.3596    175.7275     52.1140   1.0978815396e+01   3.4060417264e+01    0.3012275    0.2559336 -14.65   0.00152668    1.449    0.310
        45 -12.6147    214.6838     45.7028   4.6579401042e+00   2.6232233739e+01    0.5875559     0.289591 -42.30  0.002032211    1.757    0.431
        46 -14.3596    225.2364    162.5230   2.8550111916e+01   5.7101918576e+00     1.061559    0.8050641 -44.00  0.005672375    1.356    0.263
        47 -15.8326     27.8284    231.3699   8.3845572046e+01   2.1525973546e+01     1.330174     0.713325  71.00  0.005020707    1.843    0.458
        48 -12.4452     24.7778     41.4271   5.3759818096e+01   6.7332796470e+01    0.4398294     0.317761  18.80  0.001898103    1.349    0.259
        49 -12.1806     13.8955     38.6377   5.8861121175e+01   6.8936857570e+01     0.759535    0.5392796  56.12  0.004130355    2.419    0.587
        50 -16.7970    246.3710    164.6307   2.5589721653e+01   2.2655561813e+00     3.748235     1.101146 -35.22   0.01474216    2.975    0.664
        51 -14.7256      6.3683    220.9079   8.7918983625e+01   2.5825811061e+01     1.184112    0.3615987  42.61  0.005512198    2.434    0.589
        52 -15.8295     44.9176    239.8789   8.0705136857e+01   1.7902171342e+01     1.957637    0.8563896  41.37  0.006278112    1.804    0.446
        53 -11.2708    235.5974     32.2181   3.5993980922e+02   2.3693425535e+01      0.15625    0.1049901 -28.86 0.0009559552    1.695    0.410
        54 -16.8998     17.2644    213.5936   8.5091191741e+01   2.6421249281e+01     3.844618     1.271431  81.36   0.01311246    4.578    0.782
        55 -15.5824     27.5489    247.7700   8.4879756828e+01   1.8238033471e+01      1.23247    0.5403734  37.55  0.005372978    1.798    0.444
        56 -11.3832      2.2386     26.9873   6.1599061567e+01   7.2052222191e+01    0.2001862    0.1532361  -5.57 0.0008298379    1.171    0.146
        57 -16.5210      7.4025    240.7377   8.8623270879e+01   2.1621646097e+01     3.063867    0.9652546 -77.31  0.007041434    3.070    0.674
        58 -11.5321     10.0133     17.4329   5.2107844621e+01   7.3084588990e+01    0.2823431     0.160291 -14.82  0.001564458    1.759    0.432
        59 -13.1091     60.2401    192.1971   7.2552260729e+01   2.6613546643e+01    0.8732933    0.4678709 -65.29  0.004038429    1.879    0.468
        60 -12.8696     27.6812    193.5663   8.1142468037e+01   3.0019275576e+01     0.484801    0.2803185 -74.88  0.001525734    1.643    0.391
        61 -12.7530    171.9217    131.2991   3.1846720111e+01   2.1064094923e+01    0.6683116    0.2907235 -44.30  0.002523133    2.220    0.550
        62 -15.4240     11.6736    108.0960   7.6631269306e+01   5.3065420787e+01    0.9723458    0.8526155 -74.13  0.004627591    1.079    0.073
        63 -15.6434      6.0522    154.7859   8.3738330755e+01   4.1474649691e+01     2.369221    0.3429086 -71.74  0.007043696    4.610    0.783
        64 -12.5311     10.2757     26.5578   5.6189667802e+01   7.1501767069e+01    0.3829902     0.260635 -28.95   0.00140252    1.229    0.186
        65 -15.6126      4.4132    131.6131   8.2091323482e+01   4.7493050143e+01     1.744606    0.5334051 -72.78  0.006658555    2.690    0.628
