#   1 NUMBER                 Running object number                                     
#   2 MAG_AUTO               Kron-like elliptical aperture magnitude                    [mag]
#   3 X_IMAGE                Object position along x                                    [pixel]
#   4 Y_IMAGE                Object position along y                                    [pixel]
#   5 X_WORLD                Barycenter position along world x axis                     [deg]
#   6 Y_WORLD                Barycenter position along world y axis                     [deg]
#   7 A_WORLD                Profile RMS along major axis (world units)                 [deg]
#   8 B_WORLD                Profile RMS along minor axis (world units)                 [deg]
#   9 THETA_WORLD            Position angle (CCW/world-x)                               [deg]
#  10 FWHM_WORLD             FWHM assuming a gaussian core                              [deg]
#  11 ELONGATION             A_IMAGE/B_IMAGE                                           
#  12 ELLIPTICITY            1 - B_IMAGE/A_IMAGE                                       
         1 -14.1715    186.0109     32.5471   6.4246903146e+01   3.4639067792e+01     1.097395     1.078522 -14.35  0.004113441    1.111    0.100
         2 -14.9863    193.0268     22.2328   6.0273889273e+01   3.4094575219e+01     2.306716       1.5281  13.65  0.001303361    2.195    0.544
         3 -10.9903     40.4089      2.7646   9.0956667277e+01   6.7559661925e+01     0.162844   0.08518803 -21.58 0.0009606975    1.699    0.411
         4 -10.6941     65.9886    237.0006   1.3157329549e+02   1.9350210847e+01    0.1652164    0.1427377  88.41   0.00130644    1.348    0.258
         5 -16.0666    121.5959    236.7483   1.2217314666e+02   1.1140972637e+01     5.766032     2.820584  45.28   0.03129044    1.699    0.411
         6  -9.7466     42.7575    220.7587   1.3408151696e+02   2.5146454970e+01    0.1643751    0.1266294  35.22  0.001167835    1.850    0.459
         7 -10.3652     48.4148    217.4635   1.3288776013e+02   2.5073859239e+01    0.2377824    0.1641708  28.78  0.001537928    2.290    0.563
         8 -11.1488     42.9800    214.4505   1.3355946312e+02   2.6279738569e+01    0.3365065    0.1156834  54.95  0.001478719    2.553    0.608
         9 -14.3221     53.2486    229.3483   1.3302857288e+02   2.2329665421e+01     1.029213    0.7172224  28.95  0.006748872    2.352    0.575
        10 -13.8157     62.8328    210.5548   1.2980321185e+02   2.4547065186e+01     1.577446    0.5737943  48.84  0.007934743    2.345    0.574
        11 -12.1641    116.0114    211.6314   1.2016798542e+02   1.6406167041e+01    0.3833436    0.2337945  87.39   0.00141788    2.150    0.535
        12 -11.4179    107.6938    209.7583   1.2149959790e+02   1.8116737964e+01     0.332781    0.3046315  79.54  0.002302291    1.187    0.158
        13 -10.6901     50.3092    213.2105   1.3221751111e+02   2.5632758447e+01    0.1986811    0.1175697  55.34 0.0005515476    1.438    0.304
        14 -12.3806    106.6729    202.3659   1.2075904368e+02   1.9675586166e+01    0.4729694    0.2301186  46.20  0.001612469    1.831    0.454
        15 -12.4244     72.3027    196.2904   1.2661883206e+02   2.6036804093e+01    0.4190285    0.2661613 -56.24  0.002034242    1.776    0.437
        16 -12.9879     68.0635    195.0338   1.2728512924e+02   2.6863031671e+01    0.5325492    0.3855958 -55.42  0.001998062    1.652    0.395
        17 -13.0835    195.4615    195.1283   1.0221812782e+02   4.5757680196e+00    0.8501047    0.6566341  82.09  0.003920326    1.894    0.472
        18  -9.6605     66.8624    233.5491   1.3114787310e+02   1.9831848422e+01    0.1516615   0.08631495  53.13 0.0009731174    1.429    0.300
        19 -12.2372    181.9327    233.5445   1.1101803910e+02   1.2519486694e+00    0.4580402    0.1997277  50.54  0.002151015    2.080    0.519
        20 -11.6272    103.0711    194.6485   1.2045059448e+02   2.1755297757e+01    0.3724413    0.2627319  50.95  0.002195518    1.290    0.225
        21  -9.7398     57.6856    196.2195   1.2935104264e+02   2.7981942242e+01    0.1791472    0.1142655  85.72 0.0006509366    1.409    0.290
        22  -9.2082     72.4736    202.9739   1.2730583817e+02   2.4703714786e+01    0.3953074    0.1475766 -66.06  0.001619524    2.608    0.617
        23 -15.8578     72.2269    149.4668   1.2054392322e+02   3.5854808429e+01     4.412524     2.231052  86.57   0.01628808    3.872    0.742
        24 -10.2224     59.1698    188.6661   1.2829676439e+02   2.9300701280e+01    0.2534709    0.1559766 -51.18  0.001469608    2.041    0.510
        25 -19.3516     17.3010    134.2259   1.3094412004e+02   4.5054613342e+01     17.05735     1.837669 -70.17   0.04064799    9.666    0.897
        26 -11.6253    207.8062    184.0716   9.7773879501e+01   3.9269738869e+00    0.3128304    0.2966256  -4.52  0.001189945    1.114    0.103
        27 -11.6889    211.0327    181.0218   9.6562230098e+01   3.7762027086e+00    0.3523841    0.2821891   3.42  0.001689682    1.373    0.272
        28 -10.4858     76.3241    183.0333   1.2428856166e+02   2.8150137223e+01    0.1755324    0.1391845 -88.31 0.0004284661    1.097    0.089
        29 -10.8386     99.3921    180.5876   1.1925300861e+02   2.5175118770e+01     0.225383    0.2078972  73.89 0.0006262584    1.138    0.121
        30 -12.0913     81.3103    179.8826   1.2287931323e+02   2.8086028811e+01    0.3118953    0.2537596 -33.00  0.001887575    1.851    0.460
        31 -12.5568     85.1350    174.3305   1.2134271184e+02   2.8680099819e+01    0.3753453    0.3301665 -18.47  0.001395055    1.713    0.416
        32 -11.4967    197.8349    175.2191   9.7968053222e+01   7.4181567571e+00    0.4081475    0.3212992 -48.80  0.001134226    1.440    0.305
        33  -9.6565     36.9574    223.4453   1.3521623651e+02   2.5333186398e+01    0.1391857   0.08331603  53.70 0.0004329216    1.434    0.302
        34 -11.2445    203.5196    167.7335   9.5333415061e+01   7.5276402890e+00     0.455894    0.3853098  51.08  0.002155644    1.186    0.157
        35 -10.1523      2.0355    170.0378   1.3731645638e+02   3.8932287956e+01    0.1636585    0.1141822  89.15 0.0005705711    1.038    0.037
        36 -10.5104     79.9866    193.4731   1.2482528614e+02   2.5514650574e+01     1.252871     0.372979  56.64  0.004011861    5.134    0.805
        37 -11.4568    145.6449    168.2294   1.0738585040e+02   1.9388678802e+01    0.2738615    0.2501467  85.97 0.0008371944    1.101    0.091
        38 -12.7012     97.4897    157.2001   1.1605316332e+02   3.0414133242e+01    0.6486055    0.4547527 -29.21  0.002693273    2.231    0.552
        39  -9.3100    129.2978    156.6752   1.0880005633e+02   2.4927132564e+01    0.1456199    0.1074803  83.00 0.0004410271    1.628    0.386
        40 -11.4430    133.7334    144.6106   1.0540468513e+02   2.6612168467e+01     1.075017    0.2566895 -54.12  0.002654824    5.879    0.830
        41 -10.8140    174.6268    148.8144   9.7218840403e+01   1.7194345509e+01    0.2635959    0.1948696 -53.18 0.0007805652    1.474    0.321
        42 -11.5755    144.5472    145.2990   1.0307896254e+02   2.4293594853e+01     0.399576     0.288051  85.44  0.001823413    1.882    0.469
        43 -12.0368    108.2411    141.4096   1.1072623809e+02   3.2041125378e+01    0.5492512    0.3399636 -34.09  0.002451444    2.238    0.553
        44 -12.4405     96.5156    142.0845   1.1363586581e+02   3.3861668265e+01    0.2578338    0.2512711  27.80 0.0003898271    1.213    0.175
        45  -9.7029    129.4850    140.4693   1.0552948545e+02   2.8323505600e+01    0.1429689    0.1388527  80.31 0.0008093588    1.040    0.039
        46 -11.4008     78.8308    133.9496   1.1641380269e+02   3.8344623511e+01     0.362435    0.2344161 -54.80   0.00123978    1.431    0.301
        47 -11.6555    115.3949    131.5030   1.0699803827e+02   3.2918858006e+01    0.5342253    0.3324462  25.41 0.0008602524    2.284    0.562
        48 -11.7815    104.3672    128.9814   1.0917052545e+02   3.5426232956e+01    0.5551206     0.373689  86.93  0.001057084    2.122    0.529
        49 -11.3068    136.4003    123.5861   1.0014949309e+02   3.0523413985e+01    0.5553111    0.3875785 -58.69  0.002608741    1.539    0.350
        50 -10.8087    160.5096    128.0943   9.5607590513e+01   2.4421320387e+01    0.2622907    0.2200676  77.49  0.001306467    1.350    0.259
        51 -11.2628    118.9985    126.4824   1.0503110514e+02   3.3336339223e+01    0.4478567    0.2896836 -14.84   0.00170356    3.135    0.681
        52 -10.3366    110.7144    119.9672   1.0563594962e+02   3.6271353399e+01    0.2243864    0.2018199  47.79 0.0008706574    1.151    0.132
        53 -11.6841     67.0435    115.6340   1.1598368107e+02   4.3974184690e+01    0.3020855    0.1812795 -64.17  0.001243128    1.545    0.353
        54 -10.4463    167.8014    112.7536   9.0214918641e+01   2.5830180838e+01    0.3838104    0.2694573 -74.07  0.001273117    2.052    0.513
        55 -10.0721    205.3956    110.1574   8.1769646764e+01   1.7422358723e+01    0.2598518    0.2028954  40.72 0.0006431876    1.301    0.231
        56 -12.1505     63.0640    107.0132   1.1533562489e+02   4.6352708450e+01    0.6950374    0.3642101 -36.01  0.003166363    2.464    0.594
        57  -9.4159    134.4869    102.4925   9.5395760108e+01   3.5303305215e+01    0.1473316     0.145912 -26.38 -7.002454e-05    1.013    0.013
        58 -12.3018    172.1861     71.3149   7.8013469819e+01   3.2415145888e+01    0.5147992    0.3511121 -86.16 0.0009529685    2.242    0.554
        59 -13.9537    175.4102     42.0101   6.8821917558e+01   3.6092612918e+01    0.9868342    0.8232447 -29.22  0.000910448    1.276    0.216
        60 -10.7794    168.0508    248.0387   1.1545810175e+02   1.6322664269e+00     0.179795    0.1429458  48.08 0.0003203045    1.029    0.029
        61 -10.9141     86.4881    238.7701   1.2836709912e+02   1.6205446922e+01     0.213693     0.151089  85.56 0.0006707523    1.298    0.230
        62 -10.5063    216.5052     18.5105   5.6197501069e+01   2.8585703211e+01    0.1376443    0.1224378  89.08  5.75298e-05    1.008    0.008
