#   1 NUMBER                 Running object number                                     
#   2 MAG_AUTO               Kron-like elliptical aperture magnitude                    [mag]
#   3 X_IMAGE                Object position along x                                    [pixel]
#   4 Y_IMAGE                Object position along y                                    [pixel]
#   5 X_WORLD                Barycenter position along world x axis                     [deg]
#   6 Y_WORLD                Barycenter position along world y axis                     [deg]
#   7 A_WORLD                Profile RMS along major axis (world units)                 [deg]
#   8 B_WORLD                Profile RMS along minor axis (world units)                 [deg]
#   9 THETA_WORLD            Position angle (CCW/world-x)                               [deg]
#  10 FWHM_WORLD             FWHM assuming a gaussian core                              [deg]
#  11 ELONGATION             A_IMAGE/B_IMAGE                                           
#  12 ELLIPTICITY            1 - B_IMAGE/A_IMAGE                                       
         1 -11.4730     88.5396    101.6371   2.9140556670e+02   6.0985207353e+00   0.02591427   0.01686792 -54.94  0.002639146    1.586    0.370
         2 -11.5514    247.5602     10.2599   2.8892342655e+02   6.2481930485e+00    0.0640485   0.02585649 -53.80   0.00524028    2.459    0.593
         3  -9.0811    233.3841    245.8939   2.9038238492e+02   3.5931171350e+00   0.01591169   0.01244036 -56.92  0.001440297    1.339    0.253
         4 -10.2393    248.7962    215.4664   2.9002559538e+02   3.8584283419e+00   0.03291043   0.01772649 -49.03  0.003037952    1.935    0.483
         5  -9.5748    243.1144    246.2852   2.9026349520e+02   3.5328772012e+00   0.02561705    0.0100446 -60.23  0.002059083    2.544    0.607
         6 -10.7071    248.9732    225.6017   2.9007841417e+02   3.7396521651e+00      0.03453   0.02848201  26.66  0.003340546    1.133    0.117
         7  -9.7472    247.1554    239.9482   2.9017887098e+02   3.5833719364e+00   0.02315407   0.01927273  62.74  0.002632841    1.313    0.238
         8 -10.5645    248.3098    232.8676   2.9012609757e+02   3.6590298489e+00   0.04699788   0.02625645  30.00  0.004457863    1.631    0.387
         9  -9.2273    248.2887    250.3141   2.9022100587e+02   3.4564490803e+00   0.02815707   0.01173456  19.29  0.002181018    2.548    0.607
        10  -8.6176    248.5177    245.9963   2.9019473967e+02   3.5053025967e+00   0.01313217    0.0104094 -65.16 0.0005865032    1.347    0.258
        11  -8.3918     50.0297    250.1801   2.9268913137e+02   4.5895823696e+00   0.01615489  0.008052685  33.35   0.00144411    1.810    0.448
        12  -7.9447      3.1587    242.3876   2.9323147880e+02   4.9463980531e+00   0.01022038  0.005595941  35.77 0.0009416655    1.681    0.405
        13  -9.6040    225.6423    241.3962   2.9045430112e+02   3.6896912789e+00   0.02469762   0.01212514 -68.98  0.002131418    2.301    0.565
        14  -8.6352    230.9126    236.5885   2.9036266754e+02   3.7153991348e+00   0.01428414  0.009387704  86.01  0.001360506    2.018    0.504
        15  -7.7021    207.6183    236.1862   2.9065033339e+02   3.8533764695e+00  0.009922188   0.00595087 -51.17 0.0009514565    1.724    0.420
        16  -8.4764    225.9087    231.1241   2.9039528388e+02   3.8075473469e+00   0.01407072  0.007742514 -37.84  0.001243831    2.144    0.534
        17  -8.8240      6.1990    229.2498   2.9312291758e+02   5.0820590955e+00    0.0129693    0.0096621 -88.25 0.0009683401    1.597    0.374
        18  -8.7106    234.4519    228.1858   2.9027305890e+02   3.7927858274e+00   0.01467677   0.01078977 -79.23  0.001550702    1.565    0.361
        19  -7.6798    208.6469    224.6774   2.9057514070e+02   3.9812738123e+00  0.007330236  0.004996032 -23.22  0.000704732    1.756    0.430
        20  -8.3748      2.5010    221.4899   2.9312728659e+02   5.1933456214e+00   0.01204557  0.006823283 -84.64  0.001035233    2.431    0.589
        21 -10.0939    239.2734    219.5101   2.9016600061e+02   3.8659921364e+00   0.01753104   0.01329758  65.57  0.001322487    1.522    0.343
        22 -11.1559    239.7628    212.2377   2.9012043609e+02   3.9476976474e+00   0.02772981   0.01470398 -67.33  0.002516498    2.066    0.516
        23 -10.6579    239.8704    206.6883   2.9008896879e+02   4.0115671788e+00   0.02307871   0.01415672 -26.24  0.002122519    2.070    0.517
        24  -9.3747    194.6971    216.5523   2.9070475448e+02   4.1555490540e+00   0.01764095  0.006874721 -73.72  0.001227872    3.594    0.722
        25  -8.0874    227.1682    220.1765   2.9032022610e+02   3.9275707925e+00  0.009891832  0.007749277  51.38   0.00107845    1.327    0.247
        26  -8.4995    218.2627    208.7409   2.9036900605e+02   4.1114759832e+00   0.01114419   0.00574735   8.96 0.0008985631    2.429    0.588
        27 -10.0079    249.5647    202.3828   2.8994498530e+02   4.0060427589e+00   0.02850598   0.01232035 -49.44  0.002359376    2.398    0.583
        28 -10.4514    123.9984    205.9984   2.9152847379e+02   4.6823100233e+00  0.009679933  0.009069211  23.12  0.001163729    1.001    0.001
        29  -8.0108      1.0000    206.0018   2.9306265269e+02   5.3821158697e+00   0.01081224  0.003941624 -65.24 0.0006959733    2.923    0.658
        30  -8.7934    187.3855    201.8108   2.9071587980e+02   4.3687762074e+00  0.009866407  0.005960592 -50.90 0.0009488729    1.713    0.416
        31  -8.3889    197.0000    200.9592   2.9059151524e+02   4.3236584434e+00   0.01107206  0.003947179 -65.02 0.0008094374    2.991    0.666
        32  -9.2293    229.9873    199.0080   2.9017024675e+02   4.1574427134e+00   0.01153383  0.007786707 -26.99  0.001077767    1.752    0.429
        33 -10.3855    237.7257    195.9205   2.9005717901e+02   4.1489828946e+00   0.02478468  0.009764552 -61.23  0.001988922    2.558    0.609
        34  -8.0473    176.6518    198.6729   2.9083257628e+02   4.4666649046e+00  0.007333051  0.004992744 -23.76 0.0007049415    1.755    0.430
        35  -8.6557    167.4883    192.4818   2.9091318732e+02   4.5910657284e+00   0.00684047  0.006401922  25.25 0.0003453105    1.006    0.006
        36  -8.7613    144.8073    192.4073   2.9119547405e+02   4.7215763280e+00  0.009961935  0.006401246  10.73 0.0008467945    1.667    0.400
        37  -9.9090    214.7330    189.5133   2.9030858300e+02   4.3551815672e+00   0.01689174  0.008644828 -52.14  0.001448168    1.996    0.499
        38 -10.6113    187.9886    189.7430   2.9064290940e+02   4.5056357031e+00   0.01881124   0.01372924  -0.35  0.001961889    1.518    0.341
        39  -9.3205    234.9953    189.0644   2.9005391754e+02   4.2443042961e+00   0.01677726  0.009119316  35.15  0.001560251    1.686    0.407
        40  -8.4864    245.3179    186.0307   2.8990898064e+02   4.2203840663e+00   0.01177366  0.003393684 -45.04 0.0007048213    4.361    0.771
        41 -10.0161    222.1675    181.0035   2.9016980705e+02   4.4114972419e+00   0.02128118   0.01356389  60.02  0.002032912    1.904    0.475
        42  -8.3689     27.1559    178.9371   2.9259037083e+02   5.5486602424e+00   0.01229975  0.009373236  21.02  0.000902417    1.248    0.199
        43  -9.5667    190.5868    177.5951   2.9054461988e+02   4.6319987424e+00   0.01713113  0.008177015  57.76  0.001273064    3.124    0.680
        44  -8.9386    159.0000    176.9818   2.9093493891e+02   4.8198564224e+00   0.01104823  0.003947503 -65.05 0.0008084905    2.985    0.665
        45  -9.3800    100.9990    175.9828   2.9165287061e+02   5.1627217056e+00  0.009640924  0.009026954  18.36            0    1.016    0.016
        46  -9.3896    149.7379    178.2368   2.9105721130e+02   4.8582125160e+00   0.01403923  0.006654487  57.68  0.000268997    3.164    0.684
        47  -9.1897    247.3934    169.5791   2.8979373357e+02   4.3996312483e+00   0.02086896  0.006440588 -55.72  0.001519148    3.046    0.672
        48  -8.6441    133.5206    170.4947   2.9121747052e+02   5.0409285115e+00  0.006846025  0.006395146  28.32 0.0008102517    1.017    0.017
        49  -8.4414    184.4750    163.5061   2.9054429218e+02   4.8307879802e+00   0.01548799  0.006352156   5.08 0.0008103654    5.945    0.832
        50 -10.2288    161.5083    162.6723   2.9082604740e+02   4.9719139779e+00   0.01425034   0.01188828  61.73   0.00161515    1.302    0.232
        51  -8.3181    131.3356    160.3230   2.9118958818e+02   5.1717179901e+00  0.007253382  0.005010079 -24.01 0.0004797012    1.711    0.416
        52  -8.3084      9.7679    157.9889   2.9269442356e+02   5.8911432066e+00  0.008958797  0.005755052 -64.70 0.0008843229    1.655    0.396
        53  -8.8586    139.4833    156.5169   2.9106731822e+02   5.1694280693e+00  0.006828202  0.006413322  19.79 -2.644157e-05    1.010    0.010
        54  -8.5513    148.3264    160.6530   2.9097946055e+02   5.0707780824e+00  0.007395288  0.004859325  56.78 0.0007049874    1.750    0.429
        55 -10.0003    209.6366    153.3460   2.9017559082e+02   4.8047564461e+00   0.01909934  0.009507936 -42.37   0.00163247    2.283    0.562
        56  -9.8373    173.0263    149.9842   2.9061357629e+02   5.0535343300e+00    0.0110259    0.0103604  22.94  0.001331712    1.002    0.002
        57  -8.5436    183.5223    148.4813   2.9047457169e+02   5.0109139192e+00  0.006844853  0.006390973  28.33 0.0001828837    1.017    0.017
        58  -9.1223    139.7969    144.0007   2.9099551239e+02   5.3131899508e+00   0.01097069  0.006858333  45.41  0.001065043    1.620    0.383
        59  -8.9416    166.4990    141.4911   2.9064884136e+02   5.1896375537e+00  0.006834636  0.006412887  21.78 0.0001205784    1.005    0.005
        60  -9.2815    120.1931    138.7639   2.9121171381e+02   5.4861051742e+00   0.01463332   0.00587228 -74.71  0.001021371    3.555    0.719
        61  -8.2666    142.3361    137.3147   2.9092755138e+02   5.3764211926e+00  0.007211217  0.005024385 -23.28            0    1.692    0.409
        62  -8.2219    222.7797    135.8093   2.8991652484e+02   4.9331864981e+00   0.01209292  0.006356873 -27.34 0.0009488285    2.790    0.642
        63  -8.3900    172.3146    132.6848   2.9052848789e+02   5.2587234494e+00  0.007196118  0.004894586  55.46 0.0007035431    1.644    0.392
        64  -9.5284    145.0861    126.6638   2.9083542067e+02   5.4845372715e+00    0.0118431  0.009759937 -85.92  0.001328364    1.375    0.273
        65  -9.6983    237.3989    118.2437   2.8963885986e+02   5.0533565454e+00   0.01756145   0.01250341 -36.72  0.001831179    1.541    0.351
        66 -10.0825    127.0184    125.5267   2.9105471644e+02   5.6010485004e+00   0.01488605  0.008909827  83.30  0.001293045    2.459    0.593
        67  -8.6908    117.3196    117.0078   2.9112955189e+02   5.7555160197e+00   0.01163536  0.003437495 -44.81 0.0007047141    4.263    0.765
        68  -8.4661    136.3045    115.6553   2.9088522848e+02   5.6627444169e+00  0.007244014  0.004917186  57.79 0.0004843647    1.689    0.408
        69 -10.4857     95.3586    110.0476   2.9136601421e+02   5.9618238740e+00   0.01603085   0.01176721   7.30  0.001690041    1.430    0.301
        70 -10.6124    240.5073    106.0068   2.8953351739e+02   5.1776317580e+00   0.02234172   0.01486582 -78.71  0.002231675    1.782    0.439
        71 -11.3787    241.8429     95.5683   2.8946002134e+02   5.2911783111e+00   0.03299177   0.02103357 -54.85  0.003330242    1.618    0.382
        72  -7.4311     13.3109    249.3016   2.9314209621e+02   4.8083483168e+00  0.007012084  0.005040173 -23.67 0.0002567009    1.606    0.377
        73 -10.0461    104.1239    103.0310   2.9121847111e+02   5.9933825210e+00    0.0136451  0.008308045 -65.00  0.001200197    1.752    0.429
        74 -10.4649    114.7357     91.4764   2.9102320393e+02   6.0671074773e+00   0.01572336      0.01123 -48.00  0.001661723    1.465    0.318
        75  -8.5150    124.3405     92.3159   2.9090781801e+02   6.0024616149e+00  0.007236673  0.005017811 -23.18 0.0007048264    1.706    0.414
        76  -7.8040     70.6598     96.6937   2.9160214670e+02   6.2579333114e+00  0.007184005  0.005028359 -22.42 0.0005983353    1.682    0.406
        77  -9.9765    101.2900     87.9765   2.9117214708e+02   6.1845809369e+00  0.009514768  0.009396916 -64.83 0.0006126658    1.081    0.075
        78  -8.6394     84.6680     85.3227   2.9136541937e+02   6.3102803859e+00  0.007330697  0.004848838  55.13 0.0006747249    1.702    0.412
        79 -10.6035    246.9946     81.9500   2.8932164816e+02   5.4196887178e+00   0.02057007   0.01562775 -33.57  0.002224963    1.437    0.304
        80  -8.4561    137.6673     84.0088   2.9069626772e+02   6.0228045227e+00   0.01104925  0.005472888  82.79 0.0007051172    4.432    0.774
        81  -9.5375    121.6315     75.2996   2.9084918189e+02   6.2157197369e+00   0.01143856   0.00761057  57.68  0.001121827    1.737    0.424
        82  -8.9066     68.1029     75.1399   2.9151719487e+02   6.5230855905e+00   0.01100596   0.00923999 -17.65  0.001170852    1.274    0.215
        83  -9.5040     77.2393     72.4746   2.9138852598e+02   6.5019915677e+00    0.0176213   0.01088445 -39.63  0.001698671    1.802    0.445
        84  -9.3351    115.2098     72.0019   2.9091147529e+02   6.2907453936e+00   0.01086643  0.006696039  44.08  0.001049812    1.620    0.383
        85 -10.3271    124.6350    100.8756   2.9095063584e+02   5.9012776554e+00   0.01448036  0.009542832  34.11  0.001277049    1.406    0.289
