#   1 NUMBER                 Running object number                                     
#   2 MAG_AUTO               Kron-like elliptical aperture magnitude                    [mag]
#   3 X_IMAGE                Object position along x                                    [pixel]
#   4 Y_IMAGE                Object position along y                                    [pixel]
#   5 X_WORLD                Barycenter position along world x axis                     [deg]
#   6 Y_WORLD                Barycenter position along world y axis                     [deg]
#   7 A_WORLD                Profile RMS along major axis (world units)                 [deg]
#   8 B_WORLD                Profile RMS along minor axis (world units)                 [deg]
#   9 THETA_WORLD            Position angle (CCW/world-x)                               [deg]
#  10 FWHM_WORLD             FWHM assuming a gaussian core                              [deg]
#  11 ELONGATION             A_IMAGE/B_IMAGE                                           
#  12 ELLIPTICITY            1 - B_IMAGE/A_IMAGE                                       
         1 -10.5804    110.6602     39.7976   1.7142900975e+01   5.2285928963e+01     1.363742    0.7959091 -31.98   0.00602798    1.749    0.428
         2 -12.0386    104.7237     12.9039   7.1703106827e+00   5.7206053518e+01    0.5866348    0.4533413 -19.70  0.002226692    1.401    0.286
         3 -12.2776    113.0863     24.9689   1.0605758149e+01   5.3709394813e+01    0.8774433    0.3843488  59.91  0.002854562    2.103    0.525
         4 -12.4532    105.8098     19.9577   1.0029734303e+01   5.6160248262e+01    0.3443882    0.3073106 -54.30 0.0003689795    1.152    0.132
         5 -11.9418    164.4288     27.3881   3.3571432563e+00   4.0396717664e+01    0.4854427    0.3407002 -46.80 0.0005934953    1.303    0.233
         6 -12.3032     58.4051     29.0730   2.9487387657e+01   6.5965563701e+01    0.8380649    0.4009991 -26.34 0.0004640315    2.663    0.624
         7 -11.5382     20.3986     21.8108   4.7365213443e+01   7.3530093846e+01    0.5693085    0.3248324 -36.53  0.001780145    1.661    0.398
         8 -11.3233    144.1663     25.3474   5.3608245458e+00   4.5710355246e+01    0.6780117    0.3821025 -88.35   0.00294171    2.096    0.523
         9 -10.2985    121.0429     11.6029   3.7491163628e+00   5.3141439350e+01      1.09472    0.2056169  68.96  0.003084126    4.612    0.783
        10 -11.3936    127.7142     16.3189   4.5482887474e+00   5.0939552661e+01    0.4918819    0.3568877  47.94 0.0008591181    1.449    0.310
        11 -11.1744    135.5261     14.4216   2.7030151773e+00   4.9126582551e+01    0.5968749    0.4102445  74.60  0.003057333    1.380    0.276
        12 -11.5883     36.3386     18.0143   3.4525462546e+01   7.1882908706e+01    0.6840009    0.4346619 -37.95  0.002704846    1.546    0.353
        13 -12.2859     48.8624     12.8301   2.4547333537e+01   7.0328613935e+01    0.6880612    0.3019164  49.17  0.003000238    2.180    0.541
        14 -11.2070      6.1734      9.6354   5.1869273989e+01   7.7424878569e+01    0.4719295    0.3813846  34.59  0.002446414    1.471    0.320
        15 -10.5567     12.7995      8.3008   4.5010807618e+01   7.6963483683e+01    0.3885694    0.2336338 -51.07  0.001618683    1.784    0.439
        16 -11.8332     16.1272     13.7984   4.5890978586e+01   7.5570648470e+01     0.811037     0.319464 -36.07  0.003380334    2.702    0.630
        17 -10.5699     68.5280     19.9752   2.0530964214e+01   6.5173968814e+01    0.3950289    0.3269409 -30.65  0.001814758    1.242    0.195
        18 -12.0440     22.7726     10.7544   3.8745405172e+01   7.5219570638e+01    0.6444375     0.420365  -8.94   0.00213799    1.813    0.448
        19 -11.8757    164.8741     17.9237   3.6366701124e-01   4.1358915948e+01    0.5756416    0.2928147  44.85  0.002491347    2.537    0.606
        20 -12.0507    227.9846     14.8041   3.5463239579e+02   2.7552438534e+01    0.4607516    0.2423433 -73.68  0.001311189    1.935    0.483
        21 -11.1014     86.1398     13.7850   1.1823638091e+01   6.1774742033e+01    0.4996344    0.3103503  -1.01  0.002049749    2.097    0.523
        22 -10.8109     89.5413      8.8858   8.5522501429e+00   6.1440481627e+01    0.5420032    0.3353099 -67.50    0.0024884    2.130    0.531
        23 -11.0912    242.3215     15.0037   3.5390523429e+02   2.4757707591e+01    0.2235066    0.1757023 -44.05 0.0002033435    1.100    0.091
        24 -10.2566    219.0401     12.9416   3.5471038884e+02   2.9562818862e+01    0.2619967    0.2065246  14.77  0.001583977    1.869    0.465
        25 -10.6832    190.7099     12.1878   3.5639912748e+02   3.5816999834e+01    0.3873014    0.1301546 -37.10  0.001154698    2.317    0.568
        26 -11.4383    193.0134      7.0257   3.5483916181e+02   3.5806946402e+01    0.5743307    0.3883257  17.71   0.00253342    2.327    0.570
        27 -11.6530    212.1452      9.2336   3.5421249027e+02   3.1385788073e+01    0.5089486    0.3183804  -9.21   0.00196282    2.168    0.539
        28 -11.3954    205.9625      2.1788   3.5280183153e+02   3.3399352272e+01    0.5093845    0.2297862 -85.35  0.001712424    2.292    0.564
        29 -10.8234    169.1879      9.5083   3.5736770442e+02   4.1167506939e+01    0.4292855    0.2447044  59.65  0.001458752    1.831    0.454
        30  -9.2849    163.5257      9.5007   3.5787543259e+02   4.2552627193e+01    0.1986077    0.1678334 -71.39  0.001196776    1.048    0.046
        31 -11.7949     64.0804      9.0887   1.5977032720e+01   6.7514493302e+01    0.4612551      0.31378 -42.23 0.0006948052    1.643    0.391
        32 -10.1280    158.9692      2.6379   3.5612228012e+02   4.4313676447e+01    0.4387639    0.2354071  28.42  0.001856361    3.057    0.673
        33 -10.6981    152.9229      7.4254   3.5823098122e+02   4.5386214648e+01    0.4393637    0.3044655 -29.86  0.002394469    1.456    0.313
        34 -11.1270    247.3203      5.6814   3.5165607501e+02   2.4773316728e+01    0.3462674    0.2349917 -11.40  0.002199761    1.942    0.485
        35 -11.6339    243.4732      3.4963   3.5134633089e+02   2.5700211297e+01    0.4813454    0.2376802  86.29  0.002811853    2.166    0.538
        36 -10.3261      1.1383      7.4790   5.5401489577e+01   7.8278582188e+01    0.2896274   0.08768088 -53.41  0.001220991    2.733    0.634
        37 -10.3704      1.8535      2.2134   5.1133122022e+01   7.9215221613e+01    0.3078365    0.1504762 -40.94  0.001107896    1.780    0.438
        38 -11.2308    184.7520      6.4557   3.5525132202e+02   3.7760255122e+01    0.4252725    0.2032212 -50.44  0.001749571    1.809    0.447
        39 -11.3609    232.9775      6.9638   3.5257545431e+02   2.7365852718e+01    0.3326244    0.1587119 -76.23  0.001784206    2.151    0.535
        40  -8.8996    145.2828      9.3720   3.5969827459e+02   4.7131909931e+01    0.1368745   0.09909687  34.37 0.0007015071    1.703    0.413
        41  -9.8545    122.2780      5.6998   1.2225834152e+00   5.3372285994e+01    0.2884685    0.1258945 -17.84  0.001176036    2.610    0.617
        42  -9.5168     77.9169      7.2094   1.0613599623e+01   6.4460212389e+01    0.2285868     0.179618  81.26 0.0007669965    1.377    0.274
        43  -9.7588     75.0848      3.0221   9.0830686827e+00   6.5535944018e+01    0.3971574    0.2346884  79.10  0.001878422    1.946    0.486
        44  -9.8545    176.0533      5.5051   3.5561915617e+02   3.9899145509e+01    0.1951863    0.1187749  81.73 0.0005809846    1.582    0.368
        45 -10.0443    142.4818      2.4965   3.5761602753e+02   4.8465136585e+01     0.309348    0.2388876 -27.30  0.001126199    1.365    0.267
        46 -11.0309    137.9187      3.9958   3.5863300174e+02   4.9499214824e+01     0.281375    0.2172621  79.81  0.000355748    1.199    0.166
        47 -11.6903    132.6670      2.7118   3.5876001380e+02   5.0954372409e+01    0.5787729     0.290892  79.15  0.002633802    1.890    0.471
        48 -10.9533    114.0531      2.5099   1.0990206295e+00   5.5765656378e+01    0.5114064    0.2940301 -81.80  0.001699066    1.947    0.487
        49 -10.5677     41.5909      3.8312   2.2052713248e+01   7.2921518924e+01    0.3704715    0.2126107  24.44  0.001778959    2.054    0.513
        50 -10.2001     29.4062      2.4387   2.7967728921e+01   7.5386730517e+01    0.3666987    0.2018316 -49.17  0.001712599    2.667    0.625
        51 -10.5262    218.5942      3.4008   3.5244749299e+02   3.0607799979e+01    0.2099703    0.1852215 -62.68 0.0006306167    1.152    0.132
        52 -10.6483    223.6328      2.4050   3.5196972290e+02   2.9671464070e+01    0.2283757     0.186901 -67.96  0.000593767    1.125    0.111
        53  -9.6186    165.1770      3.9526   3.5601323872e+02   4.2668826818e+01    0.2096754    0.1426195  27.18  0.001079219    2.056    0.514
        54 -10.1520    105.5452      1.7802   2.0950529537e+00   5.8013002147e+01    0.2673826    0.1857999  85.62 0.0009908843    1.422    0.297
        55  -9.1692     33.9505      1.9252   2.4786380299e+01   7.4625725511e+01    0.2029055    0.1345048  14.17 0.0006174492    1.672    0.402
        56  -9.2713    152.2097      1.3187   3.5628632020e+02   4.6110994882e+01    0.1832308    0.1102359 -88.70 0.0004899113    1.591    0.371
        57  -9.9064    123.8172      1.2991   3.5928705713e+02   5.3347353553e+01    0.3434593    0.1162637  76.15  0.001259906    2.823    0.646
        58  -9.2479     82.1462      1.1353   6.3044535909e+00   6.3972798058e+01    0.1832827   0.08186279  65.24 0.0005580125    2.007    0.502
        59  -9.9786     20.8010    133.8957   7.4282926841e+01   4.5253690401e+01    0.2904772    0.2655031 -34.88  0.001181959    1.287    0.223
        60 -10.2377     50.4958    250.0016   7.5248352892e+01   1.6386806983e+01    0.1450896    0.1058348 -86.89  0.001027897    1.575    0.365
        61 -10.0333     23.0648    126.3767   7.2724213982e+01   4.7056664255e+01    0.1848345    0.1726967  61.77 0.0005188413    1.108    0.097
        62  -9.6408      2.1537    125.7011   7.9864990857e+01   4.8767571871e+01    0.2466892    0.1561124  82.76  0.001075642    1.402    0.287
        63 -10.7133    104.5939    122.2734   4.5045947416e+01   3.6571187000e+01    0.3551727     0.333362  48.59  0.001009535    1.076    0.071
        64  -8.9557     27.2640    123.6410   7.0930482456e+01   4.7410259721e+01    0.1496411   0.09511385  68.64 0.0003339331    1.633    0.388
        65  -9.4123     49.9987    122.1758   6.2696130753e+01   4.5315325167e+01    0.2452635    0.1675465 -21.25  0.001093388    2.038    0.509
        66  -9.9494     44.5033    119.5053   6.4190737901e+01   4.6699302951e+01    0.2752719    0.2206607 -83.33 0.0007957239    1.193    0.162
        67  -9.9795     43.4237    116.1996   6.4026778541e+01   4.7712186928e+01    0.2709402    0.2286282  75.05 0.0008068153    1.178    0.151
        68 -10.9278     12.7501    111.4581   7.4809648390e+01   5.1874772307e+01    0.4918195    0.2181748 -80.51  0.001356222    2.056    0.514
        69 -10.6776     16.3176    109.0700   7.3174124125e+01   5.2257248705e+01    0.3327431    0.2692132  66.33  0.001242708    1.217    0.179
        70 -11.2668      8.0136    114.8615   7.6918442503e+01   5.1281165350e+01    0.3456343    0.2343796 -66.21 0.0003825677    1.332    0.249
        71 -12.1213      2.7834    111.3926   7.8546787420e+01   5.2521103011e+01    0.4730294    0.3300404  79.93  0.001273203    1.305    0.233
        72 -11.5093      4.3518    105.3538   7.7407377982e+01   5.4045176199e+01    0.4563831    0.3768166  43.83  0.002270374    1.288    0.224
        73  -9.7953     79.0926    114.7290   5.1222354150e+01   4.2980403616e+01    0.2883579     0.216749 -51.22 0.0007494116    1.305    0.234
        74 -10.2865     58.6106    114.9945   5.8330049777e+01   4.6074224481e+01    0.2585732    0.2055434  48.86 0.0003097705    1.284    0.221
        75 -10.2398     35.2573    102.8432   6.4801434508e+01   5.2218241749e+01     1.334725    0.5926554  -0.30  0.003720247    5.740    0.826
        76 -11.4160     24.5943    102.7335   6.9048064878e+01   5.3289235041e+01    0.7777532    0.3828187 -86.71  0.003150046    2.243    0.554
        77 -11.6849     22.5194    113.9810   7.1434212594e+01   5.0433214708e+01    0.6863956    0.4388504 -55.77  0.002322626    1.497    0.332
        78 -11.5740     28.5499    112.8078   6.9010024385e+01   5.0205907272e+01    0.4967705    0.3278193  58.37  0.001868459    1.589    0.371
        79  -8.6761    104.4605    112.5012   4.2711067307e+01   3.8916173864e+01    0.1540909    0.1491604 -74.13 0.0002419602    1.023    0.022
        80  -9.8484     49.0082    111.9393   6.1214224551e+01   4.8169494326e+01    0.2795498    0.2082088  30.86 0.0009242637    1.421    0.296
        81 -12.0082     79.4694    107.8786   4.9480902518e+01   4.4649253840e+01    0.6605883    0.3686875  37.03  0.001909264    1.838    0.456
        82  -9.6448    174.2217    108.4723   2.4888634340e+01   2.5380076037e+01    0.3092476    0.2060147  63.89  0.001446222    1.914    0.477
        83  -9.1471    120.2243    108.9738   3.7337240570e+01   3.6566319270e+01    0.2108254    0.1247968 -47.41 0.0005996037    1.648    0.393
        84  -9.8783    101.9824    108.8382   4.2515272933e+01   4.0265061815e+01    0.2487155    0.1817682   9.74 0.0005305397    1.934    0.483
        85  -8.9160     45.5203    105.4873   6.1284302578e+01   5.0328429172e+01    0.1477716    0.1368239 -73.36 0.0008101837    1.010    0.010
        86 -11.1501     50.4906    100.9259   5.8416788910e+01   5.0903672556e+01    0.7071186    0.3980169 -36.59  0.002394171    2.209    0.547
        87  -9.7422     85.9244    103.4670   4.6203035908e+01   4.4602343436e+01    0.2744215    0.2271087  13.84 0.0009361578    1.435    0.303
        88 -10.4274     91.8316    102.1066   4.3909797113e+01   4.3831949164e+01    0.4546574     0.377458 -32.56  0.002238763    1.307    0.235
        89  -9.7186     57.3133    102.7666   5.6211172313e+01   4.9476030372e+01    0.3145178    0.1393805 -70.35  0.001079719    2.707    0.631
        90 -12.2116     67.4089     95.0876   5.0541218874e+01   4.9910760726e+01    0.6095127    0.5155846 -21.54   0.00117229    1.361    0.265
        91 -10.5509     17.1728    100.0902   7.1669312691e+01   5.4613550191e+01    0.3032742    0.1957733 -68.65 0.0007965379    1.355    0.262
        92  -9.9714     16.1609     94.7795   7.1333600470e+01   5.6118803065e+01    0.3272707    0.1908943 -81.12  0.001373664    1.603    0.376
        93 -11.3797      9.2496     96.8857   7.4519729498e+01   5.6024206216e+01    0.4755296    0.3724826  65.81 0.0003786968    1.289    0.224
        94 -10.4835     30.9153     97.1681   6.5535041541e+01   5.4192191867e+01    0.4680391    0.4145128 -77.14   0.00266138    1.037    0.035
        95  -9.3627    210.3388     97.9097   1.6351843933e+01   2.0039650553e+01    0.1868585    0.1494917 -32.38 0.0003835928    1.079    0.073
        96 -11.4582     79.9692     93.4632   4.5540034852e+01   4.8144304098e+01    0.9251065    0.7362313 -60.66  0.004538069    1.246    0.197
        97 -10.2753     81.6545     83.7702   4.2096348714e+01   5.0155967395e+01    0.5760456     0.291503  33.45  0.002178107    2.275    0.560
        98 -12.1728     75.3477     78.7674   4.2829028708e+01   5.2521855426e+01    0.6189705    0.4842451  61.28 0.0003888475    1.461    0.315
        99 -11.5751     22.3627     93.7141   6.8527561858e+01   5.5911823051e+01    0.7238939    0.3550451  51.39  0.001213799    2.354    0.575
       100 -10.3966     19.0835     86.3600   6.8708713927e+01   5.8149384387e+01    0.4392808    0.3379694  -4.87  0.002383384    1.531    0.347
       101 -10.8539     36.0652     90.4334   6.2035866374e+01   5.5447049639e+01    0.6521226    0.4774342  52.80  0.002603946    1.490    0.329
       102 -11.1302     27.8455     85.3300   6.4570944674e+01   5.7652690858e+01    0.5815213    0.4392476 -47.63  0.001350703    1.274    0.215
       103 -10.2231     52.0252     86.7638   5.4420863020e+01   5.4387712739e+01     0.430382    0.2657348 -57.36  0.000652081    1.504    0.335
       104 -11.8073     45.1586     83.8659   5.6579284865e+01   5.6069788578e+01      1.15279    0.6692774  78.45  0.003994001    2.958    0.662
       105  -9.1039    141.0002     95.4822   2.8416652107e+01   3.4970134699e+01    0.2013076    0.1320435  23.36 0.0004279377    2.245    0.555
       106 -10.5086     43.0119     94.2480   5.9947381520e+01   5.3625743883e+01    0.3610044    0.2781606  27.71  0.001427047    1.402    0.286
       107 -10.6563     43.6749     90.6085   5.8851723797e+01   5.4503129779e+01    0.2564393    0.2345428 -59.34  0.000313444    1.030    0.029
       108  -9.5361    125.7319     93.9871   3.1740155191e+01   3.8650308010e+01    0.2384353    0.2110745  50.80 0.0005591676    1.166    0.142
       109 -10.0034    121.9905     93.4937   3.2580245255e+01   3.9575570253e+01    0.3002763    0.2136417 -59.15 0.0008803309    1.530    0.346
       110 -10.1763     98.3581     90.6798   3.8601770816e+01   4.5232213307e+01    0.2768298    0.2284926  51.37 0.0006925067    1.252    0.201
       111 -10.6914      1.8692     71.6172   7.4509993281e+01   6.3125033816e+01    0.6240824    0.2091457 -73.85  0.002429937    2.497    0.599
       112 -11.1655      2.8121     81.8218   7.5458264009e+01   6.0399237160e+01      1.02027    0.2427541 -74.90   0.00336273    3.428    0.708
       113 -11.3738      6.7567     88.5842   7.4546989156e+01   5.8394245809e+01    0.6413574    0.2957213  41.65  0.002830263    2.318    0.569
       114  -9.7842      9.4805     86.5065   7.3053028637e+01   5.8786893367e+01    0.3720686    0.2303536  76.93   0.00121709    1.726    0.421
       115 -10.0885     66.5066     88.4110   4.9077540928e+01   5.1738660641e+01    0.3936188    0.2826252 -10.97  0.001175461    1.985    0.496
       116  -9.3597    104.1945     86.8348   3.5642013445e+01   4.4876963704e+01    0.2175007    0.1877895 -16.05  0.001068563    1.333    0.250
       117 -10.0713     90.6827     85.7300   3.9592686252e+01   4.7928244483e+01    0.3948935    0.3403296  64.59   0.00198732    1.254    0.202
       118 -10.3184    143.2391     84.2453   2.4676238421e+01   3.6663819536e+01    0.2576877    0.2259201 -48.44 0.0005136135    1.089    0.082
       119 -11.1461    112.5900     82.8076   3.1938085895e+01   4.3919417878e+01    0.5686399    0.3643965  68.45  0.002293295    2.116    0.527
       120 -11.0390     60.7131     83.2815   4.9906111281e+01   5.3959760750e+01    0.2843187    0.2639083  79.10 0.0003784356    1.141    0.123
       121  -9.4338    151.3699     83.3358   2.2664577999e+01   3.4971870600e+01     0.193869    0.1343907 -45.24  0.000899551    1.368    0.269
       122 -10.1254     67.3131     81.5023   4.6756071089e+01   5.3305449837e+01     0.350881    0.2870979 -25.40  0.001706215    1.374    0.272
       123  -9.6084    120.7328     81.3598   2.9257894456e+01   4.2388870592e+01    0.2749719    0.1452072 -51.81  0.000446017    2.032    0.508
       124  -9.5529    118.9685     78.2621   2.8748113168e+01   4.3419202952e+01    0.2625168    0.1972473 -50.50 0.0006204693    1.320    0.243
       125  -9.4848    103.3032     79.4917   3.3603778600e+01   4.6669925832e+01    0.2717206    0.1383363 -44.79 0.0007033527    1.918    0.479
       126 -10.8456     88.9632     77.3501   3.7509846606e+01   5.0178132231e+01    0.5451152    0.3296846  50.28  0.002308011    1.753    0.430
       127 -10.4808     94.1621     76.1460   3.5382488079e+01   4.9358945169e+01    0.5646849    0.3672234 -57.86  0.002001031    1.692    0.409
       128 -10.9473     53.3641     76.2619   5.0916377318e+01   5.6841471790e+01    0.4663523    0.3609709 -70.93  0.002331126    1.368    0.269
       129 -10.1493     58.2054     77.4614   4.9219013669e+01   5.5797722022e+01    0.2740009    0.2015103 -55.83 0.0005662449    1.296    0.228
       130  -9.2844    126.0475     76.9642   2.6505856988e+01   4.2044395554e+01    0.2526308    0.1945439   8.16  0.001134958    1.806    0.446
       131  -9.5624    180.2553     76.0192   1.5337167296e+01   2.9711861487e+01    0.3783473     0.155076  54.90  0.001485293    2.606    0.616
       132  -9.8231     46.4942     75.4047   5.3691101507e+01   5.8044658064e+01     0.332461     0.204328 -39.58  0.001486377    1.712    0.416
       133 -11.0080     14.1324     73.9812   6.8780965639e+01   6.1792212130e+01    0.4619329    0.2718129 -74.59  0.001643635    1.564    0.361
       134  -9.8829    103.6516     74.8514   3.1976452464e+01   4.7576228991e+01    0.3094117    0.2306034  57.04  0.001270936    1.421    0.296
       135 -10.0883     37.9142     85.2461   6.0076094680e+01   5.6604447039e+01    0.3453011    0.2045377   7.62  0.001471853    2.269    0.559
       136 -11.2088     27.4639     73.2714   6.2057992571e+01   6.0845250438e+01    0.4954378    0.3674055  -5.92  0.001127079    1.591    0.371
       137 -10.9024     35.1468     71.4347   5.7853722599e+01   6.0487593651e+01    0.4867444    0.2178251  41.42   0.00194116    2.464    0.594
       138 -10.7111     41.1948     72.8085   5.5370725458e+01   5.9401105798e+01    0.3323214    0.2470785  17.99 0.0008867417    1.505    0.336
       139 -11.6433     40.5509     68.9275   5.4538868397e+01   6.0452972969e+01    0.4303207    0.3031765  32.16  0.001792277    1.506    0.336
       140 -11.1186    246.7907     72.4896   6.2640529429e+00   1.7098904714e+01    0.2499002    0.1404577 -33.75  0.001417727    1.395    0.283
       141 -10.1672     80.8336     71.8014   3.8499072460e+01   5.3058740405e+01    0.4143057    0.2689891 -42.59  0.001845708    1.522    0.343
       142  -9.5996     77.9983     67.4935   3.8035568020e+01   5.4573451818e+01    0.2951024    0.2104151 -74.43  0.001114815    1.914    0.478
       143  -9.1350    154.3796     72.2658   1.8802025354e+01   3.6253302650e+01    0.1491797    0.1148258  24.34  0.000600501    1.682    0.406
       144 -10.8931    122.6941     68.5061   2.4597205150e+01   4.4453276852e+01    0.5060599    0.2807491  50.03  0.001692859    1.835    0.455
       145  -9.7747     13.3550     67.4469   6.7865435107e+01   6.3544697208e+01     0.468473     0.143494  14.03  0.001553029    3.958    0.747
       146 -12.7026      7.1980     63.3986   7.0320227150e+01   6.4978369918e+01    0.6874288      0.28258 -38.97 0.0005162699    2.516    0.603
       147 -12.5015      4.3214     61.2697   7.1484635822e+01   6.5679133860e+01    0.8402337    0.2603238 -41.39 0.0002249545    3.228    0.690
       148  -9.2418    192.4490     65.3984   1.0691012487e+01   2.8684849992e+01    0.1383722    0.1198317 -52.10 8.745564e-05    1.043    0.042
       149 -11.2959     93.1795     62.9504   3.1089630621e+01   5.2336352925e+01    0.6782397    0.3875645  68.07  0.002464882    2.761    0.638
       150  -9.0159     51.5074     65.5624   4.8335917889e+01   5.9717070491e+01    0.1455066    0.1376466 -38.47  8.93934e-05    1.012    0.012
       151 -10.1360    105.5231     63.1419   2.7371080158e+01   4.9503260242e+01     0.452352    0.2819091  34.74  0.001888417    1.942    0.485
       152 -10.4160    106.3634     58.3355   2.5384615937e+01   5.0212104683e+01    0.3564005    0.2700104 -83.69  0.001367371    1.705    0.413
       153 -10.3385    158.6415     62.7339   1.5145817613e+01   3.6838214495e+01    0.3213658    0.2062223  50.55 0.0005977261    1.674    0.403
       154 -11.0252     88.4325     54.6039   2.9482007987e+01   5.5022986972e+01    0.8044263    0.2976694 -30.95  0.002284446    4.225    0.763
       155  -9.6427     50.6862     56.4422   4.5454109450e+01   6.1954483807e+01    0.2686565    0.2183849  27.74  0.001178316    1.289    0.224
       156 -11.8825     44.3031     60.1884   4.9894454932e+01   6.2057364852e+01    0.9055095    0.4265471  31.58  0.002742935    2.249    0.555
       157 -10.8591     40.2813     56.5737   5.0630747109e+01   6.3468678651e+01    0.3524046    0.2327173  37.24  0.001156358    1.609    0.378
       158  -9.2470    150.9637     60.6620   1.5899347825e+01   3.9016905904e+01    0.1986397     0.185908  82.81 0.0004260908    1.085    0.078
       159 -10.2006    114.0458     60.7051   2.4140760744e+01   4.7956713069e+01    0.3109565    0.2914092 -73.72  0.001335774    1.078    0.072
       160 -10.8486    123.9073     57.1555   2.0419191070e+01   4.6205724581e+01     1.282383    0.6157754 -17.15  0.003507951    5.049    0.802
       161 -11.7766    125.4630    240.8264   5.9091885275e+01   9.1958967785e+00    0.4322117    0.2025859  32.38  0.002345941    1.698    0.411
       162 -10.5632    118.4048     56.2038   2.1415446234e+01   4.7710340142e+01      0.79866    0.4484954  88.27  0.002460378    4.096    0.756
       163 -11.9559    116.7173     46.5117   1.8268860245e+01   4.9740426126e+01    0.8567798    0.7038303   6.92  0.004320304    1.505    0.336
       164 -11.6555    119.3423     36.9640   1.4039535601e+01   5.0525663216e+01    0.4234759    0.3295666 -47.52  0.001119816    1.287    0.223
       165 -11.1421     76.2470     57.9644   3.5148453291e+01   5.6952636395e+01    0.3436618    0.2729297 -45.10 0.0008490459    1.238    0.192
       166 -12.2912     73.2738     47.9403   3.2209395128e+01   5.9556596441e+01     1.100739    0.5633529 -56.53  0.002870426    2.722    0.633
       167 -10.8260     31.9947     52.7467   5.3659571016e+01   6.5434047113e+01    0.5113669    0.2523631  18.59  0.002125132    2.481    0.597
       168 -11.5068     25.7181     56.8493   5.8470542075e+01   6.5151325154e+01    0.6751302    0.4765271  55.49  0.002251781    1.758    0.431
       169  -9.7429     21.3465     57.6989   6.1143324991e+01   6.5367976840e+01    0.3214144     0.210078  81.93  0.001261141    2.090    0.522
       170  -9.6934     91.9659     57.2845   2.9357549737e+01   5.3721239218e+01    0.2765914    0.2112565 -69.26 0.0008908384    1.608    0.378
       171 -11.2515    157.0535     55.4446   1.3187368468e+01   3.8369743243e+01    0.5483168     0.340462 -55.19  0.001260619    1.682    0.405
       172 -11.0839    155.0461     48.4577   1.1331548034e+01   3.9910377950e+01    0.3023488    0.2237282 -24.95 0.0002857647    1.442    0.306
       173  -8.8933     33.3268     56.6981   5.4300253489e+01   6.4336421844e+01    0.1388452    0.1082448  68.58 0.0003131735    1.641    0.391
       174  -8.8852    237.7404     55.6957   3.3506923899e+00   2.0887775453e+01    0.1106932   0.08955801  -8.09 0.0002532931    1.517    0.341
       175  -9.3425     67.3328     54.8242   3.7434125056e+01   5.9368623902e+01    0.2094555    0.1309318 -37.11  0.000760436    1.637    0.389
       176 -10.7599     60.8328     52.1199   3.9105513243e+01   6.1153870514e+01    0.6881126    0.3362549 -59.64  0.002465748    2.950    0.661
       177 -10.6568     61.2100     46.3810   3.6515835587e+01   6.2255818678e+01    0.4047981    0.2849995 -18.34   0.00190407    1.754    0.430
       178 -10.3386     46.8678     48.8287   4.4312587658e+01   6.4243118420e+01    0.6639429    0.3328331 -28.68  0.002405026    3.048    0.672
       179 -12.3971     40.4142     44.2788   4.5760876877e+01   6.6213145675e+01     1.259886    0.4481532  32.48  0.003950507    3.026    0.670
       180 -10.8887     20.7190     46.0537   5.7837574042e+01   6.8238149965e+01    0.3761811    0.2862187 -55.84  0.001547097    1.202    0.168
       181 -10.8139     26.4709     42.5903   5.3047780905e+01   6.8424474405e+01    0.3638698    0.3208399  61.54  0.001011888    1.388    0.280
       182 -10.0324     23.2446     37.0168   5.2778212983e+01   7.0031826687e+01    0.4841372    0.2165132  38.28  0.002095039    2.491    0.598
       183  -8.8849    201.6691     52.6725   6.2012898747e+00   2.8500700910e+01    0.1289325    0.1031532  17.01 0.0007051326    1.711    0.416
       184 -11.2437    120.1661     40.6026   1.5246277722e+01   4.9789298172e+01    0.4166434    0.2798117  49.43 0.0006175926    1.516    0.340
       185 -10.0101     57.9810     62.3442   4.4302684046e+01   5.9418360331e+01    0.3002587     0.275562  68.15  0.001406614    1.220    0.180
       186 -10.4981    243.9837     51.0436   1.7820961187e+00   2.0332684708e+01    0.1873222    0.1415272 -47.44 0.0005190042    1.067    0.063
       187  -8.9564     10.6480     51.2262   6.5556361412e+01   6.7825782106e+01     0.192634    0.1022872 -56.90 0.0004041555    1.574    0.365
       188 -10.4593    144.9879     50.1631   1.3629820847e+01   4.2136196602e+01    0.2817142    0.2148188 -18.31  0.000373983    1.506    0.336
       189  -9.4508     55.3334     50.0673   4.0740603434e+01   6.2569012697e+01    0.2116816    0.1829985  -7.74  0.001147025    1.228    0.186
       190  -9.7164     51.9804     48.0571   4.1480553046e+01   6.3569616791e+01    0.2216826    0.2023935 -14.86 0.0005562537    1.077    0.072
       191 -10.1552     83.2015     46.5514   2.7979824107e+01   5.7680793777e+01     0.448554    0.2737615 -13.20  0.001718523    2.687    0.628
       192  -9.2316      2.0101     48.5411   7.0203381489e+01   6.8991657737e+01    0.1779821    0.1280997   9.43 0.0009235651    1.554    0.356
       193 -10.1910     13.2449     46.3462   6.2562557039e+01   6.8823037994e+01    0.2942057    0.1747329 -37.07  0.001099269    1.623    0.384
       194 -10.1901    234.1117     44.2579   1.0398468427e+00   2.2998771306e+01    0.2985857     0.144819 -31.32  0.001317672    1.734    0.423
       195  -9.9405    145.5361     43.3361   1.1264615762e+01   4.3009554686e+01     0.400856    0.1958226 -53.65  0.001559876    2.328    0.570
       196  -9.5707    138.5659     44.2880   1.2839380063e+01   4.4617192061e+01     0.394554    0.2046033  31.29  0.001329915    3.568    0.720
       197  -9.4844    199.9585     44.7784   4.3211222191e+00   2.9925746436e+01    0.3411457    0.1152961  79.09  0.001042772    5.281    0.811
       198 -10.2544    156.0021     42.0830   9.1499307240e+00   4.0584484781e+01     0.290535    0.2063564 -26.22 0.0008819939    1.476    0.323
       199  -9.9395     99.3942     41.7920   2.0909368975e+01   5.4734067713e+01    0.3550214      0.23676 -78.62  0.001483424    2.261    0.558
       200  -9.9616     56.7489     41.7249   3.6443469241e+01   6.4005536438e+01     0.239188    0.2193199  76.85 0.0004288395    1.305    0.234
       201  -9.5832     17.9004     40.8049   5.7726559805e+01   6.9728333699e+01    0.3034472     0.147312 -46.94  0.001400191    1.801    0.445
       202  -8.8680     90.6902     41.2773   2.3272036792e+01   5.6884436887e+01    0.1446909    0.1151682 -77.99 0.0002993047    1.557    0.358
       203  -9.8167     12.1372     29.9980   5.7422557200e+01   7.2683561748e+01    0.3776821    0.2273385 -32.72  0.001976993    1.608    0.378
       204 -10.9643      3.7619     36.4601   6.5831481475e+01   7.1813581412e+01    0.5208048     0.317487 -62.04  0.001551972    1.428    0.300
       205  -9.3658      6.1814     30.6374   6.2090645599e+01   7.3004950243e+01     0.369001    0.1719009 -13.24  0.001396441    2.866    0.651
       206  -9.9341    250.0131     39.2668   3.5875034633e+02   2.0664876506e+01    0.2255151    0.1119696 -48.70 0.0008352306    1.599    0.375
       207 -11.3202     78.9720     35.5064   2.4562056829e+01   6.0519311490e+01    0.7865218    0.5063726 -32.73  0.003729014    1.586    0.369
       208 -10.7408     61.0559     36.1250   3.1866669952e+01   6.4223186614e+01    0.4918325    0.2918773 -26.78  0.001553259    1.942    0.485
       209  -9.3408     70.5254     33.4769   2.6693586680e+01   6.2713350972e+01    0.2091673    0.1792916 -78.90 6.368872e-06    1.453    0.312
       210  -9.0608     67.2044     32.0037   2.7273066184e+01   6.3665496810e+01    0.3373046    0.2165752  27.09  0.001540244    1.886    0.470
       211 -10.0497    226.9983     36.9978   3.5990955465e+02   2.5259349123e+01    0.2293397    0.1675448  83.05 0.0008364825    1.518    0.341
       212  -9.4251    206.2488     37.2135   1.7281892512e+00   2.9520747254e+01    0.1788813    0.1244052 -57.78 0.0003622669    1.292    0.226
       213 -10.6764    153.4622     35.7922   7.5031953323e+00   4.2063726064e+01    0.2772222    0.2541431 -46.32 0.0006851482    1.081    0.075
       214 -11.3520    177.7577     28.3753   2.1427040952e+00   3.7057218253e+01    0.3114018    0.2555418  37.03  0.001637351    1.528    0.346
       215 -11.0904    175.4072     34.3486   4.1575443777e+00   3.6886584981e+01     0.690205    0.2889231 -61.26 0.0008792193    3.243    0.692
       216  -9.4065     94.1696     35.3807   1.9682889186e+01   5.6992266503e+01    0.1997692    0.1379112  71.32 0.0005776285    1.637    0.389
       217 -11.2577     68.0173    240.2653   7.0987586649e+01   1.6176505253e+01    0.3348998    0.2090132   9.29  0.001890364    2.127    0.530
       218 -11.4891    107.2369     31.5485   1.4622895144e+01   5.4331053522e+01    0.5078408     0.331342  16.90   0.00163592    2.262    0.558
       219 -10.8777    102.8696     32.6189   1.6143911010e+01   5.5270236529e+01    0.3763081    0.2727179 -82.00 0.0003147517    1.726    0.421
       220 -10.8660    146.9263    237.6009   5.4429637218e+01   7.0176760815e+00    0.3543328    0.2570092  48.45  0.002305277    1.667    0.400
       221  -9.4824     15.4562    233.3360   8.1675056081e+01   2.2841972696e+01    0.1847889   0.09854657 -77.61  0.001120974    2.020    0.505
       222 -10.6457    239.8914     32.2619   3.5788494328e+02   2.3326682097e+01    0.2836086    0.2107438  48.67  0.001504364    1.834    0.455
       223 -11.5678    159.8686     29.2109   4.4978262970e+00   4.1302329025e+01    0.5137342     0.308464  67.21  0.001831834    1.651    0.394
       224  -9.0624     23.5235    231.5039   7.9909869004e+01   2.2444478152e+01     0.116556   0.08767895  51.99 0.0002444558    1.014    0.014
       225  -9.9139    217.0083     31.9588   3.5948262057e+02   2.7880970855e+01    0.1696729    0.1477705  13.17 0.0003020283    1.548    0.354
       226  -9.9152     45.5369     24.8863   3.3434847406e+01   6.9125104219e+01    0.3350133    0.1563348 -31.42  0.001345279    2.378    0.580
       227  -9.0869    189.8013    229.4415   4.5250706435e+01   2.9004352282e+00     0.153425   0.08882845  17.56 0.0005771146    1.535    0.348
       228 -11.5961     49.2885     29.8974   3.4230031914e+01   6.7574649786e+01    0.6929883    0.3665118  35.11  0.002854493    1.997    0.499
       229 -11.8459     26.5069     27.7349   4.6295716840e+01   7.1586882513e+01    0.4970564    0.4333373 -61.03  0.002068981    1.342    0.255
       230 -10.4565     73.0208    237.6845   6.9730343667e+01   1.6061683148e+01      0.28033     0.180646  43.43   0.00176995    1.252    0.201
       231  -8.9906     22.3099     31.2890   5.0845125890e+01   7.1373311429e+01    0.1364989   0.09184309 -22.65 0.0003177235    1.579    0.367
       232 -10.7338    189.1790     27.1837   6.5326622495e-01   3.4527910523e+01    0.3813638    0.2854757  30.95  0.002095233    1.846    0.458
       233 -11.1290    183.1325     25.3642   7.2502198282e-01   3.6141740778e+01    0.3439769    0.2084949 -53.99  0.001452231    1.502    0.334
       234 -12.0574    127.0989     28.1243   9.1313722311e+00   4.9733856165e+01     0.901329    0.4266481  78.25  0.003427413    2.577    0.612
       235 -10.0942    250.5667     26.9885   3.5606228353e+02   2.1957598940e+01    0.1710833    0.0910543 -32.69 0.0003909789    1.513    0.339
       236 -10.3163    230.1431     27.0419   3.5734528707e+02   2.5794481396e+01    0.2461992    0.1744339  72.59  0.001109721    1.613    0.380
       237 -10.0278    150.7566     27.1425   5.0387702029e+00   4.3828986754e+01    0.3329947    0.1590394  50.91  0.001387908    2.274    0.560
       238 -10.5238     10.0077    217.5062   8.2269618038e+01   2.6424510925e+01    0.1805832    0.1318451  78.56 0.0007141698    1.256    0.204
       239  -9.4187    146.6767     22.6765   4.0914437939e+00   4.5383428953e+01    0.2038785    0.1514186 -67.51 0.0005715879    1.333    0.250
       240 -10.5008    154.9133     24.0499   3.4681489964e+00   4.3149197526e+01     0.401291    0.2158043 -72.46   0.00158597    2.243    0.554
       241 -10.5471    150.0110     22.4977   3.5860308076e+00   4.4560012906e+01    0.3470176    0.2006284 -76.48  0.001137469    1.994    0.498
       242  -9.4408    155.4499     20.5148   2.2477366815e+00   4.3414912197e+01    0.2183359    0.1791083  65.02 0.0005733004    1.247    0.198
       243  -9.2601     97.8393     25.8232   1.4471916191e+01   5.7441386290e+01    0.2013618    0.1661219 -76.66 0.0005964579    1.357    0.263
       244 -10.0831    201.4718     24.0242   3.5872141938e+02   3.2121715358e+01    0.2671938    0.1331847  53.37  0.001266934    2.438    0.590
       245 -10.0770    169.3045     23.0942   1.4800025232e+00   3.9704024807e+01    0.3459814    0.1802084  69.01  0.001240615    1.895    0.472
       246  -9.2947    164.5095    211.4662   4.7370444558e+01   8.7155710949e+00    0.1226334     0.102879  11.95 0.0002372849    1.024    0.024
       247 -10.8811    133.8194     21.9955   5.7216710103e+00   4.8744069301e+01    0.4166492    0.3907123  76.57  0.002012151    1.064    0.060
       248  -9.0621    131.3274    209.3245   5.3952151653e+01   1.3654058115e+01    0.1294533   0.09184267  -4.68 0.0004926471    1.695    0.410
       249  -9.9473     17.2680    205.4092   8.0131981213e+01   2.8297220177e+01    0.2251778    0.1134418  66.49  0.001200291    1.793    0.442
       250 -11.6516      5.9559    199.1555   8.2518404335e+01   3.0620167216e+01    0.4503247    0.2050969 -63.82  0.002302081    2.423    0.587
       251  -9.4503     45.6605     19.2820   3.0120711371e+01   7.0014255649e+01    0.3363524    0.2555003  88.64  0.001668248    2.305    0.566
       252  -8.8766     78.5218    203.5088   6.5349068538e+01   2.1949219536e+01     0.130254    0.1117991  46.50 0.0002428571    1.020    0.020
       253 -10.3929      4.2303     22.2212   6.0227742599e+01   7.5005042548e+01    0.4236528    0.2431394  19.63  0.002295328    1.841    0.457
       254  -9.0774    233.7679    196.0249   3.2583100863e+01   1.9979651402e+00    0.1463901   0.07810476 -31.06 0.0005047313    1.619    0.382
       255 -12.5037      6.1322    185.6711   8.1940364478e+01   3.3612000880e+01    0.6401107    0.3318571 -75.14   0.00327344    1.868    0.465
       256 -11.9311      2.8060    182.7696   8.2655647052e+01   3.4536914693e+01    0.5924175     0.205112 -72.93  0.002377685    2.692    0.628
       257 -10.7580    222.9594     21.1702   3.5643845439e+02   2.7883365978e+01     0.274474    0.1731952 -48.56 0.0005731799    1.258    0.205
       258 -10.9140    178.9068     20.6736   3.5978582519e+02   3.7667876066e+01    0.5516353    0.2371393  50.42  0.002278118    2.865    0.651
       259  -8.5860    139.7037    182.6937   4.8028451448e+01   1.7325488516e+01    0.1349641   0.09983577  -6.76 0.0005531016    1.586    0.370
       260  -9.6922     27.9509    176.1576   7.5734213570e+01   3.3913517315e+01    0.2464889    0.1428967 -51.02  0.001231832    2.052    0.513
       261  -9.6276    216.6605     19.9940   3.5657300285e+02   2.9308639888e+01    0.1777629    0.1301569 -42.06 0.0003439975    1.141    0.124
       262 -10.0509     15.9155    174.0713   7.8825072784e+01   3.5513603399e+01    0.3274965    0.1557976  82.48  0.001534248    2.060    0.515
       263  -9.7468     74.6784     19.3917   1.8081232663e+01   6.3847933798e+01    0.2171709    0.1610226   6.94 0.0006394242    1.591    0.372
       264 -10.9654    247.3142     18.1179   3.5432713560e+02   2.3505265144e+01    0.2696194    0.1703195  -1.40  0.001465745    2.696    0.629
       265  -9.0624    193.9940     19.0000   3.5799284424e+02   3.4350805381e+01    0.1961296   0.07048023  75.09 0.0006987727    2.876    0.652
       266  -9.8930     39.0284    173.0482   7.2472133112e+01   3.3530436476e+01    0.2317699     0.132001  59.06  0.001131467    1.690    0.408
       267  -9.1792    170.6620    171.7037   3.9430074350e+01   1.4451414078e+01    0.1377434   0.09634787  -1.43 0.0003305276    1.654    0.395
       268  -8.8682     50.7429    170.3309   6.8968913537e+01   3.2870953907e+01    0.1415017   0.09156787  65.46 0.0001978755    1.563    0.360
       269 -11.0889      1.7078    166.1374   8.2246890863e+01   3.8543324630e+01    0.3465926    0.2655103 -70.41 0.0009066773    1.351    0.260
       270 -11.2629    238.1973     16.1569   3.5437670125e+02   2.5417523863e+01    0.2786413    0.1514406  72.06  0.001635187    2.080    0.519
       271  -9.8234    211.0935     16.0155   3.5596290041e+02   3.0909854810e+01    0.1853059    0.1484839 -53.11            0    1.012    0.012
       272  -9.7619    147.4541     15.6810   1.6048813759e+00   4.5950635307e+01    0.2526711    0.1464464  52.17  0.001193264    1.833    0.454
       273  -9.7927    187.0212     14.9396   3.5744375765e+02   3.6381807177e+01    0.2008347    0.1754055 -59.37  0.001275987    1.045    0.043
       274 -12.0559      9.3306    166.8983   8.0202001889e+01   3.7786247618e+01    0.5249925    0.3512504  29.83  0.002737984    1.510    0.338
       275 -12.5899     12.9729    160.0818   7.8780769136e+01   3.9171599198e+01    0.9178584    0.4332535 -43.46  0.003929692    2.946    0.661
       276 -11.5161     16.5796    148.1849   7.6879222374e+01   4.1883203275e+01    0.6573827    0.2682149 -89.01  0.002576695    2.466    0.595
       277 -11.3607     21.4393    150.4784   7.5584446229e+01   4.0880707462e+01    0.2550037    0.2254501 -79.66 0.0005599737    1.128    0.113
       278 -11.5401     24.0017    147.9895   7.4585386950e+01   4.1290749716e+01    0.3576626    0.2714507 -84.05 0.0008640082    1.201    0.167
       279 -10.5325     18.5723    164.7226   7.7500093287e+01   3.7552552763e+01    0.3101653    0.2260796 -43.87  0.001745648    1.696    0.410
       280 -10.3545    205.1922    163.1595   3.1307849132e+01   1.0498598117e+01    0.2338382    0.1828871 -28.20 0.0007636557    1.152    0.132
       281 -11.0866     28.2095    161.5820   7.4515622765e+01   3.7446941568e+01    0.4038411    0.2068593 -73.36   0.00183485    1.836    0.455
       282  -9.5541    223.5274    156.5120   2.6999213925e+01   8.7934859471e+00    0.1252091    0.1006311 -16.56 0.0002210802    1.009    0.009
       283 -10.6024      9.6038    155.1679   7.9445852116e+01   4.0663936704e+01    0.3002111    0.1766649  80.05  0.001203454    1.537    0.349
       284  -9.6991    104.7721    154.4526   5.1655993097e+01   2.8954038892e+01    0.2757385    0.2066599 -57.85  0.001389565    1.377    0.274
       285  -8.6823    144.3439    154.2891   4.1731561749e+01   2.2165542793e+01    0.1459503    0.1088179  -2.00 0.0007024017    1.652    0.395
       286 -10.9372      4.1009    153.1820   8.0935995820e+01   4.1565489158e+01    0.3312044    0.1705003  35.35  0.001297306    1.815    0.449
       287  -9.1176     55.4715    152.4762   6.5475108602e+01   3.6722661751e+01    0.1423246    0.1300429  72.97 3.550739e-05    1.004    0.004
       288 -11.3524     47.7262    146.9768   6.7121064468e+01   3.9073759150e+01      0.68261    0.4347945 -38.95  0.002681622    1.968    0.492
       289 -12.2186      4.1338    142.4936   8.0312545305e+01   4.4275660427e+01    0.8169706    0.3826983  54.19  0.003791639    1.976    0.494
       290 -10.9246     14.9036    140.8936   7.6823722863e+01   4.3902586966e+01    0.2681005    0.2465486  65.13  0.001534412    1.104    0.094
       291 -11.4968     12.1205    136.0321   7.7326135352e+01   4.5385362696e+01    0.5759576    0.3289205 -54.71  0.002837447    1.804    0.446
       292 -10.1858    104.1170    147.3004   5.0494749771e+01   3.0725153141e+01    0.2600434    0.2113357 -66.16            0    1.297    0.229
       293  -9.1863     74.4960    148.2500   5.9154138049e+01   3.5199323094e+01    0.1947263      0.13871 -83.64 0.0004770143    1.552    0.356
       294  -9.8827    214.9626    161.3291   2.9307679817e+01   9.3252381877e+00    0.1707115    0.1436117  -4.88 0.0004843128    1.070    0.066
       295 -10.6785     33.0543    144.0375   7.1367796652e+01   4.1446707139e+01    0.3095796    0.2663155  88.39 0.0008400799    1.054    0.052
       296  -9.8351    232.1019    142.8563   2.3002671836e+01   9.5369974555e+00    0.1744866    0.1493872 -34.33  0.000365239    1.237    0.192
       297 -10.5254     40.7424    138.2112   6.8210515926e+01   4.2157590981e+01    0.3974768    0.2956986 -82.79  0.001566441    1.272    0.214
       298  -9.4768     31.8865    136.8780   7.0941542342e+01   4.3440919039e+01    0.2075622    0.1882462 -57.90 0.0008678527    1.184    0.155
       299 -10.2061     30.4629    132.4825   7.0900615699e+01   4.4744836809e+01    0.3442083    0.2707701 -42.91 0.0009422909    1.435    0.303
       300  -9.6988     26.0080    131.3098   7.2267132606e+01   4.5478436843e+01    0.2698824    0.1832369 -77.28 0.0004982111    1.339    0.253
       301 -11.2427     24.4577    136.3097   7.3318432698e+01   4.4295813245e+01     0.497819     0.449213  11.05  0.002986143    1.305    0.234
       302 -10.0260     79.9916    138.1223   5.5741724000e+01   3.6906925638e+01     0.225911    0.2078397  63.60 0.0005425747    1.065    0.061
       303 -10.2694     36.6351    133.4796   6.8955575344e+01   4.3851971251e+01    0.3632568    0.1994326  24.39  0.001235321    1.964    0.491
       304  -9.8603    103.8656    130.7865   4.7180204458e+01   3.4676173512e+01    0.2134279    0.2005334  -1.92 0.0002967747    1.154    0.133
       305  -9.4459     50.8221    129.8150   6.3669298498e+01   4.3185347059e+01    0.2056898    0.1578671  77.83 0.0004945555    1.339    0.253
       306 -10.7014      9.6469     19.2553   5.4325744545e+01   7.5192475870e+01    0.4143685    0.2312977  -4.43  0.001467549    2.220    0.549
       307 -11.1551     11.1436    125.4007   7.6759067777e+01   4.8260521926e+01    0.6154618    0.2871454 -54.94  0.002149876    2.108    0.526
       308  -9.3948     26.6960    127.0797   7.1546014572e+01   4.6542408240e+01    0.2005991    0.1609541 -82.62 0.0003752268    1.125    0.111
