#   1 NUMBER                 Running object number                                     
#   2 MAG_AUTO               Kron-like elliptical aperture magnitude                    [mag]
#   3 X_IMAGE                Object position along x                                    [pixel]
#   4 Y_IMAGE                Object position along y                                    [pixel]
#   5 X_WORLD                Barycenter position along world x axis                     [deg]
#   6 Y_WORLD                Barycenter position along world y axis                     [deg]
#   7 A_WORLD                Profile RMS along major axis (world units)                 [deg]
#   8 B_WORLD                Profile RMS along minor axis (world units)                 [deg]
#   9 THETA_WORLD            Position angle (CCW/world-x)                               [deg]
#  10 FWHM_WORLD             FWHM assuming a gaussian core                              [deg]
#  11 ELONGATION             A_IMAGE/B_IMAGE                                           
#  12 ELLIPTICITY            1 - B_IMAGE/A_IMAGE                                       
         1 -13.4921      2.7156    122.7554   1.3337152971e+02   4.8751724356e+01     2.196009    0.2583342 -73.06  0.007014699    5.353    0.813
         2 -13.2788      9.7445    113.5007   1.3066641240e+02   5.0309332094e+01    0.9458817    0.4220635 -85.54  0.003932619    2.110    0.526
         3 -12.8106    198.5880     33.3113   6.0977542497e+01   3.1101789618e+01     1.080316    0.7181045  44.64   0.00515583    1.606    0.377
         4 -13.5692    214.5887     15.0416   5.3863990427e+01   2.9138799566e+01     1.264247    0.9472613  27.59  0.006699912    1.657    0.397
         5 -12.1574      3.1478      5.1880   1.0882713314e+02   7.3132211608e+01     0.666569    0.3383335 -41.22  0.004231675    1.434    0.303
         6 -11.0864    143.2512    241.8760   1.1726041028e+02   8.0523934347e+00    0.3289379    0.1859199 -66.12  0.001900946    2.664    0.625
         7 -11.2359    185.0455    250.1915   1.1117440629e+02   5.4603808150e-01    0.4765069    0.1404523  44.20   0.00135405    2.648    0.622
         8 -10.3230    192.1727    248.6633   1.0979431468e+02  -3.6663985143e-01    0.2053878    0.1260722  45.71  0.000870307    1.397    0.284
         9 -10.6205    169.3988    248.8086   1.1361980237e+02   3.1102812859e+00    0.2501244    0.1732654  16.31 0.0008421799    1.792    0.442
        10 -11.1913    150.0008    248.2482   1.1682536869e+02   6.1557371678e+00    0.3247604    0.2411376 -67.73  0.002310478    1.848    0.459
        11 -10.5954    143.3916    249.2095   1.1804637036e+02   7.0314016814e+00    0.2432865    0.1815928  73.27  0.001193616    1.589    0.371
        12 -10.7158    135.9679    248.5155   1.1922379261e+02   8.2428571477e+00    0.2322135    0.2186226  14.60  0.001218224    1.393    0.282
        13 -10.6953    132.6934    249.3397   1.1986053124e+02   8.6188365798e+00     0.373162    0.2211101  73.25  0.002153494    2.450    0.592
        14 -11.4565    116.5408    238.8678   1.2154844308e+02   1.2526662067e+01    0.5017304    0.2850582 -42.94  0.002863353    2.737    0.635
        15 -11.4354    100.3929    247.8294   1.2511896395e+02   1.3502214157e+01    0.5435061    0.2489897  47.08  0.003188668    1.633    0.388
        16 -11.3341    124.0524    249.2563   1.2130251201e+02   9.9077549816e+00    0.6477755    0.2211322  42.74   0.00326343    2.229    0.551
        17 -10.1244    121.8475    245.2539   1.2127869590e+02   1.0802235471e+01     0.274058    0.1533235  54.22   0.00129545    1.487    0.327
        18 -12.1566    124.4181    240.7782   1.2038523555e+02   1.1071261526e+01    0.5652009    0.3668431  50.33  0.002731377    1.193    0.162
        19 -10.4861    114.8685    250.2451   1.2293030680e+02   1.1101023658e+01    0.3994385    0.2217093  42.02  0.002193566    1.456    0.313
        20 -11.5305    109.0787    246.3695   1.2353961124e+02   1.2493199902e+01    0.4084659    0.2719172  88.49  0.001916711    1.799    0.444
        21  -9.8341     91.1002    250.2127   1.2684647428e+02   1.4421290466e+01    0.2521083    0.1539419  41.23  0.001732266    1.474    0.322
        22 -10.9370     86.8432    248.1068   1.2737535094e+02   1.5309912007e+01    0.2929085    0.2471739  36.64 0.0008966745    1.513    0.339
        23 -10.3755     81.8414    246.8391   1.2809538415e+02   1.6167008699e+01    0.2882817    0.1961276 -86.25   0.00214311    1.546    0.353
        24 -10.7955     84.7176    241.7093   1.2721717293e+02   1.6580246886e+01    0.3463843    0.2200122  80.16  0.002389649    1.597    0.374
        25 -11.0364     60.2042    245.9061   1.3152704059e+02   1.9055117009e+01    0.3355091    0.2152144  64.61  0.001724024    1.168    0.144
        26  -9.6074     66.9045    244.0134   1.3032211050e+02   1.8526384926e+01    0.2264587    0.1290041  32.14  0.000913516    2.272    0.560
        27 -11.7449     57.7212    208.5907   1.2923689106e+02   2.5715491093e+01     1.001762     0.394235  49.05   0.00439848    2.062    0.515
        28 -14.6073      9.9531    209.6635   1.3766763814e+02   3.0659566949e+01      3.76964    0.9785591 -79.75   0.01834271    3.409    0.707
        29 -13.1051     40.1675    243.9140   1.3456868510e+02   2.1710479094e+01     0.937636    0.6407234  72.87  0.005574428    1.111    0.100
        30 -12.3056     20.2446    237.8947   1.3734795460e+02   2.4808247535e+01    0.7904143    0.3267232  72.28  0.004975964    2.085    0.520
        31 -13.2667      4.8992    244.9948   1.3992398804e+02   2.5164827391e+01    0.9653959    0.4289975  73.93            0    1.720    0.419
        32 -12.5523     13.7781    239.3282   1.3839324988e+02   2.5219589720e+01    0.7032941    0.3055302  79.48  0.001283287    1.956    0.489
        33 -11.0316     51.7412    219.0448   1.3110311348e+02   2.4556742564e+01    0.2725018    0.1907138  77.01 0.0003535091    1.159    0.137
        34 -12.6655     30.3287    226.8258   1.3519941200e+02   2.5612419813e+01    0.4663744    0.2322668 -73.15 0.0007492488    1.956    0.489
        35 -13.8042     36.6125    218.7484   1.3368215964e+02   2.6337389956e+01    0.9464768    0.7056391  58.90  0.007466382    1.177    0.151
        36 -11.0800    135.9868    225.0434   1.1657860974e+02   1.1649986454e+01    0.3250917     0.223025 -44.60  0.001154791    1.882    0.469
        37 -12.0620    135.2626    236.2333   1.1801157241e+02   1.0087413891e+01    0.4735269    0.3956631 -12.08  0.001351057    1.791    0.442
        38 -11.4737    105.1637    237.2152   1.2335057896e+02   1.4438982700e+01    0.4296058    0.3154415  -6.79  0.002420471    3.299    0.697
        39 -11.3363     99.0213    232.8695   1.2400491821e+02   1.6002887551e+01     0.407763    0.2379767 -78.85  0.002515208    2.075    0.518
        40 -10.9364     97.2909    238.9229   1.2485835101e+02   1.5291887373e+01    0.3121058    0.1764416  43.53  0.001435067    1.461    0.316
        41 -11.2877     84.8083    230.8940   1.2629783105e+02   1.8303527897e+01    0.5053055    0.2545989 -76.70  0.002946849    2.335    0.572
        42 -10.9043    113.3012    231.1827   1.2133083088e+02   1.4189362414e+01    0.2937738    0.2005229 -57.11  0.001965402    1.797    0.444
        43 -12.0247    106.0950    228.5930   1.2234324453e+02   1.5666794051e+01    0.7041415    0.3623179  65.30  0.003757123    2.250    0.555
        44  -9.4219     94.1234    219.1391   1.2354847836e+02   1.8975119159e+01    0.2509858    0.1513821  66.79  0.001078116    1.615    0.381
        45 -11.1927     92.0395    241.6053   1.2598154930e+02   1.5603288503e+01    0.3555781    0.2329775  65.48  0.001557325    1.315    0.240
        46 -10.5178     89.9573    238.0669   1.2603178232e+02   1.6443249159e+01    0.2043001    0.1857939 -78.73 0.0009561228    1.409    0.290
        47 -12.9478     28.4901    246.7808   1.3650550736e+02   2.2524665057e+01    0.9889312    0.5249345  39.95  0.006947076    1.855    0.461
        48 -10.7254    167.5346    242.5031   1.1316466122e+02   4.1926956603e+00    0.2119348    0.1391434  44.97 0.0006974774    1.204    0.169
        49 -10.4863    244.4883    240.9397   1.0018930039e+02  -7.3314294869e+00    0.1451952   0.09830898 -18.13 0.0008445444    1.582    0.368
        50  -9.6535     54.1476    240.9087   1.3217735548e+02   2.0579969401e+01    0.1760378    0.1155427  53.28 0.0006385768    1.197    0.165
        51 -10.5298     98.0683    223.4837   1.2326665724e+02   1.7673313919e+01    0.2810679    0.2316556  35.54  0.001349707    1.425    0.298
        52  -9.1739     61.4227    238.9114   1.3086388289e+02   2.0022329898e+01    0.1866325    0.1136717  50.02 0.0008381641    1.298    0.229
        53  -9.7120    172.8793    235.9074   1.1140261453e+02   4.2007991151e+00    0.1479131    0.1183129  53.48  0.001031751    1.272    0.214
        54 -11.2150    128.9924    235.0350   1.1897734145e+02   1.1227947575e+01    0.3227242    0.2257255  73.44  0.002108286    1.633    0.387
        55 -11.0678    122.8187    233.6334   1.1991021981e+02   1.2379638404e+01    0.3370257    0.2478125  49.12  0.001313493    1.073    0.068
        56  -9.5787     54.8584    235.7014   1.3172459494e+02   2.1343601646e+01    0.2437214    0.1295791  56.44 0.0009776958    1.420    0.296
        57  -9.9302    166.0052    234.9885   1.1247959437e+02   5.4193885555e+00    0.1786111    0.1284248  64.50 0.0009538199    1.685    0.406
        58  -8.8007     70.7990    235.1938   1.2903929526e+02   1.9449718289e+01    0.1290231    0.1123604  59.29 0.0006332084    1.304    0.233
        59 -10.1319    156.7689    231.9659   1.1371612935e+02   7.3113282993e+00    0.1859965    0.1734076  36.94 0.0006038597    1.187    0.157
        60  -9.8381     93.4782    232.9859   1.2497954943e+02   1.6766631969e+01    0.2757676   0.09402624  52.48  0.001308976    2.548    0.608
        61 -10.7691    249.0084    231.9977   9.8093717498e+01  -7.1115045136e+00    0.2735436    0.1410541  19.42  0.001569591    1.911    0.477
        62  -9.3212     45.9321    231.2699   1.3290657702e+02   2.3130095918e+01    0.1894921    0.1034212  69.75    0.0012756    1.524    0.344
        63 -10.9330    134.9071    231.2237   1.1750291476e+02   1.0882819210e+01    0.2867527     0.230394 -13.99  0.001254725    1.935    0.483
        64  -8.2653     57.3133    231.2978   1.3101904661e+02   2.1779196348e+01   0.08493598   0.08325647  58.51 0.0007013488    1.604    0.376
        65 -10.4025     79.3948    225.7677   1.2679965599e+02   1.9889772729e+01    0.3470376    0.2185526 -82.15  0.001572309    1.661    0.398
        66 -10.5311    117.1870    224.4314   1.1991376000e+02   1.4677118238e+01    0.2472074    0.1927383  51.40 0.0003368708    1.049    0.047
        67  -9.1773     64.8672    224.6411   1.2924288175e+02   2.1973444223e+01    0.1882535    0.1592856 -52.79  0.001147249    1.747    0.428
        68  -9.8965    132.1770    224.0655   1.1715225137e+02   1.2405086550e+01    0.1719714    0.1497421  29.01  0.001093932    1.312    0.238
        69  -9.2254     87.9691    223.7503   1.2510160085e+02   1.9059542405e+01    0.1673127    0.1206686  56.31 0.0008327553    1.092    0.085
        70  -8.3740    155.6851    223.2922   1.1278704764e+02   8.7300360290e+00     0.117707   0.08281581  63.17 0.0003223468    1.596    0.373
        71 -10.5535    110.3924    219.8819   1.2065145389e+02   1.6453527954e+01    0.3885864    0.1789543 -69.17  0.001921248    2.927    0.658
        72 -10.1754     70.2939    218.4736   1.2778877802e+02   2.2349323356e+01    0.4037752    0.2311037  87.17   0.00247433    1.835    0.455
        73  -8.5221     99.3069    218.2928   1.2251503875e+02   1.8369549924e+01    0.1007902    0.0901447  17.90 0.0002887961    1.581    0.367
        74  -8.9919     89.0084    218.4981   1.2441660633e+02   1.9811510291e+01    0.1736928   0.09254254  46.21 0.0005441905    1.546    0.353
        75  -8.2550     62.2985    218.2665   1.2919292763e+02   2.3405967799e+01   0.08817791   0.08554316  51.96 0.0002888427    1.518    0.341
        76  -9.3983     92.5251    226.0390   1.2450483000e+02   1.8037814772e+01     0.212538    0.1198577  56.75 0.0006716896    1.482    0.325
        77  -9.0750     77.1664    220.8075   1.2676309129e+02   2.1036511034e+01     0.170124    0.1178177  67.13 0.0004456356    1.195    0.163
        78 -12.2714    135.6148    241.1426   1.1849468279e+02   9.3259577130e+00    0.5637503     0.336255  59.40  0.002637767    1.668    0.401
        79  -9.3534     88.1613    212.6850   1.2399992316e+02   2.0947714374e+01    0.2165753    0.1479011 -83.22 0.0008991809    1.520    0.342
        80  -9.3316    101.7246    211.7023   1.2136287510e+02   1.9150874625e+01    0.2616973    0.1038477  55.63  0.001169185    2.612    0.617
        81  -8.4550    131.0174    211.4635   1.1580620065e+02   1.4615967199e+01    0.1756085    0.1026466  43.70  0.000356237    1.438    0.305
        82  -8.9942    106.5377    209.9898   1.2026286099e+02   1.8725600814e+01    0.1623072    0.1146488 -63.21 0.0005907218    1.588    0.370
        83  -9.8205    156.1240    208.1552   1.1060613212e+02   1.0954197082e+01    0.1795571    0.1673871  42.51 0.0003164108    1.112    0.101
        84  -9.4283    112.3550    208.1329   1.1893928015e+02   1.8155134236e+01    0.1614074    0.1377066  73.14 0.0003782831    1.109    0.098
        85  -8.5322     74.3830    208.2724   1.2613545941e+02   2.3636692239e+01    0.1465413   0.09509303 -89.45 0.0003772816    1.525    0.344
        86  -8.8633     70.0904    208.1915   1.2692621675e+02   2.4219177738e+01    0.1574145    0.1046187  67.74  0.000358834    1.282    0.220
        87 -10.7301    141.9923    221.4174   1.1503654951e+02   1.1244338364e+01    0.2552447    0.2427087  42.34 0.0004568663    1.194    0.163
        88  -9.3317    125.8295    206.6525   1.1617404949e+02   1.6268387538e+01    0.1897018    0.1405437 -69.44  0.001175343    1.557    0.358
        89  -8.7957     32.9215    207.0097   1.3357461433e+02   2.8853607188e+01    0.1376101    0.1153409 -66.30 0.0004187273    1.565    0.361
        90  -9.5768     91.5636    204.9389   1.2255267902e+02   2.1852696136e+01    0.2991644    0.1829619  34.69  0.001496091    1.799    0.444
        91  -9.3388    103.4256    203.0153   1.2004976538e+02   2.0439564944e+01    0.2807233    0.1513462  45.46  0.001535906    1.588    0.370
        92 -10.1457    250.1709    201.1177   9.2714552991e+01  -4.0167691312e+00    0.2909721    0.1385302 -11.35  0.001325334    2.918    0.657
        93  -9.7595     84.2902    201.2053   1.2355203776e+02   2.3580035425e+01    0.2807921      0.21804 -41.04  0.001411869    1.903    0.474
        94 -12.1872     16.1301    218.2769   1.3706932795e+02   2.8541756987e+01    0.7935603    0.5004889  58.78   0.00424877    1.219    0.180
        95  -9.3737     43.3411    200.0220   1.3120091252e+02   2.9012501122e+01    0.2606071    0.1549866 -52.52  0.001201803    2.318    0.569
        96 -11.0866     27.6131    195.1831   1.3374912022e+02   3.1626408845e+01    0.3890877    0.2029393  81.63 0.0002586671    1.690    0.408
        97 -11.6155    103.2254    196.0700   1.1925170785e+02   2.1743974350e+01    0.2813894     0.213078  42.99 0.0003066263    1.275    0.216
        98  -8.8467     97.6818    196.2644   1.2037543567e+02   2.2551624036e+01    0.1944436    0.1273382  54.25 0.0001450086    1.322    0.243
        99  -9.1590     52.9936    198.4830   1.2927568825e+02   2.8180037654e+01    0.2305672    0.1504956  37.79  0.001398222    1.665    0.400
       100 -11.5955     58.0463    194.2647   1.2794212396e+02   2.8375117019e+01    0.3030443    0.2564212 -63.84 0.0006205954    1.450    0.310
       101 -10.2399    249.6610    194.1134   9.1528657483e+01  -3.1277249773e+00    0.3018194    0.2165786  11.06  0.001919918    1.213    0.176
       102  -9.6523     20.9465    194.9717   1.3494958759e+02   3.2331973515e+01    0.2188978     0.121508 -74.60  0.000741632    1.616    0.381
       103  -8.8962     19.6792    191.1522   1.3494198837e+02   3.3185248672e+01    0.1553604    0.1090916 -88.09  0.001150061    1.182    0.154
       104  -9.6180    113.1752    191.7915   1.1670724962e+02   2.0972762576e+01     0.429664    0.2163214 -41.24  0.001933571    3.018    0.669
       105  -9.0582    119.0335    193.7846   1.1579841282e+02   1.9653605397e+01     0.171731   0.09055208  43.86 0.0002720793    1.666    0.400
       106 -10.7610     15.5309    191.9744   1.3574842019e+02   3.3420722189e+01    0.1989108     0.137873  79.12 0.0003358623    1.066    0.062
       107  -9.2723    191.3759    191.5001   1.0127985559e+02   7.2776034630e+00    0.2073215    0.1955364  22.31 0.0007125091    1.126    0.112
       108  -9.0049     38.5898    192.2318   1.3149296367e+02   3.1034481879e+01    0.1410613   0.08931154 -70.34 0.0003788868    1.535    0.349
       109  -9.4381     32.1621    189.9781   1.3253866889e+02   3.2160357135e+01    0.2813776     0.108512  47.41  0.001541204    2.176    0.540
       110 -10.2843    249.9987    188.0760   9.0352792488e+01  -2.4655217840e+00    0.2899751    0.1814971  -9.82  0.001656385    1.615    0.381
       111  -9.1444     77.0354    188.4822   1.2361103021e+02   2.7024646886e+01    0.1694245     0.139299  81.07  0.001144669    1.065    0.061
       112  -9.1548     40.7356    188.3104   1.3077338943e+02   3.1564274390e+01    0.2114646    0.1344503  69.52 0.0008799222    1.321    0.243
       113 -10.4926     72.0128    186.9989   1.2446326507e+02   2.7999028096e+01    0.2739261     0.215375 -46.16 0.0004868936    1.731    0.422
       114 -11.4599     64.8050    186.4880   1.2586181089e+02   2.9046882100e+01    0.2927834    0.2101392 -64.05 0.0007452514    1.477    0.323
       115 -10.0322     83.6829    186.7510   1.2206643417e+02   2.6432739994e+01    0.2099264    0.1646501  70.91 0.0002990538    1.105    0.095
       116  -9.5253     29.7390    184.0137   1.3256018425e+02   3.3582310862e+01    0.2359101    0.1617937 -47.25  0.001532459    2.154    0.536
       117  -9.8044     24.2727    184.1113   1.3361530382e+02   3.4110329738e+01     0.350035    0.1297472  51.11  0.001888529    2.291    0.563
       118  -9.1771    127.7012    182.8967   1.1246044600e+02   2.0212778548e+01    0.1724609    0.1535596 -89.26 0.0003645099    1.164    0.141
       119  -9.1841     36.2284    182.3603   1.3116877800e+02   3.3233879932e+01    0.1824473    0.1271208 -74.13  0.001117092    1.346    0.257
       120  -9.2674     85.8575    179.9016   1.2078980295e+02   2.7480182425e+01    0.1753296    0.1258214  70.97 0.0003979618    1.317    0.241
       121  -8.8836     27.2281    180.0139   1.3274820682e+02   3.4631756622e+01    0.1548607     0.116036  83.21 0.0004982574    1.036    0.034
       122  -8.8608     47.4973    179.7073   1.2869245408e+02   3.2518260694e+01    0.1800772   0.09597725  38.61 0.0004953669    1.911    0.477
       123 -11.8764    248.0575    172.8546   8.7732478764e+01  -2.5005822364e-01    0.7197947    0.3978206 -16.15  0.003635859    1.946    0.486
       124 -12.7006    245.1607    163.1241   8.6246269750e+01   1.5322925758e+00      1.20417    0.3270672 -39.28  0.004157811    4.081    0.755
       125 -10.6885    247.7103    157.5581   8.4675912120e+01   1.8252590799e+00     0.381027    0.2103483  47.70  0.001905788    1.937    0.484
       126  -8.1640     92.6814    178.2710   1.1914339816e+02   2.6796816481e+01    0.1296954   0.08503169  68.29 0.0001828952    1.563    0.360
       127 -12.3156     43.3558    207.5620   1.3175649255e+02   2.7602802847e+01     1.179222     0.462213  68.15  0.005709012    2.888    0.654
       128  -8.7854    107.8213    182.7930   1.1657660091e+02   2.3544716981e+01    0.1778615    0.1337694  70.88 0.0006193048    1.311    0.237
       129 -11.0365     65.2449    175.6623   1.2461956873e+02   3.1175852965e+01     0.258388    0.1976999  57.39 0.0003930278    1.187    0.158
       130 -10.8665     61.3438    172.6416   1.2510863039e+02   3.2297295214e+01    0.2682671    0.2343849 -54.70 0.0009467375    1.434    0.302
       131  -9.5657    103.0425    175.9953   1.1662901581e+02   2.5647079479e+01     0.186625    0.1662087  71.47  0.001195488    1.027    0.026
       132 -10.6212     75.2430    174.6716   1.2239003550e+02   3.0045216501e+01    0.2543322    0.1977033  71.23 0.0004106986    1.132    0.116
       133 -10.1965     19.2131    173.5807   1.3385036248e+02   3.6696217519e+01    0.3689574    0.1733347  76.83  0.001485244    2.021    0.505
       134  -8.4396    107.6892    173.3120   1.1524222452e+02   2.5435383100e+01    0.1353154   0.09265023  72.95 0.0004582278    1.628    0.386
       135  -9.1160     46.0940    172.7032   1.2831895125e+02   3.4111242773e+01    0.1799902    0.1264873  72.59 0.0008154968    1.222    0.182
       136  -9.6136     27.8938    171.2301   1.3193158590e+02   3.6344853862e+01    0.2924622    0.1486481 -53.13  0.001625285    2.432    0.589
       137  -8.3884     52.6217    170.7525   1.2675390506e+02   3.3757766096e+01    0.1028533   0.09259864 -29.65 0.0004589768    1.643    0.391
       138  -9.3500     47.8231    168.5959   1.2754955650e+02   3.4767523707e+01    0.2991021    0.1462416  49.09  0.001632183    1.890    0.471
       139 -10.5392     45.1886    164.7776   1.2772428161e+02   3.5867768375e+01    0.3511445    0.1689324 -52.83  0.001670119    2.413    0.586
       140  -9.0682     43.4982    161.4451   1.2774821211e+02   3.6761043742e+01     0.201696    0.1342145  79.66 6.517785e-05    1.354    0.261
       141 -11.4632     83.0474    166.1272   1.1960087165e+02   3.0716880121e+01    0.4658929    0.4211509  20.07  0.003017378    1.455    0.313
       142  -9.2342     64.9680    167.0848   1.2369387396e+02   3.2995156819e+01    0.1808388    0.1488425  78.01  0.001192521    1.029    0.029
       143  -9.3057     60.0406    164.0291   1.2441180336e+02   3.4267267950e+01    0.3826776    0.1697451  67.41  0.001529342    3.227    0.690
       144 -11.7293    199.4111    246.2618   1.0827510242e+02  -1.2008534517e+00    0.4319954    0.2240254  44.31  0.002503947    1.590    0.371
       145 -10.7400     73.6436    243.4109   1.2918040877e+02   1.7766597978e+01    0.3880326    0.3008008  11.00  0.002606955    2.606    0.616
       146 -12.5177      5.8437    143.2826   1.3437454074e+02   4.4114940003e+01    0.5972225    0.4629211  52.59  0.004507097    1.378    0.274
       147  -8.6754     52.2099    158.3827   1.2549245610e+02   3.6423197482e+01    0.1605855   0.09952909  51.39   0.00069363    1.542    0.352
       148 -10.1460     84.5339    155.4262   1.1773936776e+02   3.2773938821e+01    0.2703205     0.152189 -50.23 0.0005389563    1.932    0.482
       149  -9.8112     16.0827    158.2534   1.3333862670e+02   4.0130258152e+01    0.1520198    0.1266704 -85.50 0.0003503242    1.177    0.150
       150 -10.8593     32.1067    154.9134   1.2959041492e+02   3.9348189671e+01    0.3318203    0.1973786 -45.34  0.001135572    2.304    0.566
       151 -11.3160     24.6738    154.9688   1.3122397483e+02   4.0050995381e+01    0.3836392    0.1859512  38.17  0.002207121    2.133    0.531
       152  -9.5777     90.0148    153.3616   1.1615276213e+02   3.2393857371e+01    0.2077216    0.1709368 -59.32 0.0001650962    1.247    0.198
       153 -11.2342    244.6514    121.3513   7.7182990818e+01   7.5245120820e+00    0.5062371    0.4008849  57.38  0.002286804    1.492    0.330
       154 -12.2039    247.8958    142.5606   8.1442314161e+01   3.8543502956e+00    0.7299734    0.6710917  -2.21  0.004636152    1.120    0.107
       155 -12.5718    248.9000    132.5859   7.9075569851e+01   5.0711882623e+00     1.109032     0.601981 -26.35  0.005299712    1.739    0.425
       156 -11.7071    248.3668    113.0610   7.4678193213e+01   7.9844305301e+00    0.5484163    0.4575253  27.12  0.003182748    1.232    0.189
       157 -10.2978     96.4246    150.6783   1.1422143879e+02   3.1969451200e+01    0.3081244    0.2411186 -51.51  0.001410566    1.359    0.264
       158  -9.3572     60.8355    151.2327   1.2264854279e+02   3.6925347244e+01    0.2283523    0.1101812  68.54 0.0009594674    2.897    0.655
       159 -11.2521     22.3913    149.3582   1.3121805178e+02   4.1457672207e+01    0.3306819     0.207841 -68.98   0.00200656    1.386    0.278
       160 -11.8767     68.3819    144.3090   1.1990045956e+02   3.7475057854e+01    0.6273224    0.4017958  78.73   0.00241722    1.757    0.431
       161  -9.8803    235.8618    145.9136   8.4156539992e+01   5.6619345810e+00    0.2130058    0.1660542   8.80 0.0004951722    1.259    0.206
       162 -10.2701    249.4951    161.4905   8.5200687134e+01   9.8214182128e-01    0.3426504    0.2146376 -28.22  0.001875576    1.521    0.342
       163  -9.5533    133.4412    140.4308   1.0361307246e+02   2.7578071165e+01    0.3133271    0.2355369 -69.14  0.001133898    1.522    0.343
       164 -10.5922     19.5201    141.5449   1.3113867153e+02   4.3394661836e+01     0.262942    0.1515354 -89.93  0.001281513    1.500    0.333
       165 -11.1331     16.2383    139.2507   1.3167921289e+02   4.4167041089e+01    0.2591746    0.2081438 -85.57  0.001892387    1.066    0.062
       166 -10.6465     12.9189    137.1471   1.3225369124e+02   4.4889626894e+01    0.1907131     0.151041  89.11  0.000306414    1.045    0.043
       167 -10.4069     32.6316    140.7045   1.2799394679e+02   4.2381377287e+01    0.2803075    0.1505915  78.15  0.001439436    2.008    0.502
       168  -9.7747     36.8509    139.8150   1.2688979301e+02   4.2159179845e+01    0.1732356    0.1199624  79.87  0.001067826    1.338    0.253
       169 -10.0573     41.2511    147.3895   1.2672848822e+02   4.0036725285e+01    0.2322138    0.1782144  66.44 0.0006391922    1.217    0.179
       170  -8.5691    228.3592    155.2468   8.7454093237e+01   5.7395383303e+00    0.1801112    0.1199398 -38.20 0.0005284181    1.590    0.371
       171  -9.9228    249.7160    117.9283   7.5608097010e+01   7.0105026955e+00    0.2918017    0.2041545 -26.72 0.0005165201    1.298    0.229
       172 -11.3699     59.9130    136.4009   1.2080725400e+02   4.0327858153e+01    0.2619695     0.198944 -75.77 0.0002760009    1.161    0.138
       173  -9.3971    108.7548    135.8163   1.0856763128e+02   3.3127354099e+01    0.3205257    0.2274951 -24.03  0.001506997    2.102    0.524
       174 -10.0155     48.4242    136.2714   1.2363421049e+02   4.1714222285e+01    0.3089129    0.1842754  66.30  0.001658333    1.829    0.453
       175 -10.6820      8.9694    136.7048   1.3312711577e+02   4.5288932617e+01    0.2025879    0.1233267 -60.69 0.0006463969    1.558    0.358
       176 -10.2329     44.6485    130.3761   1.2377531449e+02   4.3451926587e+01    0.2535653     0.157462  84.12 0.0007790136    1.703    0.413
       177  -9.9332     33.4725    128.4272   1.2633927146e+02   4.5025994208e+01    0.2278469    0.1008342 -82.71  0.001031234    2.416    0.586
       178 -10.0326     59.0823    128.0002   1.1973266389e+02   4.2324626415e+01    0.1968628    0.1696947 -76.39 0.0003522563    1.032    0.031
       179  -8.4872     51.7036    126.7134   1.2144208295e+02   4.3494150900e+01    0.1198457   0.09059124 -42.67 0.0001937995    1.549    0.354
       180 -11.4003     23.7618    126.7085   1.2857004184e+02   4.6291350424e+01    0.2077472    0.1968103  13.32  0.001559097    1.425    0.298
       181  -9.6746    209.9304    125.7196   8.4124789150e+01   1.4117148214e+01    0.2623984    0.2036624 -36.64 0.0004720058    1.290    0.225
       182 -10.9044    249.6213    150.9513   8.2973750056e+01   2.3765387315e+00    0.3894431    0.2807202 -27.19  0.002236024    1.312    0.238
       183  -9.7837    231.9918    116.5062   7.8076544646e+01   1.0856141787e+01    0.2039369    0.1395197  49.31 0.0006076005    1.535    0.349
       184  -9.8184    168.0416    113.2094   8.9420604998e+01   2.5708694290e+01     0.327543      0.26634  77.11  0.001125518    1.503    0.335
       185  -8.7950    203.4952    111.4921   8.1835985099e+01   1.7925508933e+01    0.1503337     0.139639   4.17  0.000810069    1.052    0.050
       186  -9.5237     35.2900    107.1978   1.2286356983e+02   4.9647640148e+01    0.1735835     0.162128 -40.49 0.0003735365    1.271    0.213
       187 -12.7143    247.6798    100.3625   7.1765411213e+01   9.9707449149e+00     1.033681    0.6001537 -25.67  0.004903998    1.631    0.387
       188 -11.5171     14.4312    104.4638   1.2832398214e+02   5.1989352764e+01    0.3094236    0.1758046  40.30  0.001861191    2.010    0.503
       189  -8.2949     71.6905    100.2448   1.1101582970e+02   4.6982560700e+01     0.128216    0.1002057  76.28 0.0002082881    1.504    0.335
       190 -10.4732     17.0134     99.1289   1.2687314812e+02   5.2995851359e+01    0.2076358    0.1454565 -84.84 0.0003632374    1.269    0.212
       191  -9.9738     21.6950     93.1648   1.2459965370e+02   5.3982016164e+01    0.2241217    0.1328407 -32.38 0.0008709845    2.171    0.539
       192 -12.7381     11.0747    154.3022   1.3409152831e+02   4.1379589730e+01    0.8815142    0.3240201 -82.89  0.004384673    2.380    0.580
       193 -11.4319    176.5538    242.8188   1.1166588729e+02   2.7420150528e+00    0.3619215    0.1861238  57.35  0.001847655    2.598    0.615
       194 -10.6021     17.9322     26.2036   1.0976807114e+02   6.8348024741e+01    0.2750455      0.16436  45.18  0.001574508    2.608    0.617
       195 -10.3404    158.5251    243.5494   1.1483294965e+02   5.4618878735e+00    0.1778457      0.13767  80.33 0.0009133043    1.759    0.431
