#   1 NUMBER                 Running object number                                     
#   2 MAG_AUTO               Kron-like elliptical aperture magnitude                    [mag]
#   3 X_IMAGE                Object position along x                                    [pixel]
#   4 Y_IMAGE                Object position along y                                    [pixel]
#   5 X_WORLD                Barycenter position along world x axis                     [deg]
#   6 Y_WORLD                Barycenter position along world y axis                     [deg]
#   7 A_WORLD                Profile RMS along major axis (world units)                 [deg]
#   8 B_WORLD                Profile RMS along minor axis (world units)                 [deg]
#   9 THETA_WORLD            Position angle (CCW/world-x)                               [deg]
#  10 FWHM_WORLD             FWHM assuming a gaussian core                              [deg]
#  11 ELONGATION             A_IMAGE/B_IMAGE                                           
#  12 ELLIPTICITY            1 - B_IMAGE/A_IMAGE                                       
         1 -15.2837    155.1104     49.4014   8.1036815324e+01   4.0242964869e+01     15.88461     8.105792 -68.94   0.04225655    6.239    0.840
         2 -11.7000    180.4761     78.9065   8.4408966338e+01   2.9275598246e+01     1.007126    0.7449578 -74.58  0.004675614    1.636    0.389
         3 -15.1098    205.2217     61.5624   7.5513342387e+01   2.6068940133e+01     9.415854     4.656328 -70.60   0.02934725    4.180    0.761
         4 -15.8391    227.5118     41.4653   6.7580697944e+01   2.3686293465e+01     5.055205     1.996997 -48.42   0.02076442    2.431    0.589
         5 -14.6993    248.8456     25.0485   6.1736372584e+01   2.1026308198e+01     1.386702    0.5373534 -31.03  0.003809332    2.992    0.666
         6 -15.4088    233.5554      5.4855   5.9007341505e+01   2.6748659959e+01     1.184375    0.7386698  66.60  0.003727403    1.521    0.343
         7  -8.6341    144.2581      2.5292   6.8795581046e+01   4.8151476104e+01    0.2153096    0.1391353 -33.04 0.0009882583    1.758    0.431
         8  -8.9949    142.3608     14.2012   7.2712308096e+01   4.7543750887e+01    0.3321966    0.1166164 -30.15  0.001354315    2.992    0.666
         9  -9.5003    143.4206      8.2180   7.0674513763e+01   4.7855657367e+01    0.3889672    0.2056243  -7.90  0.001336538    2.629    0.620
        10 -16.2360    241.7464     18.0257   6.0918792604e+01   2.3466823814e+01     5.079587    0.7236228  64.55   0.01610114    4.961    0.798
        11  -8.5633     53.0000     11.0031   9.4890778304e+01   6.5351026670e+01    0.1786822   0.05828232 -30.30 0.0008006125    2.930    0.659
        12  -9.0258      9.3327      9.3075   1.1233868932e+02   7.0463472939e+01    0.1111405   0.06013349 -15.89 0.0003181116    1.667    0.400
        13 -14.1359    248.9929      2.4506   5.7149250328e+01   2.3678772358e+01    0.6548043    0.4307097  65.33  0.002700638    1.568    0.362
        14  -8.5785    183.1081      3.8757   6.3756661174e+01   3.8765546071e+01    0.2945369    0.1593179  83.25 0.0009114407    1.838    0.456
        15  -8.9407    188.8133      2.2668   6.2683182635e+01   3.7546673150e+01    0.2279967    0.1723293  22.74  0.001100047    1.814    0.449
        16  -8.7251    171.7277      2.2920   6.4759236054e+01   4.1647966160e+01    0.2181601    0.1316847 -39.80 0.0008499671    1.810    0.448
        17  -8.8555    118.8659    149.8726   1.1669554939e+02   2.8084516971e+01    0.2213024    0.2056892 -87.59 0.0004213045    1.037    0.035
        18  -8.4676    155.6490    159.8898   1.1008026106e+02   1.8389758382e+01    0.2198659     0.140054 -59.69 0.0006119612    1.771    0.435
        19  -8.1441    147.5229    158.5195   1.1165648876e+02   2.0388204130e+01     0.153661    0.1452645  82.77 -0.0001118905    1.047    0.045
        20  -9.5277    243.9526    156.4790   9.1494812994e+01   7.3477451561e-01       0.1983    0.1379334  45.39 0.0006889019    1.557    0.358
        21  -8.5696    237.6782    249.6860   1.1048341240e+02  -1.2342595791e+01    0.1227049   0.07707099  10.00 0.0007040112    1.657    0.397
        22  -8.4839    116.6571    134.8184   1.1398099481e+02   3.2005198300e+01     0.204216    0.1798662 -61.57 0.0006020578    1.093    0.085
        23  -8.6627     97.1384    134.8729   1.1906087641e+02   3.5532011224e+01    0.2017466     0.166331 -38.03 0.0005588219    1.306    0.234
        24 -12.5493     46.0370    170.9333   1.3764952394e+02   3.4306720111e+01    0.7087042    0.5681369 -76.12  0.001792113    1.088    0.081
        25 -10.1282    181.5658    135.3002   9.8703075308e+01   1.7975353517e+01    0.3204546    0.2031459  44.23  0.001373485    1.611    0.379
        26 -10.6946    206.4637    122.8205   9.0637156138e+01   1.4820244144e+01    0.3596725    0.2938029  31.84  0.001790137    1.375    0.273
        27 -10.7788    204.4782    127.5062   9.2145877870e+01   1.4355807978e+01     0.331831    0.2618202  16.51  0.001574683    1.599    0.375
        28 -11.8020    192.7563    126.0500   9.4125691532e+01   1.7314525711e+01    0.9362019    0.5203636 -65.71  0.003117433    3.192    0.687
        29 -11.9168    184.8774    123.9768   9.5246385582e+01   1.9550093804e+01    0.9263764    0.5949717 -64.40  0.003735858    2.056    0.514
        30 -10.3268    135.0495    128.0584   1.0773952670e+02   2.9848253870e+01    0.5245633    0.3504163 -39.34   0.00231606    1.560    0.359
        31  -9.5553    160.5038    127.8466   1.0157670761e+02   2.4326698627e+01     0.462613    0.2707242 -55.90  0.001831656    1.920    0.479
        32  -8.3226     74.1842    130.2451   1.2421568518e+02   4.0229447431e+01    0.1921765    0.1528873 -88.53 0.0005847445    1.360    0.265
        33  -9.0895    121.8645    120.7773   1.0931237305e+02   3.4195965579e+01    0.2935542    0.1990856 -74.11 0.0007135547    2.009    0.502
        34 -11.8082    187.1945    112.2636   9.1834839366e+01   2.1366448507e+01     1.237279    0.7270185 -89.17  0.003564652    4.562    0.781
        35 -10.6725    192.0994     92.5856   8.5805111119e+01   2.3969848645e+01    0.4716734    0.3604155  37.37  0.001404078    1.487    0.327
        36 -12.8856    186.9187     97.8975   8.8196087668e+01   2.4225431023e+01     2.034562    0.6241957 -45.31  0.006106989    3.332    0.700
        37  -7.7708     42.2779    247.2851   1.4557359861e+02   1.8738629979e+01   0.09122145   0.08102799 -80.38 0.0002163112    1.513    0.339
        38 -11.4160    134.6605    106.5855   1.0236271094e+02   3.4638757772e+01    0.8654663    0.3599124 -39.18  0.002983652    2.548    0.608
        39 -11.0636    133.7946     97.0962   9.9994472619e+01   3.6807264876e+01     0.723976    0.4189043 -63.62  0.002428546    2.620    0.618
        40 -10.8737    126.3067    110.4535   1.0553025985e+02   3.5577603920e+01    0.5324913    0.2846693 -55.52  0.001766674    2.093    0.522
        41 -11.4185     79.0000    229.1358   1.3752837444e+02   1.7255450094e+01    0.4474033    0.2167568 -69.07  0.002299245    2.091    0.522
        42 -10.9265    221.8425    103.7319   8.3257853320e+01   1.4911177311e+01    0.4835604    0.2690254 -40.01  0.001467631    1.690    0.408
        43  -8.6514    180.2810    148.5664   1.0208506087e+02   1.5497437823e+01    0.2242059    0.1457532  35.82 0.0009572021    1.682    0.406
        44 -11.3818    121.7529    102.7246   1.0466962700e+02   3.8181052534e+01    0.6990461     0.337298  35.82  0.002596116    2.448    0.591
        45  -9.4926    133.7075    146.8909   1.1242151381e+02   2.5850817788e+01    0.4388207    0.1934101 -54.62  0.001517416    2.404    0.584
        46 -10.5785    206.3150     93.4336   8.3410956083e+01   2.0400477566e+01    0.5860037    0.3697667  86.67  0.002187914    2.390    0.582
        47  -9.6564    156.5838     93.2480   9.3418679697e+01   3.2389473175e+01    0.4669793    0.3181114  25.37  0.001958807    1.975    0.494
        48  -9.9423    146.8403     99.8565   9.7528020988e+01   3.3331469254e+01    0.3316504    0.3103688   5.11 0.0006677754    1.157    0.135
        49 -10.7359      5.0217     88.7597   1.3625181163e+02   5.6452601515e+01     0.287792    0.1648207 -78.56  0.001667797    1.809    0.447
        50 -10.9933    140.3437     89.4588   9.6206069931e+01   3.6880941960e+01    0.4071166    0.3631996 -68.73 0.0006663125    1.220    0.180
        51  -9.5875    126.4251     90.0133   9.9894459325e+01   3.9828571015e+01    0.3593697    0.2314024 -65.76  0.001461729    2.243    0.554
        52  -8.2839     27.0013    230.2997   1.4690926692e+02   2.3793075625e+01    0.1489631    0.1119905  71.71 0.0004588475    1.111    0.100
        53  -8.0681    111.2598     86.6599   1.0301459329e+02   4.3609409526e+01    0.1433375     0.115575 -73.90 0.0005281878    1.586    0.370
        54  -7.8473     78.4319     86.5063   1.1260887767e+02   4.9400925700e+01    0.1380281    0.1239964 -36.21 0.0002137519    1.017    0.017
        55 -10.6844    171.5961     82.6649   8.7218199837e+01   3.0777452823e+01    0.5244852    0.4165109  21.87  0.002508466    1.566    0.361
        56  -9.0822    168.5234     91.2695   9.0227173248e+01   2.9924822841e+01    0.3644965    0.2205818  50.17  0.001546277    1.644    0.392
        57  -9.1448    129.4855     82.4879   9.6914976987e+01   4.0636897911e+01    0.1490689    0.1437905   2.17 0.0008101518    1.034    0.033
        58  -8.9459    202.2084     79.6763   8.0635475238e+01   2.3823750391e+01    0.3171361    0.2058583 -65.27  0.001043347    1.848    0.459
        59 -10.8954    186.8871     71.9172   8.1314004816e+01   2.8898319677e+01    0.4301836    0.3315279  11.18 0.0009324425    1.825    0.452
        60 -10.9197    191.9124     68.9729   7.9631825002e+01   2.8148286311e+01    0.3665194    0.3142678  31.31  0.001926928    1.368    0.269
        61  -8.6290    204.6487    147.3035   9.6745932472e+01   1.0427047004e+01    0.1526838    0.1206053 -84.79 0.0007040359    1.702    0.413
        62 -10.8963    102.1084     61.1990   9.7763532530e+01   5.0105404370e+01    0.7758456    0.3648618  26.07  0.002615591    3.772    0.735
        63 -10.4445    168.1467    113.7704   9.6288925181e+01   2.5542348000e+01    0.4324353    0.3368548 -82.22  0.001089436    1.611    0.379
        64  -9.2500      4.3299     60.6750   1.3079554598e+02   6.2188259482e+01    0.1004153   0.08228719  85.18 0.0007050385    1.702    0.413
        65  -9.0302     24.5143    216.5274   1.4634152793e+02   2.6818019796e+01     0.116343   0.08417435  80.69 -5.009762e-06    1.016    0.016
        66 -10.2591    127.5272     58.7484   9.0143829798e+01   4.5240686828e+01    0.2408758    0.2215311  51.12 1.034915e-05    1.102    0.092
        67  -9.6143    140.4717    104.3881   1.0031659193e+02   3.3828630315e+01    0.3892151    0.3322283  19.21  0.001343837    1.341    0.254
        68  -9.1277    192.0488    144.0122   9.8545149057e+01   1.3838573456e+01    0.2295063    0.2236165 -54.78 0.0004099787    1.031    0.030
        69  -8.4953     82.8649     52.0531   1.0050779724e+02   5.5095856206e+01    0.2044211    0.1461844 -57.22  0.001058742    1.958    0.489
        70 -10.5372    115.7464     53.8565   9.1586454759e+01   4.8554484993e+01    0.3059635    0.1978856  54.00  0.001051655    1.616    0.381
        71  -9.1691    184.0670    142.0116   9.9756462830e+01   1.6021253842e+01    0.2257034    0.2202623 -65.00   0.00120765    1.030    0.029
        72 -10.4000    187.8108    137.5608   9.7916763351e+01   1.6099893290e+01    0.4139346     0.286822  38.07   0.00186077    1.546    0.353
        73  -9.9311    172.1945    205.0576   1.1531301268e+02   5.8158635079e+00    0.2271085    0.1850118  47.70 0.0002369089    1.149    0.130
        74 -11.0893    210.1246    135.9647   9.3056040424e+01   1.1448834145e+01    0.4009617    0.3718614 -62.56   0.00208274    1.119    0.107
        75 -13.8071     16.0042    191.0949   1.4590663857e+02   3.3019915270e+01      2.40521     1.361128 -45.06   0.01155327    2.750    0.636
        76 -12.5054     68.9450    146.0993   1.2853673523e+02   3.7214869134e+01     1.935711    0.9845967 -60.73  0.006243413    1.739    0.425
        77 -12.5019     52.4111    166.4078   1.3563000350e+02   3.4586519125e+01    0.8890213    0.5577109 -81.11  0.002878589    1.479    0.324
        78  -9.3264    191.7789    192.7214   1.0899655123e+02   4.3283917652e+00    0.6642398    0.3366786 -65.08  0.001836219    6.100    0.836
        79 -10.7873    217.0448    189.3786   1.0332861208e+02   7.9620654351e-02    0.8604934    0.3627479  55.79  0.002813556    4.118    0.757
        80 -12.3972     57.6799    161.5284   1.3372984093e+02   3.5065561730e+01    0.7668785    0.5658914 -87.02  0.001510739    1.253    0.202
        81  -9.4302    222.0578    177.9612   1.0003971950e+02   1.1307274842e+00     0.343807    0.2462482  87.93  0.001482404    2.768    0.639
        82  -9.1758    238.7091    172.7342   9.5871962225e+01  -1.0885608176e+00    0.3182946     0.182521  22.11  0.001361407    2.412    0.585
        83  -9.9573    217.6711    169.2334   9.9040667406e+01   3.5566937111e+00    0.6320409    0.3023246  61.19  0.002032616    4.126    0.758
        84  -8.7866    203.5029    160.9000   1.0001870891e+02   8.0160122758e+00    0.2211364    0.1437623 -41.47 0.0006546212    1.522    0.343
