#   1 NUMBER                 Running object number                                     
#   2 MAG_AUTO               Kron-like elliptical aperture magnitude                    [mag]
#   3 X_IMAGE                Object position along x                                    [pixel]
#   4 Y_IMAGE                Object position along y                                    [pixel]
#   5 X_WORLD                Barycenter position along world x axis                     [deg]
#   6 Y_WORLD                Barycenter position along world y axis                     [deg]
#   7 A_WORLD                Profile RMS along major axis (world units)                 [deg]
#   8 B_WORLD                Profile RMS along minor axis (world units)                 [deg]
#   9 THETA_WORLD            Position angle (CCW/world-x)                               [deg]
#  10 FWHM_WORLD             FWHM assuming a gaussian core                              [deg]
#  11 ELONGATION             A_IMAGE/B_IMAGE                                           
#  12 ELLIPTICITY            1 - B_IMAGE/A_IMAGE                                       
         1 -16.4617     79.4807    118.1561   1.1874175412e+02   4.1548178441e+01     1.925983     1.291667 -88.87  0.009086242    1.889    0.471
         2 -12.4138    186.0078     23.9704   6.4288481057e+01   3.5494421287e+01    0.2507509    0.1645714  30.19 0.0009109214    1.695    0.410
         3 -14.9710    199.5391    227.9438   1.0971513023e+02   3.3752287869e+00    0.9558892    0.6689764  32.65  0.006631985    1.112    0.101
         4 -15.1910    183.8929    223.1362   1.1184147617e+02   6.3012015658e+00     1.575423     0.862865 -58.38  0.007419608    4.402    0.773
         5 -15.4941    168.6088    240.4625   1.1678410933e+02   6.5119359592e+00     2.017322    0.6959254  49.39  0.008496981    3.650    0.726
         6 -14.6956    148.8614    234.3726   1.1959638082e+02   1.0128361932e+01     1.013867     0.784523  84.07  0.007088989    1.982    0.495
         7 -15.3660    157.0856    182.6715   1.1103170946e+02   1.6311332323e+01     1.042839    0.8189216  36.57  0.004264409    1.071    0.067
         8 -14.6623    154.6883    225.6381   1.1751369208e+02   1.0414942091e+01     1.466548    0.3649913  38.83  0.005930201    3.077    0.675
         9 -16.5820    158.5730    206.9762   1.1435645978e+02   1.2388438019e+01     2.357356     1.603141  45.41    0.0146276    1.305    0.234
        10 -14.9954    114.7553    194.0714   1.2145127759e+02   2.1198282185e+01    0.9009914    0.6239611  54.23  0.004100314    1.336    0.251
        11 -19.4700     31.4577    140.2806   1.3439634579e+02   4.1959980462e+01     16.58655     1.839099 -73.23   0.04284618    8.370    0.881
        12 -12.8067    134.0562    229.4662   1.2174773344e+02   1.2919303427e+01      0.31113     0.278513 -44.05  0.002455143    1.478    0.324
        13 -11.6192     72.5331    247.0654   1.3403227776e+02   1.8396850425e+01    0.1179793   0.08859459  86.77 0.0003837481    1.447    0.309
        14 -12.1520      2.6151    212.6683   1.4410030216e+02   3.0626904597e+01    0.1678877    0.1029745  41.26  0.001351836    1.471    0.320
        15 -13.2676    115.4418    206.0087   1.2271166348e+02   1.9117475363e+01    0.4540678    0.2375721  39.40  0.002396528    1.551    0.355
        16 -12.3481      1.8294    202.7363   1.4392863634e+02   3.2352797423e+01    0.1832459    0.1074524  80.39  0.001233264    1.359    0.264
        17 -13.8257    184.7576    200.7864   1.0840151381e+02   9.0076005507e+00    0.5823104      0.41762 -27.22  0.003653369    1.627    0.386
        18 -12.7513    178.6231    198.3958   1.0920566692e+02   1.0343437953e+01    0.3151871    0.2829601  33.27  0.002175033    1.212    0.175
        19 -17.3186     76.0050    207.5343   1.3058082778e+02   2.4136538632e+01     3.726852     2.135115  85.86   0.02256311    2.089    0.521
        20 -14.0731     95.3637    169.7245   1.2258132015e+02   2.8459241797e+01    0.6162355    0.4574187  39.13   0.00331167    1.248    0.199
        21 -13.6745     95.9133    162.4173   1.2148239312e+02   2.9811610117e+01    0.4773801    0.3974395 -70.73  0.002344015    1.267    0.211
        22 -14.9406    107.9661    170.7780   1.1988220122e+02   2.6405108194e+01     1.003648    0.8108392  14.56  0.005529038    1.500    0.333
        23 -14.6761    125.5513    178.6034   1.1710899107e+02   2.2230023677e+01    0.7656652    0.6135795  74.06   0.00355659    1.458    0.314
        24 -15.2021    137.1508    179.5285   1.1474542673e+02   2.0184489014e+01      1.27455    0.6195965  40.90  0.005880202    1.750    0.429
        25 -15.3534    118.3135    167.8586   1.1712702970e+02   2.5345828751e+01     1.152583    0.8402469  73.15  0.006403027    1.693    0.409
        26 -15.8626    129.5701    204.4930   1.1973035763e+02   1.7270788385e+01     1.818784     1.024632  64.88  0.008943098    2.703    0.630
        27 -12.0773     17.4812    238.1343   1.4250926387e+02   2.5352414351e+01    0.1431547    0.1112476  31.97 0.0006820145    1.628    0.386
        28 -13.4518      7.6271    167.9261   1.4150872825e+02   3.8234265472e+01     0.596548    0.3078996  69.11  0.003894583    1.621    0.383
        29 -14.8773     13.1247    160.3456   1.3998610318e+02   3.9305121964e+01    0.9763729    0.4222097  63.58  0.004868787    2.108    0.526
        30 -13.7159     48.9307    130.5662   1.2895951623e+02   4.2426645049e+01    0.6845334    0.3453376 -68.15   0.00357019    1.795    0.443
        31 -15.5820     75.5334    142.5712   1.2367037718e+02   3.6717172468e+01     1.328755     0.803028  56.04  0.007015529    1.718    0.418
        32 -14.9447     79.9942    157.5197   1.2457071120e+02   3.3002718892e+01      1.05166    0.7247141  46.65   0.00624236    1.331    0.249
        33 -15.8491     57.4350    147.9375   1.2883792585e+02   3.7754323488e+01       1.8674     1.133767  55.34   0.01004516    1.596    0.374
        34 -13.8315    101.5319    153.1118   1.1880080850e+02   3.0844146296e+01    0.5565001    0.4110561  58.11  0.002498909    1.358    0.263
        35 -13.6180    113.7993    146.1856   1.1468758444e+02   3.0304777117e+01    0.6002992    0.4193728  86.08  0.002954177    2.045    0.511
        36 -16.1606     78.2249     83.7624   1.1181559027e+02   4.9486662853e+01     2.278011     1.077721  36.66  0.009822352    2.221    0.550
        37 -16.1008     94.0159    108.6057   1.1270046193e+02   4.1529843690e+01     1.998279    0.9968226 -66.61  0.007803116    2.693    0.629
        38 -15.3536     94.9371    136.0228   1.1769012270e+02   3.5400904557e+01     1.121633     0.839281  33.69  0.006277543    1.354    0.262
        39 -15.4309    224.9702    227.3715   1.0524004695e+02  -3.1752629440e-01    0.9816751    0.6496291 -38.84  0.006485024    2.263    0.558
        40 -12.1292      7.7519    124.7867   1.3901950346e+02   4.7041578196e+01     0.282388   0.09663148 -63.69  0.001410409    2.425    0.588
        41 -11.4143     10.6149    137.2328   1.3916241997e+02   4.4210425547e+01    0.1126416   0.06350416  57.93 0.0004762535    1.631    0.387
        42 -12.0939      2.2752    119.5071   1.4004181180e+02   4.8496737680e+01    0.3696341    0.1238363  82.77  0.001583575    3.304    0.697
        43 -12.6860      3.2979    141.2229   1.4109300182e+02   4.3858955888e+01    0.2728146    0.1452897 -55.56  0.001688752    2.056    0.514
        44 -13.0428    107.1076    100.9204   1.0714956920e+02   4.1017496480e+01    0.3635311    0.2091596 -59.81  0.001546529    2.037    0.509
        45 -14.6366    214.8825    224.6479   1.0656230814e+02   1.4423857528e+00    0.4506302    0.2253024  31.75  0.002471841    1.507    0.337
        46 -11.7184     55.3843    235.0682   1.3619968667e+02   2.2078814685e+01    0.1876914   0.08786524 -74.89  0.001236213    2.385    0.581
        47 -13.4119     69.2948     63.9706   1.0956104534e+02   5.5139345988e+01    0.5503436    0.3498905   7.43  0.002560144    2.175    0.540
        48 -14.2337      7.7464     43.5171   1.2942923362e+02   6.5206287113e+01    0.4533347    0.3798807  65.30  0.002872674    1.476    0.322
        49 -14.9523     72.7122     42.2199   1.0099652617e+02   5.9151594334e+01    0.7587249    0.5911849  13.98  0.003759706    1.342    0.255
        50 -16.0869     47.5135    181.5479   1.3418387113e+02   3.2065329999e+01     1.259161    0.6516432  52.59  0.007616888    1.651    0.394
        51 -11.2528     11.3556    232.2717   1.4328300358e+02   2.6781489977e+01    0.0718677   0.07058635  47.96 0.0006998999    1.641    0.391
