#   1 NUMBER                 Running object number                                     
#   2 MAG_AUTO               Kron-like elliptical aperture magnitude                    [mag]
#   3 X_IMAGE                Object position along x                                    [pixel]
#   4 Y_IMAGE                Object position along y                                    [pixel]
#   5 X_WORLD                Barycenter position along world x axis                     [deg]
#   6 Y_WORLD                Barycenter position along world y axis                     [deg]
#   7 A_WORLD                Profile RMS along major axis (world units)                 [deg]
#   8 B_WORLD                Profile RMS along minor axis (world units)                 [deg]
#   9 THETA_WORLD            Position angle (CCW/world-x)                               [deg]
#  10 FWHM_WORLD             FWHM assuming a gaussian core                              [deg]
#  11 ELONGATION             A_IMAGE/B_IMAGE                                           
#  12 ELLIPTICITY            1 - B_IMAGE/A_IMAGE                                       
         1 -10.9265      5.0586     34.4860   6.5098997714e+01   7.1340190486e+01    0.1733906    0.1143754   7.07 0.0003765658    1.494    0.331
         2 -12.6299     46.1360     26.5660   3.5898166357e+01   6.7942208540e+01    0.4752952    0.2672887 -38.23  0.002354669    1.888    0.470
         3 -11.2951     92.2551      8.8136   1.0333309930e+01   6.0108099081e+01    0.2250522    0.1945478  64.57 0.0004857349    1.033    0.032
         4 -11.6357     49.5325      8.4336   2.4622242233e+01   6.9822569849e+01    0.2170997    0.1791324  33.62 0.0002401262    1.023    0.023
         5 -10.5723    123.1530      7.3686   3.7439040725e+00   5.2429557058e+01    0.1888284    0.1122727  83.29 0.0002782948    1.587    0.370
         6 -11.8120     67.9972      5.7799   1.5839998327e+01   6.6161907726e+01    0.2094481     0.179454  20.59 0.0002949602    1.200    0.167
         7 -10.3945    145.4974      1.3362   3.5882826124e+02   4.7283415802e+01    0.1330609     0.103655  86.33 -0.0001480482    1.060    0.057
         8 -11.6175    106.1937    246.8540   6.4280848045e+01   8.7606532051e+00    0.1677988     0.131488  10.97 0.0003840792    1.327    0.246
         9 -11.9799    139.4410    248.7144   5.7232418017e+01   4.0097577383e+00    0.3228175    0.2012962 -36.83  0.001880895    1.909    0.476
        10 -11.3638    124.8314    249.6993   6.0491516826e+01   5.7912597964e+00     0.216194    0.1806445  -6.21 0.0007482413    1.316    0.240
        11 -11.7291    121.0548    248.6769   6.1198247811e+01   6.4642955336e+00    0.2208332    0.1692773  21.98 0.0004527084    1.111    0.100
        12 -12.2540     65.4159    249.6178   7.3636314432e+01   1.3491662226e+01    0.6483784    0.1790065  35.30  0.002724079    2.469    0.595
        13 -12.1068     69.6750    248.2962   7.2586842749e+01   1.3214949474e+01    0.3694783    0.2056894  68.15  0.001931829    2.191    0.544
        14 -12.4197     64.2503    245.5057   7.3586229712e+01   1.4405267128e+01    0.2763945    0.1724764  38.61 0.0002335355    1.234    0.190
        15 -15.2526     23.6266    189.2395   7.9444007858e+01   3.1211789899e+01     1.344904    0.8578246 -84.80  0.006894097    1.529    0.346
        16 -15.6137      7.8974    184.6178   8.3358899175e+01   3.3740398374e+01     3.017142     1.126495  63.00   0.01196338    2.626    0.619
        17 -13.9993     36.5477    246.6944   7.9809956713e+01   1.7384543847e+01    0.8215379    0.5036141  18.53  0.002651108    1.841    0.457
        18 -14.7813     34.6533    231.3137   7.9366476150e+01   2.0655212898e+01     1.700532    0.5977467 -82.89  0.007169394    3.412    0.707
        19 -14.2829     26.2023    227.7409   8.1111789556e+01   2.2292901336e+01     1.441906    0.5190839 -85.55  0.006230095    3.181    0.686
        20 -14.2628      9.9465    208.4338   8.3992067379e+01   2.8047213257e+01    0.6240839    0.4838786 -23.30  0.003820655    1.868    0.465
        21 -13.3872     13.6328    196.0121   8.2468269088e+01   3.0549379642e+01    0.4184505    0.3198651 -20.60    0.0024454    1.846    0.458
        22 -14.3915     20.5116    247.7402   8.3309777074e+01   1.8863231446e+01    0.7730821    0.3899478  20.14  0.003745626    2.231    0.552
        23 -15.2676      3.6701    223.1253   8.6033720300e+01   2.5419566115e+01     1.565606    0.6720481 -69.32   0.00801398    2.497    0.599
        24 -14.4273      3.6478    201.3849   8.5216437625e+01   3.0179106953e+01     0.809707    0.6028616 -75.31  0.005123481    1.413    0.292
        25 -16.1862      8.5183    237.5011   8.5474240543e+01   2.2031238912e+01     1.449229     0.665951  46.73  0.008187625    1.581    0.367
        26 -16.0569     15.6517    228.5972   8.3555613811e+01   2.3168866881e+01     1.602106    0.8622382  84.36  0.009000519    1.842    0.457
        27 -13.8802      1.7612    249.7549   8.7267875198e+01   2.0268691383e+01    0.2933652    0.1652398  68.88  0.001635259    1.507    0.336
        28 -14.5288      6.3619    247.8102   8.6270444648e+01   2.0217099953e+01    0.5445068    0.2154433  49.29  0.002009577    1.773    0.436
        29 -12.2426     99.3252    246.8610   6.5815311819e+01   9.6712534716e+00    0.3312694    0.1638182  22.53  0.001155637    2.002    0.501
        30  -9.9435    226.2776    246.3128   4.0123163898e+01  -6.1623281210e+00    0.1112284   0.06468469  -4.78 0.0001879107    1.564    0.360
        31 -11.1262    205.1788    243.9941   4.3505944919e+01  -3.5508014991e+00    0.1480415    0.1417667  89.40  0.001084301    2.029    0.507
        32 -11.2167    143.0305    243.1915   5.5776546338e+01   4.4149980629e+00    0.2044761    0.1828564 -25.17  0.001408387    1.307    0.235
        33 -11.4072    162.9556    242.7008   5.1527310145e+01   1.8439294124e+00    0.1713363    0.1299901  20.84 0.0003879418    1.061    0.057
        34 -10.4578     82.1787    242.1929   6.9244293059e+01   1.2773125570e+01    0.1649928    0.1210109  51.14 0.0002544881    1.243    0.196
        35 -11.3557    126.1409    241.3472   5.9226387099e+01   7.0168364533e+00    0.1987461    0.1906305  68.27 0.0006912033    1.325    0.245
        36 -12.3464     71.2816    238.1053   7.1386028435e+01   1.4952574306e+01     0.387704    0.2311675 -43.12  0.001291793    2.335    0.572
        37 -12.8531     72.7236    231.1016   7.0432207635e+01   1.6152339257e+01    0.5136501     0.300052 -52.82  0.001901212    2.095    0.523
        38 -11.0888    131.1706    244.0982   5.8453647531e+01   5.8681897602e+00    0.1723458    0.1306884  44.23  0.001018798    1.349    0.259
        39 -11.8149    102.6866    237.8799   6.4116541894e+01   1.0846077449e+01    0.2993997    0.2108476 -38.69  0.001196318    1.787    0.440
        40 -11.0958    217.3451    237.8673   4.0423321937e+01  -4.1350518868e+00    0.1552743    0.1136487 -10.66 0.0007378147    1.134    0.118
        41 -11.3635     79.8276    237.4676   6.9351105945e+01   1.3977999700e+01    0.2918502    0.2027405  17.92  0.001659191    1.511    0.338
        42 -12.5315     47.4432    235.0800   7.6660580180e+01   1.8450721051e+01    0.4462115    0.2301084  78.78  0.002223281    2.322    0.569
        43 -11.1364    210.6690    236.0879   4.1345226793e+01  -3.1389638365e+00    0.1976233   0.09980659 -44.25   0.00108394    2.455    0.593
        44 -10.8301    138.0368    236.0601   5.5941124245e+01   6.2773035637e+00    0.1881585    0.1350745  48.84 0.0003160439    1.573    0.364
        45 -10.3645     88.2924    236.6594   6.7310605920e+01   1.3017629857e+01    0.1337729   0.08329495  55.35 0.0004281311    1.651    0.394
        46 -11.2141    165.3651    234.5351   4.9896195737e+01   2.7842864563e+00    0.3491418    0.1197316  42.25  0.001358416    3.364    0.703
        47 -11.7040    121.0513    235.0483   5.9602660692e+01   8.8217442832e+00    0.2086819    0.1647142  30.49 0.0007305465    1.037    0.036
        48 -12.2119    222.6358    232.8078   3.8737270856e+01  -4.0724689675e+00    0.2481812    0.1617062 -17.92 0.0008593823    1.319    0.242
        49 -13.1307     57.9652    232.6011   7.4035867384e+01   1.7702399306e+01    0.5419325    0.2847444  73.43  0.002616237    2.367    0.578
        50 -11.8196    181.0254    231.0000   4.6201531796e+01   1.2494320430e+00    0.3041401    0.1800454  31.31   0.00174654    1.493    0.330
        51 -12.0502    143.0046    231.6388   5.4263203585e+01   6.3350333098e+00    0.1997521    0.1836928 -18.19  0.000329253    1.235    0.190
        52 -11.2775    122.8739    231.2050   5.8713000968e+01   9.2563330443e+00    0.1989324    0.1518564  40.90 0.0004753362    1.214    0.177
        53 -11.0757    184.3310    233.2641   4.5883558500e+01   4.8278220668e-01    0.2296674    0.1456469  23.35 0.0008921794    1.324    0.245
        54 -12.1887    194.7473    229.0940   4.3239813797e+01  -2.3550471532e-01    0.2162094    0.1781523   7.70 0.0002785668    1.108    0.097
        55 -10.8682    150.3035    229.6672   5.2399537968e+01   5.6435372228e+00    0.1221903   0.09442733  53.19 0.0007036774    1.658    0.397
        56 -11.2952    112.5416    234.5045   6.1476247743e+01   1.0107607691e+01    0.1320042    0.1079736  29.92 4.186978e-05    1.010    0.010
        57 -10.9133    138.1500    227.1214   5.4723795442e+01   7.8072701421e+00    0.1695952    0.1428354  46.30 0.0004179576    1.313    0.238
        58 -12.2481     80.7868    226.2744   6.8047452872e+01   1.6064947633e+01    0.2909338     0.211192  19.18 0.0008437582    1.419    0.295
        59 -10.0915    216.7195    226.2683   3.8764216238e+01  -2.5241202729e+00   0.09536897   0.08632528  17.49 0.0006889344    1.489    0.328
        60 -11.9579    116.9288    225.6944   5.9389632760e+01   1.1123098348e+01    0.2159448    0.1838855  74.39 0.0004420471    1.470    0.320
        61 -11.2586    114.5067    221.5267   5.9428839935e+01   1.2268857845e+01      0.19763      0.13668 -56.72 8.304731e-05    1.723    0.420
        62 -12.2839    106.4132    226.0110   6.1898391104e+01   1.2567327507e+01    0.2671439    0.1690947  17.98  0.001229615    1.648    0.393
        63 -10.6387    182.4843    225.4896   4.5081170005e+01   1.8951387602e+00    0.1256783    0.1007932   7.91 0.0003124053    1.005    0.005
        64 -12.4360     93.2524    223.5945   6.4761091990e+01   1.4899218095e+01    0.3816593    0.2783423  -9.46  0.002033439    1.863    0.463
        65 -10.8993     48.9168    226.7933   7.5732458839e+01   1.9981109191e+01    0.2517621    0.1287145  64.32  0.001203708    2.068    0.516
        66 -12.4713    159.6774    222.2600   4.9307936826e+01   5.5634355190e+00    0.4241057    0.2815313  37.00  0.002396003    1.422    0.297
        67 -10.2760     60.6382    223.3258   7.2643196874e+01   1.9288121597e+01    0.1472557   0.07783361  54.43 0.0007041355    1.789    0.441
        68 -12.2911     57.6589    220.6060   7.3137991854e+01   2.0234617459e+01    0.3317828    0.1974404 -46.67  0.001101751    2.215    0.549
        69 -12.6150    188.8711    220.8494   4.3101697227e+01   1.7552856338e+00    0.3188272    0.1879863  15.71 0.0009819636    1.648    0.393
        70 -12.9791     45.0573    220.4016   7.6191790015e+01   2.1787026032e+01    0.4033258    0.3174717  46.17  0.002072755    1.043    0.042
        71 -13.1548     47.6421    215.4647   7.5185464883e+01   2.2557336278e+01    0.5540281    0.2875218  25.91  0.002684307    1.852    0.460
        72 -12.7991     40.2282    213.8202   7.6897378564e+01   2.3774621770e+01    0.3518393    0.2957826  82.05  0.001260722    1.197    0.164
        73 -11.7837     45.7964    211.4322   7.5329429031e+01   2.3665388988e+01    0.3657515    0.1818527  35.12  0.001777258    1.666    0.400
        74 -11.2161    213.1410    221.1166   3.8591862688e+01  -1.3835636230e+00    0.1888998    0.1320998  -0.77 0.0009556286    1.233    0.189
        75 -12.5507    173.7144    219.8477   4.5991065085e+01   3.9813838603e+00    0.3084697    0.2302232 -40.86  0.001152548    1.516    0.340
        76 -10.7536    237.4534    220.4507   3.4326442283e+01  -4.1152281813e+00    0.1107643   0.08554558  -6.57 5.442119e-05    1.076    0.071
        77 -11.5875     77.7420    219.7331   6.8125421771e+01   1.7822246596e+01    0.3077843    0.1963225  18.60  0.001356279    1.697    0.411
        78 -10.4472     67.3164    220.3245   7.0745964257e+01   1.9073586583e+01    0.1257336     0.101043 -15.35 0.0007043622    1.669    0.401
        79 -12.6151    145.5656    216.6648   5.1571393796e+01   8.5913351768e+00    0.3668358    0.3263655 -82.41  0.001192736    1.564    0.361
        80 -12.1507    141.6871    212.1404   5.1775572172e+01   1.0000923537e+01    0.2721282     0.228154  87.19   0.00155703    1.731    0.422
        81 -11.8729    124.8722    221.8634   5.7040795990e+01   1.0690249236e+01    0.2615911    0.1421741  25.34  0.001245031    1.703    0.413
        82 -12.1241    121.5295    216.8338   5.7146162872e+01   1.2142086423e+01    0.2771575    0.2360498  69.04 0.0004202597    1.439    0.305
        83 -11.7490     64.0465    217.1808   7.1262058937e+01   2.0165343838e+01    0.2186815    0.1904397  84.95 0.0007115757    1.229    0.186
        84 -12.4438    107.6736    214.9989   6.0230737591e+01   1.4560030642e+01    0.3491037    0.2443701 -65.41  0.001866781    1.741    0.426
        85 -11.2954    225.1010    215.7845   3.5643148468e+01  -2.0815282759e+00    0.1662455    0.1428483  -1.13  0.001220749    1.249    0.199
        86 -11.2488    129.5512    216.5303   5.5218885299e+01   1.1003569887e+01    0.1364522    0.1161127  22.73 7.876653e-05    1.025    0.024
        87 -12.0841     85.3825    214.5790   6.5679756488e+01   1.7858668982e+01    0.5110494    0.2850854  37.77  0.002507828    1.487    0.328
        88 -10.8783     77.4723    213.9809   6.7592881530e+01   1.9078865022e+01    0.2117168    0.1578096  35.87 0.0003094753    1.148    0.129
        89 -11.2833    155.7508    213.2260   4.8788277470e+01   7.6929039095e+00    0.2422856    0.1740573  25.56  0.001371461    1.209    0.173
        90 -11.7777    127.3348    212.9426   5.5231012573e+01   1.2023586768e+01    0.3156609    0.1374287  34.33  0.001349761    1.951    0.487
        91 -10.0694     68.7324    213.2947   6.9719217171e+01   2.0398399943e+01    0.1368123    0.0879478  57.12 0.0001631038    1.513    0.339
        92 -10.6218    193.9804    211.7270   4.0647251405e+01   2.4752995686e+00    0.1688299    0.1370632   8.31 0.0004257052    1.046    0.044
        93 -10.4460     72.4891    212.4832   6.8690143701e+01   2.0075996642e+01    0.1378458    0.1166936  44.18 4.362018e-05    1.004    0.004
        94 -12.3731    229.1729    208.1948   3.3715173886e+01  -1.5183696940e+00    0.3485121    0.2076263 -19.95   0.00154553    1.520    0.342
        95 -12.5408    225.4710    204.6016   3.3743368254e+01  -5.6157507926e-01    0.2874444    0.2073548 -43.76  0.001431952    1.705    0.413
        96 -10.8019    209.4097    211.2025   3.7666132357e+01   5.1105562535e-01    0.1526023    0.1081095 -41.41 0.0008368059    1.619    0.382
        97 -11.4366     59.7137    210.9204   7.1771388160e+01   2.2084677300e+01    0.1778056    0.1590463  71.44 0.0004888838    1.130    0.115
        98 -10.7785    187.3403    210.6439   4.1769765462e+01   3.5607781525e+00    0.1163225    0.1014485  63.65 0.0007039571    1.815    0.449
        99 -11.1904     96.7319    208.6526   6.2128874388e+01   1.7486810068e+01    0.2959031    0.1654551 -63.10  0.001332552    2.093    0.522
       100 -11.9092     52.8990    209.7378   7.3395376620e+01   2.3195186541e+01    0.3049118     0.188042  41.20 0.0009927279    1.349    0.258
       101 -11.6545    169.5049    208.4939   4.5072558827e+01   6.4798309530e+00    0.2675348    0.1992735  66.92 0.0009038079    2.393    0.582
       102 -10.6098     89.6132    208.7683   6.3940106004e+01   1.8497884087e+01    0.1688221    0.1316541 -89.76  0.000547175    1.519    0.342
       103 -12.5471    160.4888    207.2713   4.6812041000e+01   8.0398495154e+00     0.357046    0.1975759  31.23 0.0002117902    1.616    0.381
       104 -10.8694     94.8523    217.4704   6.3669913649e+01   1.5917191489e+01    0.1987969    0.1168536  32.15 0.0003073811    1.446    0.308
       105 -13.3036     37.0635    204.3705   7.7003651235e+01   2.6255667826e+01    0.5307014    0.3718987  20.44  0.002619007    1.540    0.351
       106 -10.9922     55.6881    206.3235   7.2377574643e+01   2.3619510387e+01    0.2203786    0.1288207  58.12 0.0002330931    1.665    0.399
       107 -11.2232     52.8522    203.8693   7.2887822323e+01   2.4528314306e+01      0.27763    0.1658196  35.27  0.001408194    1.443    0.307
       108 -10.8544    110.6353    204.8180   5.8136516430e+01   1.6206022526e+01    0.1792264    0.1351909 -79.42 0.0004049804    1.714    0.417
       109 -11.9159     92.6248    193.8476   6.1248699882e+01   2.1344864471e+01    0.3675126    0.2956259  74.10  0.001207344    1.394    0.283
       110 -12.0860     89.4127    201.4559   6.3088918690e+01   2.0122283453e+01    0.3166838    0.2461163 -57.92  0.001148963    1.449    0.310
       111 -11.7946     91.5178    198.5258   6.2164079300e+01   2.0461552396e+01    0.3000285    0.2460953 -61.50  0.001041332    1.366    0.268
       112 -11.6506    212.4883    200.3092   3.5285737267e+01   1.7356351318e+00    0.3057733    0.2104287 -52.44  0.001744089    2.096    0.523
       113 -12.3510    145.9497    201.2304   4.9099575566e+01   1.1399150401e+01    0.2886559    0.2208613  38.67 0.0007978699    1.255    0.203
       114 -12.4606    143.3825    198.8176   4.9304490794e+01   1.2270666011e+01    0.3805985    0.2421435 -26.10  0.001800673    1.928    0.481
       115 -10.4880    121.2870    201.3133   5.4992702418e+01   1.5278326684e+01    0.1382856    0.1053192  -7.65 0.0003019313    1.582    0.368
       116 -11.1638    134.5395    198.4948   5.1341313178e+01   1.3746543155e+01    0.2441836    0.2023952  86.71 0.0005946304    1.659    0.397
       117 -12.3949    138.0217    196.9717   5.0267074537e+01   1.3491754757e+01    0.3866747    0.2705018 -33.34 0.0003563947    1.593    0.372
       118 -10.7870     49.1155    200.1502   7.3530407456e+01   2.5839294995e+01    0.1958975    0.1283309  48.56 0.0004331516    1.319    0.242
       119 -13.4546    173.8091    195.8309   4.2046120398e+01   8.0376977019e+00    0.4200062    0.3223769  50.95  0.002349351    1.650    0.394
       120 -12.1397    150.3857    198.3291   4.7609419650e+01   1.1250559269e+01     0.318577     0.199459  40.92  0.001140606    1.548    0.354
       121 -12.1303    122.5620    196.9085   5.4010045035e+01   1.5987977948e+01    0.4670954    0.3040134  71.64  0.002008744    2.561    0.610
       122 -11.1045     84.5046    198.2018   6.3962220395e+01   2.1566535006e+01    0.3454724     0.198081  86.23  0.001417937    2.696    0.629
       123 -12.7210     37.0529    196.1510   7.6377685194e+01   2.8167316115e+01     0.468123     0.248938  50.44  0.002280947    1.650    0.394
       124 -13.0204     37.0535    190.2344   7.5899006546e+01   2.9575438486e+01    0.4634635    0.2803748 -79.44  0.001726634    1.681    0.405
       125 -10.1156    233.2714    197.2973   3.1211907884e+01  -4.8645119453e-01    0.1169683   0.07463571  -8.89 0.0001838798    1.523    0.344
       126 -11.3996    101.3379    196.2566   5.9299695915e+01   1.9473888814e+01    0.2790322    0.2592072  31.53  0.001634873    1.056    0.053
       127 -10.8103    185.6077    193.2994   3.9178448939e+01   6.6792640537e+00    0.1866074    0.1604113  63.93  0.000699265    1.724    0.420
       128 -11.7644    191.5005    195.5368   3.8399950122e+01   5.4273148084e+00    0.3199573    0.2499136 -10.43  0.001757894    1.180    0.153
       129 -11.1584    189.0000    192.9572   3.8441526817e+01   6.2284343488e+00    0.2840441    0.1783203 -31.21 0.0008247785    1.559    0.358
       130 -11.0186    116.0138    195.9824   5.5505220516e+01   1.7228400782e+01    0.2070298    0.1868305  39.31 0.0003553509    1.060    0.057
       131 -11.7909    202.4314    195.0455   3.6220735816e+01   3.9330969504e+00     0.222567    0.1689008  22.65 0.0004271876    1.249    0.199
       132 -11.4987    212.1870    193.7641   3.4211011398e+01   2.7768237517e+00    0.2551307    0.1377377  35.57   0.00136443    1.895    0.472
       133 -11.6169    160.7276    193.3456   4.4442547482e+01   1.0541807365e+01     0.250232    0.2129927 -23.82 0.0009500055    1.184    0.155
       134 -10.8601     41.8627    191.2765   7.4683236641e+01   2.8784934475e+01    0.2459087    0.1586059 -43.00 0.0009333008    2.003    0.501
       135 -11.4579    133.9153    190.9712   5.0272917943e+01   1.5372926048e+01    0.3295381    0.2036676  22.46  0.001109659    1.682    0.405
       136 -11.9722     50.8108    189.9575   7.2119349564e+01   2.8040860590e+01    0.2624654    0.1795332  36.97 0.0005440444    1.305    0.234
       137 -11.4219    174.8117    188.6820   4.0582150620e+01   9.1555864042e+00     0.214325    0.1533828  12.78 0.0007938897    1.427    0.299
       138 -11.6111    168.4419    188.9748   4.1991742776e+01   1.0116741004e+01    0.2142185    0.1673475  26.43 0.0005415091    1.185    0.156
       139 -11.7310    207.5472    187.2175   3.3893909985e+01   4.4557081222e+00    0.3124027    0.1696955   2.28  0.001299564    3.147    0.682
       140 -11.5157    110.8622    187.8318   5.5575038238e+01   1.9825892777e+01    0.3119859    0.1978483  20.25  0.001411978    1.727    0.421
       141 -11.5998     76.3579    185.5172   6.4548954240e+01   2.5692453701e+01    0.3754974    0.2352279 -56.25  0.001409027    1.728    0.421
       142 -11.5448    248.6396    185.8438   2.6846536485e+01  -7.4770345375e-01    0.1901015    0.1360311   7.00 0.0008307234    1.364    0.267
       143 -11.4429    156.9582    185.9526   4.3993828486e+01   1.2558589875e+01     0.220172    0.1934742   9.69 0.0009565857    1.048    0.046
       144 -12.3441    126.3651    185.9787   5.1309290242e+01   1.7671243464e+01    0.4580733    0.1983803  35.46  0.001802412    2.084    0.520
       145 -10.4897     70.4906    186.5663   6.6308102176e+01   2.6274759902e+01    0.1470449     0.125494  51.51 0.0001802438    1.056    0.053
       146 -10.9627     41.9870    185.7949   7.4158096620e+01   3.0094918760e+01    0.3374048    0.1047387  48.90  0.001172533    3.067    0.674
       147 -11.1675    162.9460    184.3701   4.2370568302e+01   1.1871648660e+01    0.2032994    0.1658241  26.18   0.00114058    1.139    0.122
       148 -10.9628     65.6817    184.4762   6.7395782671e+01   2.7440441827e+01     0.186535    0.1356151  18.94 0.0007609406    1.495    0.331
       149 -11.4463     94.4306    181.9996   5.9072292338e+01   2.3789683804e+01    0.3030221    0.2642998 -71.71  0.001084905    1.254    0.203
       150 -11.1498    141.9890    181.3145   4.6661891245e+01   1.6005388569e+01    0.2029061    0.1777253  28.53 0.0004601771    1.056    0.053
       151 -10.8214    222.5170    180.5209   3.0063057569e+01   3.3985722670e+00    0.1242076    0.1017559 -12.87  0.000345764    1.010    0.010
       152 -11.4166    118.7047    180.3172   5.2317062932e+01   2.0190927999e+01    0.2340311    0.1758253  37.55 0.0006298202    1.218    0.179
       153 -11.6646    116.3406    177.6877   5.2490525352e+01   2.1178247955e+01    0.2951514    0.2497095  68.25  0.001151904    1.346    0.257
       154 -11.7486    134.1346    181.9776   4.8692524065e+01   1.7208120469e+01    0.2333841    0.1929633  30.27            0    1.111    0.100
       155 -10.3007     58.9711    180.2769   6.8799014749e+01   2.9361978359e+01    0.1672402    0.1166508  35.02 0.0002192478    1.317    0.241
       156 -11.7598    191.1163    177.8665   3.5292959453e+01   8.4909329676e+00    0.1861225      0.18091 -23.89 0.0005394678    1.245    0.197
       157 -10.5533    166.8327    178.1357   4.0374580833e+01   1.2409734581e+01     0.192296     0.152577  -4.07 0.0002406079    1.317    0.241
       158 -11.1563    154.7710    177.6134   4.2982780179e+01   1.4562957924e+01    0.2286121    0.1824609 -74.06 0.0006145976    1.749    0.428
       159 -12.1215    137.3616    176.7915   4.6977043078e+01   1.7747173530e+01       0.3573    0.2726127 -66.64  0.001405353    1.636    0.389
       160 -12.3000    127.2999    176.1716   4.9387513842e+01   1.9630171444e+01    0.4026364    0.2821007 -46.47  0.001598392    1.523    0.344
       161 -11.3507     76.5048    176.0382   6.3235213618e+01   2.7960579738e+01    0.2166809    0.1461427 -66.95   0.00103074    1.583    0.368
       162 -11.9972     31.8147    176.1822   7.6171009737e+01   3.3582493790e+01    0.2730363      0.18793  31.64 0.0006676046    1.398    0.284
       163 -11.3203    106.8624    175.1932   5.4604391973e+01   2.3349117647e+01    0.2316359    0.1931564  53.87 0.0005411956    1.206    0.171
       164 -11.0222     79.5771    173.3626   6.1971503729e+01   2.8157644271e+01    0.2542178    0.1336389  31.06  0.001055169    1.795    0.443
       165 -12.3180    197.9413    170.8064   3.2651033523e+01   8.6327613399e+00    0.2956132    0.2387095 -19.09  0.001034096    1.137    0.121
       166 -11.0518    144.3346    172.6609   4.4519304124e+01   1.7391632803e+01     0.147415    0.1153381  71.14 0.0007051526    1.751    0.429
       167 -14.3291     14.3930    165.5382   8.0388687400e+01   3.7901575653e+01     1.018131      0.55058  43.77   0.00428128    1.666    0.400
       168 -12.7687     13.0688    161.5641   8.0498871148e+01   3.9018201272e+01    0.5805988     0.210583  52.31  0.001979402    2.654    0.623
       169 -13.6921      4.3766    166.9076   8.3372215194e+01   3.8346487839e+01    0.7276922    0.3574814  63.14  0.002515555    1.905    0.475
       170 -13.2662      3.7924    160.8189   8.3193832250e+01   3.9912912669e+01    0.4640107    0.3686184 -43.25  0.002767887    1.490    0.329
       171 -10.3789    164.4487    171.5247   3.9652563757e+01   1.4090378960e+01    0.1416846    0.1293699   2.87 0.0001026819    1.017    0.017
       172 -12.4404    152.9915    170.3279   4.2026605663e+01   1.6339662636e+01    0.2440421    0.2396535  10.92 0.0002657168    1.103    0.093
       173 -11.2806     36.2321    170.7827   7.4393399139e+01   3.4471047518e+01    0.1841052    0.1632491 -36.28 0.0007697689    1.347    0.258
       174 -11.8305    119.8815    168.6959   4.9975742522e+01   2.2595199096e+01    0.6528521    0.3277453  19.06  0.002177444    3.195    0.687
       175 -11.4222    102.0884    170.1022   5.5064139438e+01   2.5343518759e+01    0.2192328    0.1979337   3.08 0.0003563873    1.208    0.172
       176 -10.1761     62.2905    170.6788   6.6658042758e+01   3.1308935818e+01    0.1542309    0.1012218  62.02 0.0003111266    1.605    0.377
       177 -11.0070     84.9526    167.8223   5.9577038020e+01   2.8690823577e+01    0.2779999    0.1524067  56.61   0.00109211    2.158    0.537
       178 -10.9133     31.4055    168.1814   7.5576864276e+01   3.5641885309e+01    0.1889833    0.1215685  84.15 0.0006471789    1.558    0.358
       179 -11.8872    203.3134    167.0744   3.0940132570e+01   8.4201304032e+00    0.1848302    0.1550141 -25.56 0.0004002234    1.083    0.077
       180 -11.0522     52.5441    167.6738   6.9191699493e+01   3.3348272953e+01    0.2461333    0.1268696  29.17 0.0007239049    1.860    0.462
       181 -11.4213     91.4133    170.5387   5.8145312766e+01   2.6998005087e+01    0.2804864    0.2627065 -20.20  0.001143108    1.192    0.161
       182 -11.2674    127.3822    165.9471   4.7499158154e+01   2.1874404550e+01    0.2711513    0.2085804   3.39  0.001294483    1.572    0.364
       183 -10.9094    198.3045    164.3318   3.1338406069e+01   9.6953759663e+00    0.1377203    0.0964657  -6.75 0.0003302919    1.658    0.397
       184 -10.2781    162.2823    164.2817   3.8727244524e+01   1.5899134510e+01    0.1410816    0.1078936  -3.59 0.0001712354    1.514    0.340
       185 -11.5573    141.8061    162.9280   4.3271237839e+01   1.9905659243e+01    0.2348704    0.2019853  29.37 0.0003439374    1.110    0.099
       186 -12.5106     24.8044    160.9932   7.6913449136e+01   3.8133490824e+01    0.3670778    0.2261501 -45.67  0.001591541    1.904    0.475
       187 -10.4505    229.3662    161.6851   2.5476764730e+01   5.3496911496e+00    0.1146284   0.09667197 -68.72 0.0007038792    1.771    0.435
       188 -12.3589    169.8129    159.4500   3.6105452383e+01   1.5496189845e+01    0.4227961    0.2975268 -84.02  0.001778917    2.797    0.642
       189 -10.6485     40.5041    161.5614   7.2152002255e+01   3.6359227609e+01    0.1421794    0.1294805  64.94 8.774407e-05    1.010    0.010
       190 -11.2305    105.4565    159.1192   5.2178410412e+01   2.7382679806e+01    0.3291173    0.1826457  50.81  0.001310139    1.950    0.487
       191 -10.8368     69.7634    158.2101   6.2642987858e+01   3.3422899132e+01    0.2037089    0.1758336 -22.18 0.0008036536    1.375    0.273
       192 -10.9831    160.0074    156.9960   3.7777286550e+01   1.7777581454e+01    0.2111848    0.2046023   5.08   0.00121315    1.047    0.044
       193 -10.5207    110.9872    165.2169   5.1746902733e+01   2.4964698520e+01    0.2103188    0.1173326  35.64 0.0007009228    1.675    0.403
       194 -11.9109     28.5818    156.3238   7.5310378360e+01   3.8977175237e+01    0.2231442    0.1699155 -17.22 0.0009578568    1.685    0.407
       195 -10.8965    190.6041    155.2267   3.1000029623e+01   1.2607439429e+01    0.1909626     0.120923 -31.09 0.0005778651    1.567    0.362
       196 -10.3976    141.4794    155.5105   4.1868522724e+01   2.1564861916e+01    0.1492475    0.1430967  23.88 -4.786923e-06    1.014    0.014
       197 -12.0743     84.1527    149.8412   5.6801547834e+01   3.3320544116e+01    0.3413053    0.2773957  -6.74  0.001031317    1.527    0.345
       198 -10.8365     77.6318    155.3106   5.9755918771e+01   3.2974079027e+01    0.1670985    0.1079522  60.92 0.0007036626    1.764    0.433
       199 -12.8106     14.3142    152.9577   7.9473527882e+01   4.1123823915e+01    0.6557209    0.2878793  69.84  0.002260271    2.549    0.608
       200 -13.5711      3.5502    151.5530   8.2704442560e+01   4.2279440680e+01    0.7136808    0.5124432 -58.62  0.003096927    1.436    0.304
       201 -14.0869     15.0522    131.8632   7.7361424146e+01   4.6584724180e+01    0.6587733    0.4365143 -44.13  0.003366834    1.633    0.388
       202 -13.0770     20.1110    130.9355   7.5488808054e+01   4.6430068555e+01     0.610199    0.2573183 -51.87  0.002468868    2.358    0.576
       203 -13.1831      9.8706    145.8042   8.0318692324e+01   4.3316816179e+01    0.3721962    0.3398696  51.66  0.001225494    1.113    0.102
       204 -13.7980     10.9609    142.0379   7.9664912047e+01   4.4217178364e+01    0.5678221    0.4217041  52.81 0.0003645731    1.291    0.226
       205 -10.8651     21.0071    154.1632   7.7481950838e+01   4.0246223100e+01    0.2556976    0.1712152 -59.23  0.001319715    1.513    0.339
       206 -10.6118     88.7068    152.7016   5.5921160551e+01   3.1843622226e+01    0.2753043    0.2232832 -36.68 0.0002671647    1.393    0.282
       207 -11.0718     91.1165    149.8745   5.4674356706e+01   3.2144341495e+01     0.226941     0.201124  65.30            0    1.148    0.129
       208 -12.6519     51.9761    152.4319   6.7410735161e+01   3.7361610141e+01    0.3804004    0.3281197  -4.85  0.001574865    1.373    0.271
       209 -12.2500     96.9305    149.4814   5.2850441882e+01   3.1233837958e+01    0.4861571    0.2635052  54.32  0.001766592    2.189    0.543
       210 -11.8717    108.9083    149.0358   4.9257577971e+01   2.9182331969e+01    0.3278822    0.2557187 -51.00 0.0007189108    1.339    0.253
       211 -13.3064     27.8742    149.2104   7.4816967093e+01   4.0904631052e+01    0.4755713     0.382615 -14.59  0.002586386    1.530    0.346
       212 -10.9757    146.9958    148.7299   3.9107376029e+01   2.1968456448e+01    0.2062436    0.1910157  30.85 0.0003224771    1.051    0.049
       213 -12.1770     19.0792    148.9785   7.7630528823e+01   4.1763088559e+01    0.3559341    0.2714558  36.19  0.001181136    1.302    0.232
       214 -11.1893    165.7876    147.9564   3.4606707611e+01   1.8513551172e+01    0.1966397    0.1840647 -31.81 0.0003354393    1.060    0.057
       215 -12.2706    171.1680    145.5013   3.2922251338e+01   1.7977899810e+01    0.2630757    0.2430282 -32.63 0.0003694337    1.060    0.057
       216 -12.7546    101.8238    142.4252   4.9994393193e+01   3.2093366242e+01      0.64644    0.3895331  64.41  0.002014325    2.378    0.579
       217 -12.5154     24.5914    144.3390   7.5386510678e+01   4.2494114270e+01    0.3725155    0.2551142   7.90  0.001870295    1.737    0.424
       218 -11.0936    187.1153    143.8639   2.9333550677e+01   1.5313378477e+01    0.2003154    0.1863379 -61.23 0.0003471925    1.213    0.176
       219 -10.7261    143.8060    143.2092   3.8702364315e+01   2.3781934966e+01    0.2071016    0.1769897  -4.44 0.0003981276    1.319    0.242
       220 -12.8436     50.5244    142.3905   6.6460225926e+01   4.0191039289e+01     0.488284    0.2459462  34.58  0.001788993    1.870    0.465
       221 -12.0059    209.0392    141.7570   2.4911790506e+01   1.1807653801e+01    0.2617832    0.2301986 -84.03 0.0008217096    1.506    0.336
       222 -10.7278    178.8003    142.5972   3.0715459936e+01   1.7096717950e+01    0.1974619    0.1348952  54.18  0.000949835    1.697    0.411
       223 -12.1750     93.8792    140.4355   5.2002197505e+01   3.4025227324e+01    0.4044399    0.3205571 -12.89  0.001155116    1.609    0.378
       224 -11.4655     60.0267    139.4433   6.2798906919e+01   3.9705852673e+01    0.2193132    0.1966147 -75.05 0.0003160615    1.111    0.100
       225 -13.4209     40.3437    137.5435   6.9234864895e+01   4.2695532730e+01    0.4929954    0.3393361 -87.97  0.001134907    1.511    0.338
       226 -13.0414     37.2871    134.3538   6.9858973760e+01   4.3882600405e+01    0.4494538    0.2831508 -18.15  0.001949404    2.231    0.552
       227 -12.4336    129.6208    137.3658   4.1046430588e+01   2.7912829374e+01    0.4195341    0.3408218  32.06 0.0006378652    1.238    0.192
       228 -10.3974     87.5093    138.4311   5.3593087542e+01   3.5649709838e+01    0.1544895    0.1493402  35.26 0.0001518788    1.046    0.044
       229 -12.3413     67.9509    136.7812   5.9671415360e+01   3.9253629749e+01    0.3544179    0.2355923  54.57 0.0009625887    1.596    0.373
       230 -12.8456    123.4754    134.4885   4.2062465253e+01   2.9807679519e+01    0.4048831    0.3238905  -4.40 0.0001108806    1.589    0.371
       231 -12.0814     53.3673    136.0418   6.4512686355e+01   4.1508111803e+01    0.4369746    0.1220159  42.43  0.001322525    3.462    0.711
       232 -11.8886    174.6440    133.9805   2.9691281631e+01   1.9557253312e+01    0.2656293    0.2285946  -8.05 0.0005018481    1.264    0.209
       233 -12.5609    200.5223    132.9328   2.4544876840e+01   1.4842607486e+01    0.2447098    0.2191383 -34.40 0.0003355602    1.027    0.026
       234 -11.6240    102.9675    133.6869   4.7805854395e+01   3.4022397292e+01    0.2391415    0.1978166  43.63  0.001157616    1.165    0.141
       235 -12.6831     59.6139    133.7315   6.1969851056e+01   4.1271151800e+01    0.4709726    0.1894895  32.93  0.001711675    2.337    0.572
       236 -13.2184      6.8959    132.6642   8.0251863945e+01   4.6946540217e+01     0.344085    0.2484806 -38.93  0.001880788    1.553    0.356
       237 -10.7014     77.6907    132.6906   5.5638900656e+01   3.8779260453e+01    0.1564706    0.1212382 -21.23 0.0003565017    1.619    0.383
       238 -11.6483     31.3182    131.2506   7.1551462174e+01   4.5328593603e+01    0.2454796    0.2099834 -89.77  0.000359306    1.117    0.105
       239 -12.3644     50.3840    130.3619   6.4629371227e+01   4.3403408797e+01    0.2486054    0.2219175 -28.92  0.000579936    1.240    0.194
       240 -11.6841    130.1885    128.4990   3.8872828370e+01   2.9803589927e+01    0.2690129    0.2465577 -51.96 0.0005048296    1.118    0.106
       241 -11.9764    122.3008    128.2899   4.0967527299e+01   3.1478603770e+01    0.3067408     0.301083 -31.49  0.001334108    1.054    0.051
       242 -13.2970     57.1006    128.4504   6.1917476054e+01   4.3017549447e+01    0.4440972    0.2871877  33.93  0.002022407    1.513    0.339
       243 -11.7894     83.4693    127.2757   5.2603135797e+01   3.9187967596e+01    0.2941893    0.1486857 -53.01 0.0008801286    1.990    0.497
       244 -11.0715     64.8531    127.1422   5.8939633564e+01   4.2245922856e+01    0.2090689    0.1795573 -31.48 0.0004128936    1.293    0.226
       245 -11.5453     41.9548    124.9613   6.6793309507e+01   4.5867855619e+01    0.3634996    0.1995673 -59.92  0.001582254    1.720    0.419
       246 -11.9965     26.3926    125.4441   7.2574363708e+01   4.7345286066e+01    0.2741308    0.2321373 -28.27  0.000983772    1.320    0.242
       247 -12.7108      9.6858    125.9529   7.8682252730e+01   4.8523955309e+01    0.2454316    0.2041431  86.68  0.001337038    1.107    0.097
       248 -13.7444     77.8986    120.0690   5.2925051846e+01   4.1987469038e+01    0.6060964    0.4945439  10.34 0.0005945126    1.412    0.292
       249 -11.6172    169.9434    122.9417   2.8164173101e+01   2.2657501397e+01    0.2894375    0.1933898 -42.14 0.0006677983    1.453    0.312
       250 -10.8031    125.7499    123.9611   3.8995696412e+01   3.1756024803e+01    0.1943857    0.1349833 -47.31 0.0002597055    1.474    0.322
       251 -12.8630     10.6828    105.3903   7.6087710922e+01   5.3863087881e+01    0.6378945    0.3799934 -41.06  0.001798912    1.729    0.422
       252 -11.6237      2.2519    107.1192   7.9645326569e+01   5.3886823579e+01    0.2218464    0.1783653 -20.66 0.0008413604    1.384    0.277
       253 -13.2342      5.6789    111.8110   7.8781331681e+01   5.2481792830e+01    0.6569295     0.277283  38.36  0.002826292    2.401    0.584
       254 -14.1574     13.7748    119.9173   7.6573818096e+01   4.9834754253e+01    0.7326039    0.4672984  82.98  0.001923296    1.598    0.374
       255 -12.7034      7.6648    118.1837   7.8667716943e+01   5.0695146596e+01    0.3779932    0.2796985 -11.43  0.001141387    1.588    0.370
       256 -12.3845    192.7814    121.8733   2.3514905732e+01   1.8274056126e+01    0.3238041    0.1892456  47.53  0.000988591    1.838    0.456
       257 -10.3885    179.0081    121.9576   2.6109846055e+01   2.0992772286e+01    0.1704119    0.1592662 -39.70 0.0004233992    1.021    0.021
       258 -12.0652     63.8714    121.3692   5.8152825913e+01   4.3905243598e+01    0.3468046    0.1707511 -62.40 0.0009253364    2.056    0.514
       259 -11.8517     21.4893    120.9557   7.3816866810e+01   4.8966407056e+01    0.5038612    0.1418747 -58.15  0.001755558    2.932    0.659
       260 -10.9403    212.0641    121.5400   2.0204990863e+01   1.4715927935e+01    0.1801843    0.1319081  47.58 0.0003969618    1.534    0.348
       261 -11.6351    104.9151    121.2274   4.4371766531e+01   3.6669330741e+01    0.3950511    0.2088895  48.91   0.00113911    1.961    0.490
       262 -11.2244    100.4590    119.5173   4.5344797748e+01   3.7964457657e+01    0.2347853     0.145977  47.95 3.667226e-05    1.613    0.380
       263 -11.0758     29.7746    116.7726   7.0102113866e+01   4.9338901316e+01    0.1991601    0.1779062 -57.36 0.0003509132    1.094    0.086
       264 -12.3738    114.6906    114.2332   3.9729910098e+01   3.6313101599e+01     0.429706    0.3070765 -10.41   0.00174077    2.160    0.537
       265 -12.5958     82.7265    114.3150   4.9942790654e+01   4.2597179700e+01    0.4322379    0.2227714 -61.64  0.001622379    2.163    0.538
       266 -12.4754     73.3323    114.9816   5.3394502287e+01   4.4058093193e+01    0.2989026    0.2117956  58.44  0.001150562    1.589    0.371
       267 -11.2995    121.6658    113.9840   3.7672334552e+01   3.4885625881e+01    0.2178562     0.202138 -57.14 0.0004397726    1.103    0.094
       268 -13.2616     63.3363    111.9914   5.6381105651e+01   4.6425454282e+01    0.4935725    0.3403641 -60.10 0.0004997147    1.449    0.310
       269 -11.4902    165.9893    112.7601   2.6581664958e+01   2.5482149515e+01     0.196083    0.1247494  49.06 0.0008819746    1.609    0.379
       270 -10.6700    198.5349    111.4833   2.0203782220e+01   1.8993718174e+01      0.13742    0.1249362 -46.60 0.0001579387    1.018    0.017
       271 -11.3586    108.7612    107.7956   3.9844323990e+01   3.9051835340e+01    0.2286965    0.2150543   3.23 0.0003981326    1.160    0.138
       272 -12.0268    109.6348    103.7632   3.8513822373e+01   3.9791140871e+01    0.3160692    0.3001408  86.98 0.0003539002    1.082    0.075
       273 -11.1549    105.4797    102.4970   3.9446433392e+01   4.0966016240e+01    0.2773688     0.239491  36.33 0.0007251846    1.158    0.136
       274 -12.0217     76.8889    107.8783   5.0453614889e+01   4.5246799999e+01    0.2385593    0.2145583 -14.20 0.0005156469    1.230    0.187
       275 -10.4809    121.9630    107.0107   3.5793817336e+01   3.6383156728e+01     0.183094    0.1797743 -83.26 0.0009566459    1.030    0.029
       276 -11.5663     58.8280    114.0737   5.8512731057e+01   4.6555614232e+01    0.2635674    0.2137225  34.21 0.0005524928    1.229    0.186
       277 -12.5246     78.8694    102.1168   4.8295900414e+01   4.6321327217e+01    0.3483414    0.2509516  44.71  0.001599331    1.375    0.273
       278 -11.5942    154.1945    101.3077   2.6263191420e+01   3.0333903302e+01     0.303483    0.2393893 -62.35  0.001215699    1.355    0.262
       279 -12.3131     55.9354    101.4055   5.6857395542e+01   5.0247556527e+01    0.2735246    0.2234806 -52.27 0.0003801512    1.208    0.172
       280 -11.5301     57.4973     97.5078   5.5310368765e+01   5.1008507058e+01     0.324121    0.2584455  44.05 0.0006075355    1.277    0.217
       281 -11.4187    185.3895    101.2450   2.0091761399e+01   2.3485094589e+01    0.2343398    0.1922897  55.14 0.0003267292    1.288    0.224
       282 -12.5424      5.2267     99.4179   7.7612229811e+01   5.5732076312e+01    0.4119571     0.240221  55.64  0.001768492    1.914    0.478
       283 -12.1996      8.9731     97.3074   7.5774925502e+01   5.6070552201e+01    0.2960068    0.2399294  24.24 0.0008197117    1.338    0.252
       284 -11.1681     85.4838    100.5066   4.5518859798e+01   4.5479735932e+01    0.1554132    0.1520938  37.18 3.586075e-05    1.015    0.015
       285 -10.8526    208.5120     99.5104   1.5961605665e+01   1.9070543956e+01    0.1347719    0.1185475 -51.26 -1.314642e-05    1.027    0.026
       286 -11.5761    162.3994     99.2201   2.3977758519e+01   2.8887339925e+01    0.2121576    0.1343303 -52.04 0.0005673026    1.624    0.384
       287 -12.9939     93.6410     98.6054   4.2208490353e+01   4.4323362617e+01    0.5614293    0.2946271  42.85  0.001387267    1.845    0.458
       288 -11.9894    178.4821     96.6068   2.0208888293e+01   2.5801310975e+01    0.2890634    0.2228196 -61.59  0.001044185    1.347    0.257
       289 -13.4232     78.5728     92.7040   4.5884526287e+01   4.8649195384e+01    0.3729194    0.3517807  73.64  0.001641916    1.114    0.102
       290 -13.5321     75.0036     89.9683   4.6455346907e+01   4.9955557943e+01    0.4508426    0.3354222  26.06  0.001980744    1.414    0.293
       291 -11.3572     41.1712     91.6661   6.0770854113e+01   5.4683565901e+01    0.2278158    0.2030254  55.16 0.0004284345    1.202    0.168
       292 -12.0407     88.6948     89.6101   4.1364678887e+01   4.7403375040e+01    0.2399049     0.188879  -2.89 0.0006693407    1.655    0.396
       293 -10.8519     27.9898     90.4505   6.6327938535e+01   5.6402494458e+01    0.2058298    0.1385403  18.82  0.000604018    1.563    0.360
       294 -12.2511      3.5102     88.5337   7.7015103713e+01   5.8613329537e+01    0.3317081    0.2142861 -67.99  0.001262294    1.360    0.265
       295 -10.8430      2.2830     84.7143   7.7071139372e+01   5.9638838008e+01     0.185134    0.1629872 -43.50 0.0001717933    1.093    0.085
       296 -12.3805     64.0604     88.7826   5.0410742615e+01   5.2138737926e+01    0.2866732    0.2145198   7.09 0.0009100438    1.603    0.376
       297 -12.4730     54.8472     85.7753   5.3414258788e+01   5.4313668463e+01    0.5413546    0.4523671 -18.87  0.002815168    1.294    0.227
       298 -11.0206     52.6139     80.0192   5.2797513295e+01   5.6033376270e+01    0.2237812    0.1974575  48.21 0.0004292507    1.203    0.169
       299 -11.0137     56.2891     77.9932   5.0608514359e+01   5.5955881744e+01    0.2217336    0.1909488 -15.60 0.0004322166    1.223    0.182
       300 -10.7085     11.7970     86.7960   7.3014733249e+01   5.8601873569e+01      0.17998    0.1498251  63.32 0.0004362654    1.321    0.243
       301 -10.5260     36.5274     86.4480   6.1636599083e+01   5.6540323752e+01    0.1413393    0.1347997 -37.36 8.614145e-05    1.005    0.005
       302 -12.1009    134.5359     84.1086   2.6175583573e+01   3.8283336280e+01    0.2758261    0.2509862  51.29 0.0006564513    1.094    0.086
       303 -10.1229    236.7291     83.7147   8.9365741881e+00   1.6242261123e+01    0.1093134   0.09236121 -11.33 0.0001713802    1.501    0.334
       304 -12.0975    164.1567     82.8761   1.9398856075e+01   3.1500793544e+01    0.2368813    0.1936812 -74.19  0.000803029    1.282    0.220
       305 -12.5640     88.6948     79.2080   3.8229103958e+01   4.9717544149e+01    0.4278389    0.2762463 -41.16  0.001380927    1.643    0.391
       306 -11.4347      9.0147     77.8005   7.2851994456e+01   6.1037240342e+01    0.3440615    0.1674042 -70.22   0.00157672    1.879    0.468
       307 -11.5819    151.8503     81.1913   2.1417918241e+01   3.4706163204e+01     0.198192    0.1774025  27.66 0.0003289585    1.305    0.234
       308 -12.4145     65.9171     79.7624   4.7069493025e+01   5.3960024148e+01    0.2591838    0.2150154 -50.27 0.0004981661    1.228    0.186
       309 -11.4093      4.6401     79.9565   7.5301418981e+01   6.0727523958e+01    0.2200543    0.1944567  17.86 0.0005460568    1.245    0.197
       310 -11.7522    112.3856     78.4690   3.0414010371e+01   4.4622187379e+01    0.4528975    0.2985507 -89.05   0.00170123    2.615    0.618
       311 -11.8886     74.9527     76.5799   4.2480390618e+01   5.3038825686e+01    0.2801911    0.2249818 -58.95 0.0006223341    1.356    0.263
       312 -11.6970     70.8120     76.8801   4.4206101054e+01   5.3745265351e+01    0.2305329     0.204958 -10.71 0.0005720029    1.204    0.169
       313 -10.9903    184.0074     75.2928   1.3999995918e+01   2.8235846527e+01    0.1885992     0.171137  88.19  0.000255165    1.082    0.075
       314 -11.1104    115.7297     74.9782   2.8381686340e+01   4.4529531458e+01    0.2148601    0.2050024  68.20 0.0004783813    1.012    0.012
       315 -10.4533    129.7031     73.9652   2.4391982335e+01   4.1374858245e+01    0.1970172    0.1872861 -62.75 0.0002742487    1.078    0.072
       316 -11.2557    104.9089     73.1254   3.0966317099e+01   4.7416464531e+01     0.236597    0.2065997  82.14 0.0004886725    1.255    0.203
       317 -11.9300     61.6231     72.8173   4.6729375416e+01   5.6279749986e+01     0.202449    0.1426121 -63.72 0.0004092513    1.656    0.396
       318 -12.3033     70.4409     70.4558   4.2294290788e+01   5.5231044697e+01    0.4533635    0.3006289  -4.94  0.001048469    2.437    0.590
       319 -11.7056      2.6369     70.9411   7.4881805506e+01   6.3056517684e+01    0.4077381    0.2106258 -78.98  0.001940255    1.937    0.484
       320 -10.8015     10.4916     82.0099   7.2847964894e+01   5.9894884915e+01    0.1985608    0.1220417 -69.85  0.001000338    1.495    0.331
       321 -11.4663    162.9159     68.9108   1.5890272599e+01   3.4198618758e+01    0.2111762     0.193086  33.35            0    1.296    0.229
       322 -11.4548    154.1852     68.5169   1.7417805239e+01   3.6373195223e+01    0.2415518    0.1972305 -46.21 0.0002600827    1.230    0.187
       323 -12.1877     48.4561     67.9989   5.1117959525e+01   5.9445796413e+01    0.4385263    0.1551282  45.28  0.001404712    3.631    0.725
       324 -11.4241     60.2509     66.9864   4.5433395932e+01   5.7806067824e+01    0.1865831    0.1251127 -49.59 0.0003110553    1.531    0.347
       325 -11.1846      8.8407     67.1386   7.0988081616e+01   6.3671607566e+01    0.1922784    0.1777427  63.82 0.0005937949    1.237    0.192
       326 -10.2099    160.3194     65.2720   1.5361940323e+01   3.5423522655e+01    0.1396123    0.1126276  32.00 0.0002498899    1.566    0.362
       327 -11.5503    172.9366     62.2858   1.2413418323e+01   3.2876685520e+01    0.2254605    0.1896738 -54.48 0.0004357153    1.129    0.114
       328 -11.8829     12.1897     60.5668   6.7768890660e+01   6.5039367443e+01    0.3935689    0.2011773 -42.47  0.001700161    1.772    0.436
       329 -10.6857    123.5163     61.5435   2.2074680772e+01   4.5119847853e+01    0.1520566    0.1407052  72.60 8.921672e-05    1.016    0.015
       330 -11.5454    109.8320     60.1683   2.5253647108e+01   4.8695774339e+01     0.233437    0.2053355 -89.83  0.000668661    1.222    0.182
       331 -12.1676     41.8881     57.4071   5.0866032154e+01   6.2731691501e+01    0.4342802    0.2909296 -48.48   0.00141248    1.475    0.322
       332 -12.5152     35.7885     55.5728   5.3414464422e+01   6.3933796803e+01    0.5885248    0.3949372  -2.75  0.002909584    1.728    0.421
       333 -11.1289    153.8890     57.1436   1.4239375373e+01   3.8298613122e+01    0.2306879    0.1840927 -76.90 0.0006383178    1.269    0.212
       334 -12.3435     23.1955     55.5630   6.0297543378e+01   6.5318562282e+01    0.3449435    0.2563762 -16.11   0.00151664    1.345    0.257
       335 -11.0762    193.5172     56.4739   7.9954073392e+00   2.9001760315e+01    0.1330607    0.1201462 -70.01 -4.22411e-05    1.064    0.060
       336 -10.8663    179.5240     56.0219   9.7797607307e+00   3.2278977589e+01    0.1957155    0.1295968 -40.19 0.0003133946    1.471    0.320
       337 -12.2709    110.1932     56.1000   2.3772751952e+01   4.9317727742e+01    0.3586407    0.2076926  59.80  0.001524898    1.710    0.415
       338 -12.7913    115.6743     53.8036   2.1522552588e+01   4.8363253194e+01    0.3725028    0.2804376 -81.64 0.0003501633    1.626    0.385
       339 -12.3199    109.1462     51.9330   2.2623392158e+01   5.0273081535e+01    0.3887974    0.2115049  56.11 0.0003246036    1.715    0.417
       340 -10.8210    197.1306     54.1744   6.9867309838e+00   2.8527351719e+01    0.1882757    0.1352579 -69.90 0.0004269131    1.335    0.251
       341 -11.5323    120.2555     52.0047   1.9762642295e+01   4.7521027564e+01     0.201711    0.1920567 -83.60  0.000187492    1.071    0.066
       342 -12.7803    100.5094     50.1757   2.4472397944e+01   5.2647059383e+01    0.4769697    0.3087807 -80.03  0.001876199    2.675    0.626
       343 -11.4470    174.5115     51.4686   9.3120593920e+00   3.4134652250e+01    0.2776232    0.1430153 -60.11   0.00108158    2.227    0.551
       344 -10.7760    173.1577     48.6003   8.7449526830e+00   3.4872332747e+01    0.2330993    0.1487114  41.50  0.001094896    2.063    0.515
       345 -12.6874     30.5322     50.0985   5.4420523137e+01   6.5754809846e+01    0.3548963    0.2527221  38.51  0.001914448    1.526    0.345
       346 -10.6256    211.0057     48.0168   3.9861612312e+00   2.6373936074e+01    0.1539655    0.1267216 -61.58 0.0003307151    1.020    0.020
       347 -11.4943     19.3583     47.7880   6.0136488570e+01   6.7404911943e+01     0.243386    0.1438983 -47.47  0.001254874    1.527    0.345
       348 -11.2909     41.5044     46.8905   4.7246891342e+01   6.4990532957e+01    0.2748424    0.1499378  38.54 0.0008533502    1.840    0.457
       349 -12.2370     34.6625     40.4589   4.8463752828e+01   6.7227085682e+01    0.3187208    0.2214985   6.78 0.0009978696    1.518    0.341
       350 -11.3865     32.9969     36.9694   4.7987403692e+01   6.8129167130e+01    0.1597152    0.1408993 -13.22 0.0003072938    1.045    0.043
       351 -10.9234    119.1210     38.7077   1.5501879399e+01   4.9812806245e+01    0.2562181    0.1467442 -73.34 0.0009596814    2.846    0.649
       352 -10.7780    113.8602     38.8597   1.6791323375e+01   5.1117119456e+01    0.1945629    0.1626945 -83.26 0.0002911185    1.279    0.218
       353 -11.6152    102.8830     38.7202   1.9567812841e+01   5.3862673527e+01    0.2825614     0.181363 -64.24  0.001235655    2.139    0.533
       354 -10.9579     80.5958     36.8071   2.5743312738e+01   5.9403463362e+01    0.1942615    0.1335299 -48.23 0.0009481665    1.697    0.411
       355 -11.4713      9.5308     36.6625   6.2756143250e+01   7.0588677884e+01    0.2268287    0.1453398  17.72 0.0007526346    1.560    0.359
       356 -10.3232    145.6836     36.2552   9.4872656552e+00   4.3386863654e+01    0.1431463   0.09953223 -77.79 0.0003113884    1.532    0.347
       357 -12.6085    179.7626    246.1936   4.8631819252e+01  -8.1014478856e-01    0.4764631    0.2732941  -0.42  0.002587745    2.025    0.506
       358 -12.0917     31.1867     32.0352   4.6931412736e+01   6.9303600080e+01    0.3355348    0.2050033  37.53  0.001748045    1.682    0.405
       359 -11.2225     14.8411     33.1406   5.7920810473e+01   7.0900253623e+01    0.1756662    0.1634095   4.33  0.000345655    1.178    0.151
       360 -10.6802    106.4520     32.2030   1.6186040278e+01   5.3891236388e+01    0.1890793     0.131953 -48.94 0.0006539926    1.601    0.375
       361 -11.5981    114.6017    247.9920   6.2538991811e+01   7.4418541487e+00    0.3080777    0.1146828 -53.09  0.001390979    3.223    0.690
       362 -12.8453     76.0932     26.5696   2.2934324589e+01   6.1897146958e+01    0.3028227    0.2652075  86.09 0.0005678434    1.365    0.267
       363 -10.5109     19.4815     27.9779   5.2659765245e+01   7.1468687124e+01    0.1537203    0.1157828 -89.67  0.000807561    2.366    0.577
       364 -12.0806     85.4668     24.1955   1.8802029806e+01   6.0044566752e+01    0.3012408    0.2256761  71.84 0.0003998875    1.417    0.294
       365 -11.8507     89.7850     21.7461   1.6481649557e+01   5.9315237872e+01    0.2458905    0.2209047  25.52 0.0002990091    1.184    0.156
       366 -11.1455     53.0214     33.4977   3.5712517193e+01   6.5581454054e+01    0.2061156    0.1246198  38.32 0.0005406211    1.524    0.344
       367 -10.0581     66.3143     23.2658   2.5075363272e+01   6.4490957762e+01    0.1385552   0.09498221  26.86 0.0001740604    1.546    0.353
       368 -12.1036    116.5819     18.6748   8.9246176676e+00   5.2970514460e+01    0.2423844    0.2113693  76.35 0.0002941939    1.027    0.026
       369 -10.7785     92.4403     18.2330   1.4272458750e+01   5.9079857059e+01    0.1782723    0.1278066 -45.05 0.0005400557    1.600    0.375
       370 -11.3401     63.5236     17.7844   2.3530355618e+01   6.5804339252e+01    0.2306923    0.1649379  46.61 0.0003767562    1.223    0.182
       371 -11.1724     75.9409     14.9698   1.7686369545e+01   6.3376316996e+01    0.2060772    0.1613383 -75.86   0.00103905    1.694    0.410
       372 -13.2057     50.2707    245.6585   7.6724309324e+01   1.6040469098e+01    0.6179094    0.4082041 -33.22  0.003254678    2.447    0.591
       373 -11.7813     53.7214    248.5815   7.6152355481e+01   1.5082085008e+01    0.2313318    0.1595564  34.46 0.0009358756    1.193    0.162
       374 -11.2325    248.4702    248.0326   3.6738911442e+01  -8.5697197272e+00    0.1629679    0.1209059  17.51 0.0004374132    1.436    0.303
       375 -11.3772    214.8890    247.3391   4.2246060223e+01  -5.0692671527e+00    0.1619591    0.1301199 -11.58 0.0004060554    1.261    0.207
