#   1 NUMBER                 Running object number                                     
#   2 MAG_AUTO               Kron-like elliptical aperture magnitude                    [mag]
#   3 X_IMAGE                Object position along x                                    [pixel]
#   4 Y_IMAGE                Object position along y                                    [pixel]
#   5 X_WORLD                Barycenter position along world x axis                     [deg]
#   6 Y_WORLD                Barycenter position along world y axis                     [deg]
#   7 A_WORLD                Profile RMS along major axis (world units)                 [deg]
#   8 B_WORLD                Profile RMS along minor axis (world units)                 [deg]
#   9 THETA_WORLD            Position angle (CCW/world-x)                               [deg]
#  10 FWHM_WORLD             FWHM assuming a gaussian core                              [deg]
#  11 ELONGATION             A_IMAGE/B_IMAGE                                           
#  12 ELLIPTICITY            1 - B_IMAGE/A_IMAGE                                       
         1 -11.8614     90.3495     59.1819   1.0005714928e+02   5.3060095467e+01     1.187899    0.8884016 -69.01  0.005821539    1.960    0.490
         2 -10.4007     25.4037     56.0682   1.2278959703e+02   6.2518565853e+01     1.325595    0.8224028  -4.56  0.007488794    2.017    0.504
         3 -12.3825     60.4743     45.7251   1.0548357419e+02   6.0472708823e+01     1.056786    0.4572519 -41.87  0.004723838    2.093    0.522
         4 -11.9916    118.8315     58.1990   9.1425175575e+01   4.7397141126e+01     1.891495     1.227686 -63.05  0.007965376    2.319    0.569
         5 -12.2610    124.3025     27.7104   7.9158326997e+01   5.0595258085e+01     1.394506    0.8554999  30.94  0.006501887    1.822    0.451
         6 -12.8945    120.2962     39.0385   8.4261674904e+01   5.0045201163e+01     0.855491     0.620835 -77.38  0.002447963    2.089    0.521
         7 -11.5141    145.7648     47.2730   8.1302869838e+01   4.2784399549e+01     1.062097    0.4561653 -23.48  0.003740047    2.922    0.658
         8 -11.5854    182.5938     25.1565   6.8030207693e+01   3.6366612569e+01    0.6066151    0.3176724  50.70  0.002193958    1.921    0.480
         9 -12.2928    104.9687     12.9349   7.7953927117e+01   5.6673493768e+01    0.5208608    0.4315115 -17.66  0.002035417    1.252    0.202
        10 -10.9442    119.6270     17.7401   7.6465339424e+01   5.2829117691e+01    0.8903794    0.4600219  70.97    0.0037795    2.376    0.579
        11 -12.3332    130.4683     13.6687   7.2725696032e+01   5.0663291065e+01     1.435949    0.6672775  77.83  0.005355345    3.123    0.680
        12 -12.7438    112.9268     24.8050   8.0728002842e+01   5.3578508108e+01      1.27376    0.4362428  49.40  0.004838618    2.577    0.612
        13 -11.4862    178.1729     21.3937   6.7530538114e+01   3.7913057978e+01    0.6103964    0.3734296  25.25  0.001991049    2.344    0.573
        14 -10.5545     60.2838     25.2858   9.7202101778e+01   6.3810228709e+01    0.5622054     0.238777 -35.72  0.002517259    2.203    0.546
        15  99.0000      6.0356     16.4795   1.1812849685e+02   7.1440094958e+01    0.5613829    0.4544948 -26.68  0.004310159    1.125    0.111
        16 -11.4954     26.4051     27.7821   1.1268849962e+02   6.7792278087e+01    0.4716628     0.437603   9.10  0.002893447    1.353    0.261
        17 -11.7358     22.6174     11.2535   1.0717051077e+02   7.0822236050e+01     0.519061    0.3225416  -1.17  0.003156382    1.648    0.393
        18 -10.8830     16.7609     13.5173   1.1122476860e+02   7.1052754060e+01    0.3639349     0.174459 -38.40  0.001567011    1.673    0.402
        19 -10.9959     14.4931      9.4907   1.1050647738e+02   7.1881703960e+01    0.3388999    0.2349809  20.45  0.002162271    1.552    0.356
        20 -11.2490     19.8992     22.9842   1.1380678075e+02   6.9225499226e+01    0.5515729    0.2591215 -40.35  0.002405877    1.696    0.410
        21 -11.1808    154.5356     25.3541   7.2385878039e+01   4.3457055884e+01    0.7427915    0.4244745  47.41  0.003211257    1.707    0.414
        22  -9.6329    149.7722     14.8080   6.9704744111e+01   4.5790261762e+01    0.3141549    0.1988993  36.43  0.001342578    1.715    0.417
        23 -11.1328    140.4876     20.5294   7.3268014980e+01   4.7503275549e+01     1.279749    0.1526026  53.35  0.003465614    4.829    0.793
        24  -8.6839     87.3989      7.4720   8.0188142422e+01   6.0974583992e+01    0.6124601    0.3354946  54.98  0.003128108    1.770    0.435
        25 -11.5438     90.9136     20.0027   8.4635171382e+01   5.8906717241e+01    0.5890298    0.4038383 -19.31  0.002606319    1.454    0.312
        26 -11.5545     86.0731     14.3783   8.3620584462e+01   6.0530785855e+01    0.5749136    0.3363557 -10.62  0.001987953    1.866    0.464
        27  -9.6572     32.1699     12.2315   1.0300555516e+02   6.9603875128e+01    0.1909643    0.1701418  53.06 0.0005177895    1.867    0.464
        28 -10.9449     47.3089     18.8792   9.9473562714e+01   6.6674519521e+01    0.3771592    0.3161877 -16.97  0.002407754    1.133    0.117
        29 -11.9103     36.7693     19.3282   1.0426433312e+02   6.8005271663e+01    0.6321183    0.3571896 -38.37  0.003486283    1.606    0.378
        30 -12.1535     49.1656     12.9715   9.5882296972e+01   6.7206728910e+01    0.6030909     0.327197  44.51  0.002868975    2.090    0.521
        31 -11.0679     42.5568     14.1642   9.9256044967e+01   6.7994211295e+01    0.3343501    0.2115278  32.04  0.001561739    1.601    0.375
        32 -11.0758     77.2883      4.7798   8.1890060608e+01   6.3257828445e+01    0.5591058    0.3426602  -6.32  0.003063308    1.686    0.407
        33 -10.9497     71.5339      3.6479   8.3140523190e+01   6.4468165875e+01    0.4975897    0.3109246  -3.92  0.002637688    1.624    0.384
        34 -10.9696     66.2377     10.5224   8.8210069005e+01   6.4714973164e+01    0.4161262    0.2413725  38.35  0.002125199    1.599    0.375
        35 -10.3097     62.8665      6.5218   8.7457720074e+01   6.5748085364e+01    0.3608943    0.2085144  -9.44  0.001745169    1.791    0.442
        36 -11.9733     68.3841     17.5794   9.0758374688e+01   6.3495789613e+01    0.7540425    0.4139931  54.34  0.003725227    2.289    0.563
        37 -11.8841    240.5560      6.1979   5.7270377036e+01   2.4510641837e+01    0.4746149    0.4244964 -31.60  0.003219574    1.297    0.229
        38 -11.6030    245.8802      8.0797   5.7300771911e+01   2.3134522862e+01    0.4478277    0.3316992  -8.91  0.001800436    1.866    0.464
        39 -11.6026    243.9664     14.9082   5.8970816217e+01   2.2805711185e+01    0.3899652    0.3148389  26.61  0.001691551    1.770    0.435
        40 -12.2864    238.1919     15.6342   5.9604035768e+01   2.4013167785e+01    0.6274331    0.4656172  29.83  0.003559231    1.964    0.491
        41 -10.1225    206.6620     19.2991   6.3488056636e+01   3.1029026447e+01    0.4684151    0.2381394 -45.26  0.002186497    1.873    0.466
        42 -11.1776    165.3651     17.1809   6.8062209833e+01   4.1615324778e+01    0.3803768    0.2563477  37.00 0.0007005517    1.659    0.397
        43 -10.8097    205.6836      2.3969   5.9203622218e+01   3.3022521063e+01    0.4247429    0.2339403 -89.30  0.001424962    1.828    0.453
        44 -10.4583    186.3555     15.2991   6.4712937108e+01   3.6505962489e+01    0.3064105    0.2480324  37.71 0.0006403807    1.407    0.289
        45 -10.7808    199.8324      6.0230   6.0698494396e+01   3.4097424028e+01    0.4973333    0.2068609  76.12   0.00099582    2.312    0.568
        46 -11.5487    192.3185      7.6433   6.1903659390e+01   3.5793460274e+01    0.5463607     0.374709  15.60    0.0018752    2.068    0.516
        47 -10.1431    193.9808      1.4531   6.0057843870e+01   3.5970777575e+01    0.1938324    0.1170961  76.59 0.0004188485    1.504    0.335
        48 -11.5482    211.5016      9.8035   6.0551533710e+01   3.0877830953e+01    0.4674658    0.3429007  14.71  0.001674252    1.960    0.490
        49  -9.9080    157.5859     10.4438   6.7073076300e+01   4.4254504279e+01    0.4118473    0.1309837 -31.80  0.001552455    3.009    0.668
        50  -9.6063      4.1661     10.7794   1.1669010643e+02   7.2516430476e+01     0.288217    0.1742273 -26.48  0.001623405    1.331    0.249
        51 -10.7298    169.2223      9.8630   6.5278492908e+01   4.1374490066e+01    0.3699651    0.2157959  45.65  0.001783831    1.779    0.438
        52  -9.8641    157.9563      2.6930   6.4554148223e+01   4.4861577071e+01    0.4203368    0.2167892  55.68  0.001998681    1.716    0.417
        53 -10.5461    162.9243      5.5607   6.4790058326e+01   4.3362569678e+01    0.3830124    0.2463273  -3.62  0.001432423    1.978    0.494
        54  -9.3628    162.5656      1.4054   6.3549764914e+01   4.3815522988e+01    0.1829673    0.1091687  62.31 3.777302e-05    1.471    0.320
        55 -10.9545    105.8784     20.2866   8.0700629778e+01   5.5683421749e+01    0.3900966    0.2243369 -16.25  0.001000647    1.903    0.475
        56 -10.5442    151.3617      7.4703   6.7029964488e+01   4.6093032033e+01    0.4539472    0.2211843  63.97 0.0009972437    1.801    0.445
        57 -10.0898      1.3083      7.3053   1.1671871475e+02   7.3274789200e+01    0.1738278   0.07584125 -45.34 0.0002127626    1.790    0.441
        58  -9.0598    184.6548      7.2058   6.2621296897e+01   3.7746493868e+01    0.1703445    0.1286255  -9.62 0.0005377986    1.610    0.379
        59 -10.5618     42.6864      3.4103   9.3742673237e+01   6.9336166397e+01    0.4734799    0.2518086   4.37  0.002350279    2.457    0.593
        60 -10.8789    218.6202      3.2434   5.8293894526e+01   2.9847101214e+01    0.2922407    0.2629516  51.50 0.0009878438    1.314    0.239
        61 -11.6264    223.8488      1.9130   5.7552030950e+01   2.8754713414e+01    0.8011928    0.3743431 -79.43  0.003578222    2.427    0.588
        62  -8.7314     51.5910      6.7434   9.1799877373e+01   6.7597951766e+01    0.1281705   0.07673138  16.31 0.0006473707    1.731    0.422
        63 -10.7797    173.6841      4.3297   6.3063446969e+01   4.0766892362e+01    0.5920754    0.2354757  75.45  0.002363382    2.486    0.598
        64 -10.5132    142.0469      3.6979   6.7192662994e+01   4.8739134724e+01    0.4059198    0.2202658  64.61  0.001648476    1.629    0.386
        65 -12.1527    133.7594      2.6836   6.8181544211e+01   5.0856470231e+01    0.3873795    0.2521029  57.64 0.0007283484    1.341    0.254
        66  -9.7130    122.5378      1.3315   6.9658130726e+01   5.3665515928e+01    0.5346151     0.110491  65.13  0.001625275    4.338    0.769
        67 -10.9531    113.2968      1.9037   7.1666601842e+01   5.5785213942e+01    0.6362975    0.3000327  75.33  0.002360188    2.760    0.638
        68 -11.1267    105.9800      1.8898   7.3204279997e+01   5.7456735971e+01    0.7000877    0.2729248  67.19  0.002569486    2.862    0.651
        69 -11.4261     14.8829     21.6294   1.1571573984e+02   6.9890000251e+01    0.8897366    0.3896567 -56.19  0.004331833    2.750    0.636
        70 -10.9840      2.7805      1.8184   1.1322836508e+02   7.4017532776e+01     0.344504    0.1656452   9.50  0.002021608    2.364    0.577
        71 -10.5842     45.7733    120.7420   1.3007792498e+02   4.5999794099e+01    0.4031438    0.2617456  84.53  0.001484905    1.802    0.445
        72  -9.9259     18.7509    124.5360   1.3814387204e+02   4.7666914929e+01    0.2910271     0.129736 -63.07   0.00106406    1.765    0.434
        73  -9.8506      2.2266    125.4690   1.4261401604e+02   4.8644748966e+01    0.3328954    0.2128552 -61.36  0.002077065    1.359    0.264
        74  -9.9387      3.5257    121.4597   1.4185843711e+02   4.9472936155e+01    0.3533683    0.1740202  47.80  0.001958153    2.260    0.557
        75  -9.7068     84.1986    123.1728   1.1967145160e+02   4.0286775003e+01    0.5230088    0.2690443 -27.71  0.001561364    4.994    0.800
        76  -9.8235    239.6829    124.6748   8.5345875339e+01   7.9703091668e+00    0.1424074    0.1037687   4.20 0.0004342285    1.672    0.402
        77 -11.6405    104.9473    121.0043   1.1348432837e+02   3.7264161393e+01    0.5338541    0.4939749 -69.71  0.001989592    1.051    0.049
        78  -8.5835     40.6733    122.2470   1.3176856154e+02   4.6189915021e+01    0.1250577   0.08943424  70.22  0.000387662    1.539    0.350
        79  -9.4186    221.4253    120.5420   8.7391154341e+01   1.2390671570e+01    0.1441749    0.1324877 -23.52 6.925854e-05    1.009    0.009
        80  -9.2465     72.2187    119.8774   1.2236149314e+02   4.2862595193e+01    0.1949115    0.1568998 -36.14 0.0008728342    1.377    0.274
        81 -11.1387     34.8844    118.8133   1.3286347570e+02   4.7580507008e+01     1.806462    0.1945062 -53.60  0.005069428    5.561    0.820
        82 -12.3774     33.4051     94.1172   1.2895544146e+02   5.3479253659e+01     1.584367     1.002532 -30.03  0.008558352    1.895    0.472
        83 -12.0465      7.4806     88.6766   1.3640338641e+02   5.6688013814e+01     0.614498    0.5750148   7.42  0.001180077    1.358    0.264
        84 -12.0875     37.4523     86.1456   1.2593471700e+02   5.4910472628e+01     1.651403    0.4610173  30.30  0.005636819    3.890    0.743
        85 -11.3755     44.5818     85.4068   1.2335029830e+02   5.4339849130e+01    0.6225476    0.4315745  57.18  0.003385948    1.891    0.471
        86 -11.8466     18.8969    106.1590   1.3557259578e+02   5.1917883491e+01      0.31277    0.2288611 -49.81 0.0002759089    1.305    0.234
        87 -11.6294     28.4896    113.0174   1.3379863042e+02   4.9532580942e+01    0.5029335    0.3355933   9.65  0.002643913    2.080    0.519
        88 -12.6367     26.2210    106.9997   1.3351276319e+02   5.1133063251e+01     1.345069    0.6845757 -27.92  0.005977507    3.196    0.687
        89 -13.3314     18.7160     95.5750   1.3393642973e+02   5.4368298260e+01    0.3734732    0.3297459  14.24 0.0005082347    1.417    0.294
        90 -12.0470     18.2107     90.6395   1.3324411204e+02   5.5531647418e+01    0.4659419    0.2443528 -56.43 0.0006978643    1.494    0.331
        91  -9.5538     81.2073    117.9725   1.1939796016e+02   4.1972860609e+01    0.2169072    0.1763689 -37.81 0.0004667786    1.313    0.238
        92 -10.0595    113.9702    115.9541   1.0984327526e+02   3.6714607425e+01    0.2228085    0.2148273 -57.47 0.0003581697    1.007    0.007
        93  -9.9208     88.3902    114.7083   1.1662130315e+02   4.1588332290e+01    0.2811672    0.1921026  46.45 0.0005867652    1.564    0.360
        94 -10.6386     67.1082    111.9326   1.2218835141e+02   4.5449350853e+01    0.5387916    0.2950094 -66.28  0.002377829    1.857    0.461
        95 -11.7423      3.2775    105.0452   1.4002287656e+02   5.3228151612e+01    0.3484885     0.313713 -11.48   0.00118388    1.445    0.308
        96 -11.8218      2.6184    112.0952   1.4106319920e+02   5.1662923993e+01    0.4803573    0.3338218  59.96  0.002657508    1.583    0.368
        97 -10.4865      5.5239    108.5428   1.3981407488e+02   5.2294515255e+01     0.228573    0.1509943 -72.47 0.0007540872    1.170    0.146
        98  -9.1099    126.7333    114.0067   1.0599791034e+02   3.4591822987e+01     0.210619     0.194919 -44.85 0.0005062417    1.061    0.058
        99 -10.3322    108.0124    112.5472   1.1061145262e+02   3.8618398491e+01    0.4255273    0.3053911  89.26  0.001449913    2.011    0.503
       100 -10.6852    102.8213    108.3518   1.1099670118e+02   4.0530006361e+01    0.6152354    0.4117021 -28.24  0.002733939    1.879    0.468
       101  -9.7509     49.0081    112.1669   1.2760612866e+02   4.7663364068e+01    0.2302099    0.2188963  63.87  0.001103672    1.176    0.150
       102 -10.4791    170.4671    110.2409   9.4628929466e+01   2.5696449918e+01    0.4422635    0.3957879   8.04  0.001626173    1.227    0.185
       103  -9.6546    175.0118    107.4876   9.2937157844e+01   2.5177351546e+01     0.306772    0.2199452 -19.30 0.0009486083    1.661    0.398
       104  -9.4668     93.2677    111.2256   1.1441059053e+02   4.1573288947e+01    0.3031584    0.1771038 -73.22  0.001174063    2.550    0.608
       105 -11.1525     86.5701    105.1588   1.1487150947e+02   4.4087701586e+01    0.4629751    0.3617452  20.86  0.001193258    1.526    0.345
       106  -9.1048     82.1500    102.8381   1.1561064204e+02   4.5333018187e+01    0.2225118    0.1664591 -25.12  0.000473461    1.604    0.376
       107  -9.6774     83.0099    111.2273   1.1736477711e+02   4.3263910134e+01     0.253012    0.1825792  41.66  0.001288019    1.488    0.328
       108 -10.8270     78.8100    108.0540   1.1785836346e+02   4.4654208560e+01    0.4577599    0.3627881  22.32  0.001443554    1.489    0.328
       109 -10.1840    248.4856    108.5142   8.0296030479e+01   8.7910078373e+00    0.1380716    0.1218257 -24.65 2.869023e-05    1.045    0.043
       110  -9.9923    157.8833    105.5963   9.6184589337e+01   2.9515739627e+01    0.2778335    0.2238173 -45.90 0.0005978414    1.233    0.189
       111  -9.9796    143.6014    105.6579   9.9564203826e+01   3.2741648755e+01    0.3528933    0.2901595 -38.07   0.00142346    1.209    0.173
       112 -10.7942     48.2482    102.9535   1.2602881844e+02   4.9909533205e+01    0.3228575    0.2455215 -27.91 0.0003937875    1.538    0.350
       113  -9.9333     52.4367     96.7385   1.2337951467e+02   5.0866389407e+01    0.5234505    0.1677166 -52.31    0.0019069    2.549    0.608
       114  -9.8901     57.5293    102.2486   1.2299727853e+02   4.8970207081e+01    0.3121737    0.1565353 -62.67 0.0006912971    1.874    0.466
       115 -10.3166     57.6593     97.6396   1.2192293451e+02   5.0020240695e+01    0.3392519     0.247931 -70.14   0.00117611    1.376    0.273
       116  -8.8174    193.4450    101.4147   8.7657440466e+01   2.2004430325e+01    0.1505547    0.1430394 -59.43 0.0008007045    1.076    0.070
       117 -11.1082     67.5385     97.3135   1.1873251037e+02   4.8782170477e+01    0.6316471     0.376778 -50.99   0.00263919    1.488    0.328
       118 -10.0589     98.6260     62.3374   9.8587861088e+01   5.0898611725e+01    0.3136354    0.2449771 -13.64  0.001078332    1.383    0.277
       119  -9.2345    242.7277    248.9978   1.0885141548e+02  -9.7034377324e+00    0.1305734   0.08721843 -20.40 0.0007898295    1.534    0.348
       120 -11.2195     90.0103     89.0955   1.0959346555e+02   4.7093101578e+01    0.7308026    0.4110738 -30.40  0.002985577    2.261    0.558
       121 -10.2845     78.0177     97.0363   1.1540792826e+02   4.7301055799e+01    0.4684736    0.1923808 -56.88  0.001446739    2.457    0.593
       122 -11.5856     82.0117     93.1901   1.1317262679e+02   4.7533264579e+01    0.6052387    0.4309683  61.11  0.001268047    1.802    0.445
       123 -10.3320     93.8660     76.2719   1.0460154410e+02   4.9101684203e+01    0.6047984    0.4350207  29.29  0.002370346    1.531    0.347
       124 -11.9992     74.3060     50.3367   1.0220318856e+02   5.7486522759e+01     1.211931    0.6540776 -49.90  0.005515242    2.096    0.523
       125 -11.6781     85.3717     73.2510   1.0631654337e+02   5.1231486008e+01    0.6203393    0.5762925 -34.58  0.002519627    1.039    0.038
       126 -11.6128     78.7286     67.2389   1.0655649202e+02   5.3564236704e+01    0.6968805    0.5721817  61.73  0.003831526    1.565    0.361
       127 -11.4714     79.7435     82.6426   1.1095435763e+02   5.0207881243e+01    0.5996081    0.5121014  87.53  0.002517743    1.477    0.323
       128 -11.3701     66.4826     81.8350   1.1505253382e+02   5.2393797150e+01    0.4791677    0.3719662  19.97  0.002665182    1.474    0.321
       129 -11.7093     73.7151     77.5789   1.1143329261e+02   5.2239291133e+01    0.7002271    0.5249441  -3.56  0.003635764    1.663    0.399
       130  -9.7270    210.6707     98.1868   8.3726324875e+01   1.8587881100e+01    0.2492799    0.2105062  74.25 0.0008687935    1.337    0.252
       131  -9.0596    140.4471     96.4678   9.7795732694e+01   3.5330785585e+01    0.1534394    0.1495623 -19.70 0.0001207884    1.028    0.028
       132 -10.0842     42.7252     94.7472   1.2606639874e+02   5.2412126574e+01    0.2878098    0.2453913 -54.23  0.001091706    1.036    0.035
       133  -9.1010    138.4369     93.2820   9.7385282624e+01   3.6426311163e+01    0.3834537    0.2329342  16.80  0.001304023    3.184    0.686
       134 -10.3229    122.5490     88.9910   1.0023351279e+02   4.0784722576e+01    0.4197522    0.2396545  24.59  0.001512465    2.804    0.643
       135 -10.2477    122.4972     93.9936   1.0169780662e+02   3.9762826694e+01    0.2998731    0.2358792 -71.38 0.0009583738    1.553    0.356
       136 -10.2246    126.3554     93.1403   1.0043101563e+02   3.9117460781e+01    0.3340529    0.2771236  41.50 0.0007748193    1.238    0.192
       137  -9.5298    152.7404     92.5162   9.3739847217e+01   3.3289067637e+01    0.2958592    0.2163404 -39.59  0.000993209    1.349    0.258
       138  -9.9610    117.4113     93.0530   1.0280237467e+02   4.1020971962e+01    0.3407139    0.2181006  39.39  0.001257516    1.647    0.393
       139 -10.3914    101.6856     90.4127   1.0648666809e+02   4.4691086021e+01    0.4454778    0.3998593  54.13  0.001685111    1.205    0.170
       140  -9.7908    104.9759     88.0000   1.0483331956e+02   4.4573646931e+01    0.3350364    0.2030312  53.73  0.001447928    1.925    0.481
       141 -10.8787    113.2840     84.4932   1.0142999681e+02   4.3642432611e+01    0.7464091    0.3189112 -36.72  0.002540825    2.521    0.603
       142 -11.0204    108.2609     80.1519   1.0153139582e+02   4.5543228004e+01    0.5367146    0.4257793  86.03  0.002082137    1.746    0.427
       143  -9.7749    104.1655     75.8221   1.0136915041e+02   4.7226035311e+01    0.3232193     0.287627 -11.12  0.001295312    1.153    0.133
       144  -9.1851     67.5719     88.1808   1.1641117240e+02   5.0840189428e+01    0.2065488    0.1131651 -42.77 0.0009391539    1.724    0.420
       145  -9.1512    212.4465     87.0248   8.0570032598e+01   2.0056791295e+01    0.2173789    0.1385911 -33.62 8.508319e-05    1.499    0.333
       146 -11.0393    143.4196     83.5600   9.3320643239e+01   3.7189437052e+01    0.4301742     0.347268 -21.63  0.001443164    1.341    0.254
       147  -9.8782    120.1307     85.2678   9.9778808129e+01   4.2055603293e+01    0.4991273    0.1809134  46.75  0.001678731    2.837    0.648
       148 -10.2602    165.6458     83.1829   8.8202813284e+01   3.1961338554e+01    0.3642765    0.2916336 -47.42  0.001199712    1.257    0.204
       149 -10.0657    127.2751     83.5779   9.7369503036e+01   4.0847724415e+01    0.2765915    0.1932357  39.41  0.001268863    1.493    0.330
       150 -11.1200     58.2913     78.1204   1.1679013923e+02   5.4317058435e+01    0.4779008    0.3405893 -66.58  0.001199855    1.552    0.356
       151 -10.0015     53.6983     80.3669   1.1897478655e+02   5.4407647558e+01    0.2488785    0.1830993 -70.43 0.0009146712    1.511    0.338
       152 -11.5131     52.9314     76.1994   1.1811756970e+02   5.5411768539e+01    0.7145481    0.3320947 -52.41  0.003263816    1.853    0.460
       153  -9.9509    121.5631     79.2725   9.7565575419e+01   4.2939183338e+01    0.2573513    0.2425587  56.77  0.000625167    1.120    0.107
       154 -10.6495    246.1854     78.9893   7.3703950583e+01   1.3806329954e+01    0.2432154    0.1316734 -53.72  0.001083985    2.008    0.502
       155 -10.1430     52.1186     47.8302   1.0945480408e+02   6.1252925749e+01    0.3552339    0.2009467 -34.32  0.001526423    1.623    0.384
       156 -11.5083     32.5591     42.2995   1.1544145532e+02   6.4566872633e+01    0.8450354    0.4894804  41.29  0.004619478    2.290    0.563
       157 -10.6685     21.0642     46.8797   1.2185849371e+02   6.4729719473e+01    0.3018112    0.2123096 -50.74 0.0009116455    1.200    0.166
       158  -9.1344    175.6259    246.3078   1.2005653252e+02   5.3723789521e-01    0.1176975   0.08291419  59.57 0.0007031213    1.772    0.436
       159 -10.1683     13.8416     54.3022   1.2698835124e+02   6.3763481599e+01    0.2916568    0.2101178 -41.87 0.0002811072    1.132    0.117
       160 -11.8840     13.8204     74.4430   1.3166307769e+02   5.9462324979e+01    0.6907353     0.476182  -2.05  0.002972809    1.826    0.452
       161 -11.9821     49.0718     60.0145   1.1474810495e+02   5.9275017918e+01    0.7646058     0.606263  82.62  0.003848979    1.973    0.493
       162 -11.6242     40.3829     55.8361   1.1676553277e+02   6.1116088187e+01    0.5008699    0.4074617  82.35  0.001952466    1.870    0.465
       163 -12.0381      2.0986     70.9800   1.3520183248e+02   6.0906783873e+01    0.6606236    0.1560936 -63.70  0.002758479    2.802    0.643
       164 -11.5592     13.4806     66.3696   1.3006040106e+02   6.1241737043e+01      0.32296    0.2635983  77.10   0.00103132    1.550    0.355
       165 -12.3635      8.6912     62.1414   1.3093900817e+02   6.2446333921e+01    0.6746606    0.4959263 -47.89  0.004595845    1.095    0.087
       166 -11.8749     45.8850     48.9662   1.1230675077e+02   6.1826689994e+01    0.5409307    0.3548281 -38.62  0.001831259    1.300    0.231
       167 -11.5674     41.8260     45.4606   1.1270217887e+02   6.2967679533e+01      0.28676    0.2395081 -33.21   0.00103435    1.061    0.057
       168 -11.9348      9.9407     97.7505   1.3702600100e+02   5.4478862154e+01    0.8625928    0.5482627  57.82  0.005143157    1.900    0.474
       169  -9.4809      4.8901     78.1420   1.3550619365e+02   5.9187865813e+01    0.1731976    0.1368139 -78.72 0.0006944803    1.211    0.174
       170 -11.7244    186.4505     70.5064   8.0525127728e+01   2.9030001188e+01    0.8223543    0.6263252 -29.59  0.003490345    1.338    0.252
       171 -11.2034     32.2926     71.8244   1.2436105469e+02   5.8577533247e+01    0.4932371    0.2616104  28.32  0.002493212    2.195    0.544
       172 -10.3511     38.5234     73.5474   1.2253434228e+02   5.7600287000e+01    0.2169419    0.2008541 -29.31 0.0008578692    1.133    0.117
       173 -11.1587     40.9743     70.2053   1.2075816633e+02   5.8068581402e+01    0.3981411    0.2817166 -60.38  0.001686457    1.343    0.255
       174  -9.0884     46.3775     72.1621   1.1933225982e+02   5.7056706534e+01    0.1859705    0.1136623 -63.57  0.000586926    1.713    0.416
       175  -9.6159    161.8212     70.3419   8.5216298521e+01   3.5154298375e+01     0.297644    0.2344646  89.61  0.001412583    1.544    0.352
       176 -11.5349    122.4788     68.2181   9.3806716823e+01   4.4824595446e+01    0.6612283     0.371671  46.06  0.002687781    1.789    0.441
       177 -10.0960    172.1641     67.8554   8.2403081924e+01   3.3009576610e+01     0.364167    0.2760099 -62.65  0.001732006    1.496    0.332
       178 -11.4005    219.6921     66.2579   7.4116693782e+01   2.1649708665e+01    0.6107384    0.3556759  63.17  0.002288768    1.811    0.448
       179  -9.8425    208.1365     68.1507   7.6303613719e+01   2.4105418807e+01    0.3842129    0.1836189  47.61  0.001432444    2.300    0.565
       180  -8.8984    111.5576     67.2369   9.6464713064e+01   4.7364921866e+01    0.1465059     0.115478  81.83 0.0003860602    1.765    0.433
       181  -9.1363     69.5869     66.9706   1.0956452179e+02   5.5067602942e+01    0.1997549    0.1207693 -43.15 0.0003216235    1.491    0.329
       182 -10.9238     58.5289     62.1890   1.1194297070e+02   5.7620419758e+01    0.5864162     0.341284 -58.82  0.002335938    1.986    0.496
       183 -11.4778    127.4715    242.4061   1.2836086973e+02   8.6631918430e+00    0.3539252    0.2690764 -67.76  0.002374652    1.591    0.372
       184 -10.7594     60.7237     36.7074   1.0187050969e+02   6.1978542815e+01    0.3115504    0.1871601 -33.37 0.0009712919    1.512    0.339
       185  -9.9147     66.4897     72.7102   1.1241103318e+02   5.4344609563e+01    0.4170087    0.1813737 -39.82  0.001702254    2.272    0.560
       186 -10.0536     20.9366     65.0471   1.2692021322e+02   6.0995347178e+01    0.1836253    0.1470911 -46.06 0.0007732174    1.040    0.038
       187 -10.3869    204.5136     63.7342   7.5674409705e+01   2.5660297319e+01    0.2970083    0.2254944  33.17  0.001472412    1.587    0.370
       188  -9.3254    198.2913     62.6508   7.6346207865e+01   2.7347632070e+01     0.239629    0.1604887 -64.90 0.0008785219    1.765    0.433
       189  -9.5816    167.6434     63.1046   8.1862433563e+01   3.4908627573e+01    0.2368999    0.2020903  80.49  0.001150445    1.256    0.204
       190 -10.4241    159.4611     61.7527   8.3082812452e+01   3.7162892412e+01    0.4671552    0.2668267  42.15  0.001940088    1.889    0.471
       191  -9.4831    199.1804    244.4139   1.1558811133e+02  -2.8639182243e+00    0.1700814   0.09312169  45.42 0.0009511742    1.734    0.423
       192 -10.3237    150.1856    237.7922   1.2358440169e+02   5.8057077948e+00     0.166328        0.133  21.74  0.001081803    1.351    0.260
       193 -12.7507    117.4836     43.1814   8.6477714497e+01   5.0088486672e+01    0.9463336    0.6640524  78.05  0.004391451    2.028    0.507
       194  -9.4152     15.2665    233.4676   1.4755839575e+02   2.4942663180e+01    0.1744784    0.1044203 -74.14    0.0012405    1.657    0.396
       195  -9.4067    228.5998     59.2524   7.1151344234e+01   2.0612560889e+01     0.246556    0.1696052  84.07 0.0007102549    1.661    0.398
       196 -10.7385    136.5023     56.1516   8.6316203434e+01   4.3664136545e+01    0.6351128    0.4948316   2.10  0.003113211    1.529    0.346
       197 -10.3688    247.0130    231.0348   1.0527004917e+02  -8.3296791376e+00     0.143272    0.1097816   9.22 0.0007708883    1.020    0.020
       198 -10.2303    157.4722     56.5353   8.1863349810e+01   3.8484759714e+01    0.3079309     0.249062  43.90  0.000545314    1.247    0.198
       199 -10.9332    156.7734     53.5494   8.1063873485e+01   3.9118644773e+01    0.7630839    0.4421441 -50.94  0.003203031    1.983    0.496
       200  -9.8083      2.1288     56.1461   1.3217073180e+02   6.4072637546e+01    0.1952754    0.1442998 -49.09 0.0005394395    1.063    0.059
       201  -9.3875    188.1137     55.1420   7.5873024151e+01   3.1005572634e+01    0.2270899    0.1930893  39.49 0.0006758628    1.279    0.218
       202  -9.9219     67.1496     54.8770   1.0636327717e+02   5.7798422395e+01    0.2251779    0.2020035 -28.44 0.0006793151    1.067    0.063
       203  -8.8453    212.6882     54.3328   7.1986576966e+01   2.5070593878e+01    0.1527154    0.1005115 -63.00 0.0007044143    1.678    0.404
       204 -10.2718    249.4994     53.0229   6.7214454724e+01   1.6827817611e+01    0.2901034    0.2053923 -57.39  0.001044019    1.325    0.245
       205 -11.2293    240.1009     50.4163   6.7621727657e+01   1.9244779563e+01    0.4014234    0.3618827  68.22   0.00159975    1.212    0.175
       206 -10.7678    244.7759     50.5793   6.7148868747e+01   1.8187992783e+01    0.2998457    0.2273992 -61.26  0.001127497    1.244    0.196
       207  -9.4974    146.9236     60.5419   8.5372443905e+01   4.0442363686e+01    0.2265946    0.1460289  54.60 0.0006063665    1.536    0.349
       208  -8.5558     55.2743     51.2915   1.0947788979e+02   6.0184479555e+01     0.130017   0.09009975 -18.71 0.0004329999    1.518    0.341
       209 -10.5756    202.4107     47.1814   7.1492325851e+01   2.8586171442e+01    0.4624721    0.3004611 -20.26  0.002174896    1.785    0.440
       210  -9.5171      3.4175     48.8958   1.2991943850e+02   6.5502857465e+01    0.1691312    0.1496673  12.58  0.001284645    1.411    0.291
       211  -9.4782     90.9723     48.0575   9.5844405594e+01   5.4887957294e+01    0.2099305    0.1751509 -73.51  0.001122095    1.696    0.411
       212  -9.9711     14.0567     46.4331   1.2472017196e+02   6.5345777316e+01    0.2585714    0.1119379 -44.83  0.001358685    1.778    0.437
       213  -9.7451     17.8749     42.0548   1.2172286069e+02   6.5925949166e+01    0.2677164    0.1600811 -11.16  0.001547069    1.946    0.486
       214 -10.7522    173.9311     48.2074   7.6214199795e+01   3.5588139113e+01    0.4221074    0.3174126  70.14  0.001390717    1.346    0.257
       215 -10.6259    138.8971     44.0794   8.1709315494e+01   4.4926323045e+01    0.4558967    0.2205351  37.28  0.001711515    2.529    0.605
       216 -10.0556    141.4164     40.2914   7.9880674318e+01   4.4843470228e+01    0.3186434    0.1489652 -48.32  0.001184783    2.659    0.624
       217 -10.2989    139.4617     31.5624   7.7292767184e+01   4.6468309518e+01    0.6470259    0.3447276  -4.22  0.002422571    3.054    0.673
       218  -9.7472    133.6185     37.1629   8.0480672354e+01   4.7163945162e+01    0.3979771    0.2808976 -71.05  0.001846551    1.984    0.496
       219 -10.3129    105.3622     62.0005   9.6475986818e+01   4.9608788924e+01     0.425925    0.3264715 -80.99  0.002016115    1.992    0.498
       220 -10.1694    101.0062     44.0020   9.1289733658e+01   5.3536314802e+01    0.3616875    0.2851815 -77.39  0.001826823    1.916    0.478
       221 -11.3326     93.7955     41.4007   9.2446370498e+01   5.5403266616e+01    0.6335338    0.3030813  44.05  0.002552258    2.067    0.516
       222 -11.4176    156.1018     41.8359   7.7455523507e+01   4.0982909940e+01     0.390633    0.3813763 -61.50 0.0008818421    1.052    0.049
       223 -10.5014    153.2538     36.1979   7.6162851986e+01   4.2451271750e+01    0.3054049     0.272229 -41.49 0.0005718754    1.165    0.142
       224  -9.7345      4.5010     43.9064   1.2814615699e+02   6.6450027231e+01    0.3827237    0.2034257 -23.38  0.001288757    2.029    0.507
       225 -11.0950      4.3010     36.2476   1.2602781956e+02   6.7963450032e+01    0.3645503     0.233458 -40.20  0.001225265    1.203    0.169
       226  -8.2667      6.7502     30.8165   1.2313476349e+02   6.8843586883e+01    0.3653697    0.1642143  17.76  0.002035638    2.580    0.612
       227  -9.6837    176.6569     43.1388   7.4235491197e+01   3.5605436239e+01    0.2532316    0.1982137  82.83   0.00073327    1.342    0.255
       228 -10.8048     27.8027     47.1751   1.1910151565e+02   6.4091223606e+01    0.4256043    0.2263056  -8.46   0.00202337    2.802    0.643
       229 -11.2155     69.8013     32.6533   9.6854567880e+01   6.1161246022e+01    0.4879529    0.2983146  35.50 0.0008473223    1.645    0.392
       230 -11.0991     81.6300     39.4293   9.5540291401e+01   5.8034470125e+01    0.4855724    0.3199302  46.70  0.002229756    1.627    0.385
       231 -10.6785     77.7929     34.1345   9.4690719445e+01   5.9543120105e+01    0.3943172    0.2961762  34.28  0.001104289    1.314    0.239
       232 -11.5288     82.4972     31.7369   9.2146471773e+01   5.9028119259e+01    0.4023401    0.3779489  49.49  0.002004021    1.286    0.223
       233 -10.4795    231.5100     39.2365   6.5857044308e+01   2.2684742496e+01    0.3323222    0.2069195 -44.76  0.001610508    1.445    0.308
       234  -9.6272    218.5358     38.8006   6.7207510661e+01   2.5788469709e+01    0.2486129     0.189329  71.92 0.0008114003    1.310    0.237
       235 -10.5318    176.8985     36.9613   7.2349929299e+01   3.6365457825e+01    0.3475113    0.3051591 -12.48  0.001337476    1.269    0.212
       236 -10.3256    172.2885     33.2871   7.1966908559e+01   3.8004214451e+01    0.4079954    0.3099636  70.25  0.001334335    1.276    0.216
       237 -10.1752    175.8526     29.6718   7.0327214892e+01   3.7542691039e+01    0.3406291     0.280391  33.54  0.001147184    1.359    0.264
       238  -9.1466     23.4460    231.5302   1.4608892591e+02   2.4449081314e+01    0.1086984   0.07631277  70.83 0.0001736292    1.022    0.021
       239 -10.8028     22.0712     36.2627   1.1789795532e+02   6.6680154924e+01    0.4113999    0.2437675  41.53  0.002339709    2.383    0.580
       240  -9.9636    206.7428     36.9311   6.8150708635e+01   2.8887994689e+01    0.2624735    0.2019632  83.54 0.0009500299    1.295    0.228
       241  -9.3762    161.8054     43.4381   7.6902126768e+01   3.9325690108e+01    0.3815917    0.1853558  65.28  0.001509006    2.143    0.533
       242  -9.0470    190.1441    229.8214   1.1503275983e+02   5.0409386676e-01    0.1683373     0.125149  17.65 0.0004856224    1.307    0.235
       243  -9.4047      9.1292    227.1857   1.4826735059e+02   2.6696303913e+01    0.1434998    0.1138396  77.73 0.0002887841    1.201    0.168
       244  -9.2830    234.6835    222.6700   1.0594065306e+02  -5.5457345451e+00    0.1254672   0.07808102   8.20 0.0002885643    1.682    0.405
       245 -11.4998    105.7632     32.8085   8.5673748567e+01   5.4152687042e+01    0.6088895    0.3550506  11.48  0.001487904    2.605    0.616
       246  -9.7900      9.9718    217.5185   1.4763869746e+02   2.8424497303e+01    0.1640728    0.1097948  84.63  0.000568705    1.155    0.134
       247 -10.1842    190.1500     32.7104   6.9167033089e+01   3.3551341902e+01    0.3450771     0.285528 -74.45  0.001390046    1.208    0.173
       248  -9.8452    189.4410     27.5362   6.7794498528e+01   3.4359067250e+01    0.3801364    0.2846258  12.42  0.001490062    1.778    0.438
       249  -9.9430    160.4091     33.2404   7.3918397791e+01   4.1025060628e+01    0.3488091    0.2797982 -50.47  0.001192505    1.312    0.238
       250 -10.1477    159.9910     28.9985   7.2636214113e+01   4.1651160718e+01    0.2723783    0.2412609  63.95 0.0005458585    1.067    0.063
       251 -11.2488    164.2376     27.4853   7.1457317672e+01   4.0754628719e+01    0.4494377    0.3443724 -77.78  0.001771791    1.455    0.313
       252 -11.1651    241.0109     31.0564   6.2940385026e+01   2.1560925429e+01    0.4515756    0.3088166 -22.24  0.002286453    1.666    0.400
       253  -9.7036    165.9765    212.7063   1.1695698680e+02   7.1701867193e+00    0.2063103    0.1367359  87.65 0.0006483943    3.318    0.699
       254  -9.9519    152.8591    207.7644   1.1878842445e+02   1.0289673196e+01    0.2355426    0.1723438  88.11  0.001153474    2.024    0.506
       255 -10.9477     56.6317     30.8155   1.0100640036e+02   6.3538610481e+01    0.3821873    0.2439621  34.45  0.001436319    1.625    0.385
       256 -11.9064     47.8125     30.5182   1.0442656009e+02   6.4835653675e+01    0.6959037    0.2922964  31.17   0.00320609    2.620    0.618
       257  -9.6262     36.0965     31.7543   1.0992785750e+02   6.6082032141e+01    0.2028102    0.1634812 -56.14  0.001251004    1.599    0.375
       258  -9.3652    210.7611     30.1458   6.5872614661e+01   2.8757187281e+01    0.2401241    0.1596106 -38.58  0.000802861    1.442    0.306
       259 -10.8684    198.0681     28.8415   6.7048980881e+01   3.2042346616e+01     0.409265    0.2968392  52.92  0.001533611    1.427    0.299
       260 -10.1323    199.7032     24.9608   6.5789446227e+01   3.2096535219e+01    0.2615107    0.2299261  58.65 0.0005734384    1.185    0.156
       261 -10.2088      4.4972    204.6148   1.4792414399e+02   3.1433151498e+01    0.2508218   0.08014573 -75.46  0.001284135    2.563    0.610
       262  -8.6979      1.2762    199.6591   1.4824375543e+02   3.2699372256e+01    0.1148969   0.05767526  69.84 0.0007001334    1.618    0.382
       263  -9.5770    139.4851    198.5176   1.2008161042e+02   1.4311274427e+01    0.1346801    0.1197319  52.38   1.6616e-05    1.026    0.026
       264 -10.1515    233.6082    197.0874   1.0156484400e+02  -2.0160319513e+00    0.2018318    0.1660653  34.30 0.0006464235    1.275    0.216
       265 -12.3689      5.2652    185.3064   1.4666852231e+02   3.5276934892e+01    0.7467992    0.4187634  79.81  0.004012361    1.447    0.309
       266  -9.3187     16.7667    192.2407   1.4487926062e+02   3.2794725478e+01    0.1423148    0.1153116 -75.36 0.0006823419    1.322    0.243
       267  -9.8789    230.4851     26.9420   6.2971636347e+01   2.4459298471e+01    0.2636944    0.1094673 -36.15  0.001154265    2.133    0.531
       268 -10.1910    169.8931    191.1767   1.1255597609e+02   1.0157456294e+01    0.3735516    0.1676299  31.56  0.001183447    2.682    0.627
       269 -10.0226    157.5290     20.5850   7.0340839988e+01   4.3235137583e+01    0.5031368     0.229085  66.78  0.002083669    2.092    0.522
       270 -10.3225    250.5432     25.0302   6.0711507514e+01   2.0192934134e+01    0.2650197   0.09689485 -37.01 0.0007435631    2.261    0.558
       271 -10.0275    144.1407     24.9705   7.4115909430e+01   4.6102715013e+01    0.4538096    0.3552397  74.60  0.002434833    1.315    0.240
       272  -9.4669    145.6738     16.5377   7.0971736358e+01   4.6638204402e+01    0.2931759    0.2001316  66.35 0.0006820908    1.379    0.275
       273  -8.9495    237.3956    188.2084   9.9220186385e+01  -1.3906049827e+00    0.1714876     0.112938 -39.51 0.0009441198    1.667    0.400
       274 -10.1265    133.8092     24.5780   7.5989557029e+01   4.8687322123e+01    0.4515224    0.2709993 -65.96  0.001882665    2.621    0.619
       275  -9.2513     28.6450    176.3033   1.4121233772e+02   3.5011509520e+01    0.1285096   0.07109259  67.22  0.000703965    1.711    0.415
       276 -11.1551    214.7314     23.4725   6.3708320650e+01   2.8592885706e+01    0.4137475    0.3568754 -12.95  0.001868598    1.385    0.278
       277  -9.6010     52.3090    173.6699   1.3575309486e+02   3.2954176720e+01    0.1341119   0.08154584  71.79  0.000704069    1.665    0.399
       278  -9.9112     80.7404     19.3740   8.7443460426e+01   6.1001044449e+01     0.298748    0.1964444  42.34  0.001509789    1.444    0.307
       279  -9.8572     39.5835    173.2367   1.3854324776e+02   3.4526577194e+01    0.1721601   0.09672534 -63.80 0.0008230885    1.649    0.394
       280 -10.3849     35.0515    170.3867   1.3926169932e+02   3.5649160843e+01    0.2465627    0.1559313 -85.55  0.001458995    1.366    0.268
       281 -10.1106    241.8083     22.6337   6.0911644324e+01   2.2397887983e+01    0.2075136    0.1688196 -29.11 0.0007165146    1.334    0.250
       282  -9.2777     44.4594     23.5113   1.0279371390e+02   6.6384890437e+01    0.1223951    0.1016778 -14.39 -1.148721e-05    1.058    0.055
       283 -11.8284      9.4554    166.6186   1.4452162401e+02   3.8903924594e+01    0.5234585    0.3149731 -75.62  0.002865817    1.353    0.261
       284 -11.4733     13.6724    157.6885   1.4286598730e+02   4.0517759554e+01    0.5158817    0.1799942 -74.81  0.001237418    2.317    0.568
       285  -9.5163    198.1318    167.8188   1.0235712492e+02   8.9099751975e+00    0.1980813    0.1949316  11.47 0.0006130026    1.134    0.118
       286  -9.4048    149.1974    168.4093   1.1272012577e+02   1.8407206547e+01    0.2111088    0.1292878  52.55 0.0009508375    1.687    0.407
       287 -10.2817     28.4346    163.3326   1.4005007541e+02   3.7901873789e+01    0.4305244    0.1641875 -76.24  0.001970655    2.340    0.573
       288  -9.6832    223.4834     22.4583   6.2562050117e+01   2.6625323465e+01    0.2367621    0.1807502  81.47 0.0006499818    1.257    0.204
       289 -10.0709    220.8976     19.0493   6.1971112374e+01   2.7627751786e+01    0.2350255    0.2048282 -70.38 0.0004693746    1.010    0.010
       290 -10.0527     18.7025    165.4071   1.4241504443e+02   3.8362813366e+01    0.2435306     0.184048 -88.72  0.001665823    1.041    0.039
       291 -10.3475    205.5458    162.9293   9.9897872663e+01   8.3130128921e+00    0.3771293    0.2645812   3.07  0.001408432    1.784    0.439
       292  -9.5977    188.9046    164.0687   1.0340997067e+02   1.1388823152e+01    0.2302244    0.1705161   3.54  0.001011406    1.666    0.400
       293 -10.1711    246.5875    160.0172   9.1982684203e+01   1.1669163790e+00    0.3738623    0.1149823 -25.57 0.0009585358    6.450    0.845
       294 -10.4999     66.1778     21.8797   9.3495093317e+01   6.3318230978e+01    0.2326062    0.1915236  15.31 0.0003893281    1.099    0.090
       295 -10.0585     80.6898    160.1258   1.2729589219e+02   3.2196404136e+01     0.320039    0.2635908  31.02  0.001846337    1.416    0.294
       296 -11.3310    246.2262     20.4288   6.0034776218e+01   2.1677113909e+01     0.328124    0.2053783 -29.38  0.001007801    1.633    0.388
       297 -10.4579    104.7009    153.8782   1.2036529109e+02   2.9772683348e+01    0.3373424    0.2866357 -65.21  0.001875973    1.149    0.130
       298 -10.3464     31.2648    153.7476   1.3839757955e+02   3.9792055436e+01    0.3745506    0.2349516  73.40  0.002146938    1.567    0.362
       299 -10.7712     30.6088    149.0742   1.3803397237e+02   4.0928482148e+01    0.3133164     0.206173  64.87 0.0007933978    1.508    0.337
       300 -11.5936     13.1388    139.4131   1.4127280079e+02   4.4686672434e+01    0.7270197    0.3309748  79.10  0.003389886    2.585    0.613
       301 -10.6127    234.0409     16.3086   6.0111166744e+01   2.4878765677e+01    0.2473549    0.2065894 -75.44  0.000402079    1.057    0.054
       302 -10.3109     14.0657    133.0592   1.4037061061e+02   4.6068916355e+01    0.3136276     0.199773 -89.67 0.0008714331    1.377    0.274
       303  -9.2647      1.7486     20.4446   1.2193692841e+02   7.1034716214e+01    0.1471186   0.08866847 -11.25  0.000951205    1.697    0.411
       304 -10.8692     10.6218    127.2504   1.4062121234e+02   4.7662148377e+01    0.6565202    0.1506482 -60.63  0.002336521    3.008    0.668
       305  -9.6083    170.9216     17.6251   6.7404505863e+01   4.0160202288e+01    0.1914616    0.1545786  76.78  0.000364447    1.167    0.143
       306  -9.7475    225.4774     17.1217   6.1066097537e+01   2.6766668246e+01    0.2331405     0.161678 -73.16  0.001296804    1.381    0.276
       307  -9.7149    191.6779     16.7587   6.4488046439e+01   3.5016664490e+01    0.2338573    0.2082723  33.39  0.001392629    1.300    0.231
       308 -12.1646     22.7008    149.5173   1.3999001754e+02   4.1571095193e+01    0.6542269     0.372675 -49.03  0.003625208    2.006    0.501
       309 -10.8813     16.1795    148.1672   1.4140870611e+02   4.2447151645e+01    0.3513144    0.2157289  46.55  0.001369055    1.694    0.410
       310 -11.9792      5.0140    148.1279   1.4402365270e+02   4.3340106648e+01    0.6302208    0.3499907 -63.12  0.002926432    1.586    0.369
       311 -11.0630      2.4989    141.6301   1.4405681155e+02   4.4976455866e+01    0.3347142    0.2678539 -76.26  0.002312116    1.134    0.118
       312 -11.4402      3.9209    136.5694   1.4326041541e+02   4.6016324341e+01    0.2352469    0.1912508 -81.35 0.0004888461    1.085    0.078
       313  -9.8203    219.0978     12.8485   6.0606212974e+01   2.8739626578e+01    0.3585277    0.1215354  59.19  0.001440356    2.792    0.642
       314  -9.8869     71.9829    151.7820   1.2814129093e+02   3.5380013202e+01    0.3872547    0.1562336  44.38   0.00160677    2.478    0.596
       315 -10.9452     62.4645    149.8036   1.3022724807e+02   3.7130201860e+01    0.4592045    0.3635372  70.05  0.001965323    1.236    0.191
       316  -9.2489     94.7174     12.4210   8.0350085737e+01   5.8952592083e+01    0.1772537    0.1090033  43.04 0.0005800005    1.461    0.316
       317  -9.4152     42.1807    148.5624   1.3512813152e+02   3.9849332551e+01     0.223816    0.2018822  37.02  0.001413605    1.341    0.254
       318  -9.7862     47.6398    151.5683   1.3416616419e+02   3.8539030574e+01    0.4184376     0.193682  40.01  0.001508887    2.200    0.545
       319 -10.8184     46.5910    146.5802   1.3376559409e+02   3.9819660000e+01    0.5512419    0.2614155 -71.35  0.001589208    1.905    0.475
       320 -10.0819      8.8857    155.7455   1.4377928860e+02   4.1344021021e+01    0.2077764    0.1295475 -69.93  0.001314359    1.357    0.263
       321  -9.9932     56.3836    149.3622   1.3169034413e+02   3.8006942284e+01    0.2513801    0.1460267 -70.95  0.000791455    1.563    0.360
       322 -10.4336    249.5587    141.6764   8.7582944461e+01   3.4215214923e+00    0.3313065    0.1605676 -30.67  0.001498798    1.894    0.472
       323  -8.8432     74.4483    145.4777   1.2649553919e+02   3.6502508373e+01    0.1372611    0.1223974 -82.38 0.0004428903    1.006    0.006
       324 -10.7057     33.1942    144.3701   1.3684401327e+02   4.1760122024e+01    0.2626632    0.2115347  85.00 0.0007575934    1.100    0.091
       325  -9.9097    133.3501    140.5749   1.1064780751e+02   2.7410648122e+01    0.3160873    0.2548569 -21.83  0.001124791    1.507    0.337
       326 -11.8928     29.8653    132.9467   1.3625993980e+02   4.4741758883e+01    0.6163085    0.3284032 -83.09 0.0004961784    1.819    0.450
       327  -9.5232     26.3266    140.3070   1.3808215617e+02   4.3357877309e+01    0.1842542    0.1373933 -39.52 0.0006554329    1.680    0.405
       328 -11.8457     22.7896    135.5657   1.3842318405e+02   4.4771753551e+01    0.6646706    0.4230612  55.26  0.003946848    1.654    0.395
       329  -9.0094     54.1581    139.5910   1.3081829523e+02   4.0572605274e+01    0.1599467    0.1314538  14.58 0.0008741115    1.603    0.376
       330 -10.5942     82.2385    134.7066   1.2252501779e+02   3.7879134568e+01     0.469173    0.3155783   3.65  0.001788186    2.672    0.626
       331 -10.4849     47.5082    134.8248   1.3185057874e+02   4.2476195686e+01    0.3658937    0.1835677 -56.94  0.001200384    1.762    0.433
       332 -10.7444     71.4773    134.0812   1.2529629014e+02   3.9609036839e+01    0.5652246    0.3966767   1.54  0.002695502    2.347    0.574
       333  -9.6003     62.5464    131.6451   1.2728211937e+02   4.1397568188e+01    0.3900367    0.0933807 -55.96  0.001296623    3.380    0.704
       334 -10.8424     92.8633    129.2838   1.1858469666e+02   3.7453357006e+01    0.4161466    0.3000583 -71.11  0.001484139    1.455    0.313
       335  -9.8101     78.8264    128.3251   1.2221019535e+02   3.9900175756e+01    0.2678894    0.1815109 -53.38 0.0005605182    1.380    0.276
       336 -11.0073     55.9154    123.2709   1.2764329405e+02   4.4222074916e+01    0.6316471    0.3713071  26.87  0.002661336    2.079    0.519
