#   1 NUMBER                 Running object number                                     
#   2 MAG_AUTO               Kron-like elliptical aperture magnitude                    [mag]
#   3 X_IMAGE                Object position along x                                    [pixel]
#   4 Y_IMAGE                Object position along y                                    [pixel]
#   5 X_WORLD                Barycenter position along world x axis                     [deg]
#   6 Y_WORLD                Barycenter position along world y axis                     [deg]
#   7 A_WORLD                Profile RMS along major axis (world units)                 [deg]
#   8 B_WORLD                Profile RMS along minor axis (world units)                 [deg]
#   9 THETA_WORLD            Position angle (CCW/world-x)                               [deg]
#  10 FWHM_WORLD             FWHM assuming a gaussian core                              [deg]
#  11 ELONGATION             A_IMAGE/B_IMAGE                                           
#  12 ELLIPTICITY            1 - B_IMAGE/A_IMAGE                                       
         1 -11.7325     74.2559     47.7567   7.9809120922e+01   5.9100812153e+01     2.009115    0.8635378 -39.76  0.007679618    2.246    0.555
         2 -11.1575    139.2394      4.7021   4.4653613620e+01   4.9639997960e+01    0.6785968    0.5489744  73.50  0.001481361    1.214    0.176
         3 -12.0528    128.8006     20.7195   5.2826557131e+01   5.0710459878e+01     1.324007    0.9603604  17.89  0.003141715    1.652    0.395
         4  -9.9285      6.3036     57.3946   1.1390709516e+02   6.5287853089e+01      1.45236    0.6549987 -89.58  0.006260577    2.522    0.603
         5 -12.5837    115.5149     16.0408   5.3407778542e+01   5.4688006112e+01     1.858538     1.215543  18.17   0.00838645    1.911    0.477
         6 -11.2239    100.1272     41.1558   6.8341086993e+01   5.4856727400e+01     1.510193    0.9242752  42.46  0.006691049    1.750    0.429
         7 -12.4137     55.3182     66.6160   9.4148620370e+01   5.8087216120e+01      1.33596    0.8669294 -60.75  0.003639282    1.442    0.307
         8 -11.4920     50.8470     25.0824   7.9153098916e+01   6.7688002314e+01    0.9165822    0.5201047 -23.42  0.004057388    2.176    0.540
         9 -13.8182     70.1086     30.8902   7.3801368930e+01   6.3103208039e+01     3.113016     2.401731 -83.75   0.01397836    1.959    0.490
        10 -11.3931     99.9627      5.7772   5.1837858451e+01   5.9719499826e+01    0.4388397    0.3132224  22.23  0.000441766    1.525    0.344
        11 -12.7667     87.7362     54.8575   7.7834928033e+01   5.4992086911e+01      1.65028     1.035787 -37.07  0.007441316    1.554    0.357
        12 -10.7097    117.6864     47.0205   6.5927502156e+01   4.9703434619e+01     1.125561    0.4709532 -26.78  0.003743954    2.892    0.654
        13 -11.5416     90.6105     24.4480   6.3579218746e+01   5.9708118013e+01     2.107745    0.6897013 -27.57   0.00684874    3.290    0.696
        14 -10.3734     31.6715     11.9437   8.1877539649e+01   7.3033492241e+01    0.2915035    0.1938074 -31.48 0.0007885669    1.345    0.257
        15 -10.8193     27.5083     18.0898   8.8121057874e+01   7.2458079304e+01    0.5648099    0.2802602 -26.58  0.001293772    2.724    0.633
        16 -11.2311     17.6236     37.7313   1.0283275416e+02   6.9258238023e+01    0.7979496    0.6270154  57.69  0.004801784    1.594    0.372
        17 -11.8494     25.1106      6.9288   8.2776511437e+01   7.4816076484e+01    0.8578039    0.3613677 -42.02  0.003530778    2.083    0.520
        18 -12.2794     29.1085     24.8592   9.0706719086e+01   7.0909787856e+01     1.392371    0.8966879 -15.40  0.007118674    1.961    0.490
        19 -11.1711      7.4204     19.5918   1.0244594881e+02   7.4134626099e+01    0.5701938    0.3868968  18.72  0.003466388    1.712    0.416
        20 -11.2545     17.9645     13.8392   9.2053981687e+01   7.4396937027e+01    0.6162195    0.3770432 -50.52  0.002392384    1.439    0.305
        21 -11.4821     11.5623     25.8372   1.0218472644e+02   7.2450337409e+01    0.5013882    0.2366714 -35.50  0.001283938    2.184    0.542
        22 -13.5116      6.3006      9.5566   9.8444388224e+01   7.6339820012e+01     1.275282    0.6946942 -18.48  0.002840549    2.236    0.553
        23 -11.4631      2.2126      3.0673   9.8169947214e+01   7.7960091449e+01    0.3481556    0.2673939 -51.11  0.002014517    1.169    0.145
        24 -11.7122    106.2873      8.6071   5.1874696597e+01   5.7845111602e+01     1.522168    0.8589988  45.17  0.006878054    1.776    0.437
        25 -10.5942    208.3172      4.1159   3.7949028915e+01   3.2124821069e+01    0.5784504    0.3364697 -56.77  0.001930391    1.598    0.374
        26 -10.8714    211.3177     12.9925   4.0241663029e+01   3.0558985351e+01      1.19654    0.3604625  58.56  0.004467721    3.430    0.708
        27  -9.0927    221.9173     13.0569   3.9490562555e+01   2.8118271186e+01    0.3177159    0.2198377  57.13  0.001777349    1.674    0.402
        28 -10.0826    225.8837      8.2813   3.7954912581e+01   2.7701985600e+01    0.4550002    0.2867188  21.35  0.002155654    2.380    0.580
        29  -9.5125    239.7282     17.3083   3.9403717814e+01   2.3801565621e+01    0.4167457     0.169388 -31.15  0.001940343    1.910    0.476
        30  -9.4337    243.3321     13.0049   3.8105288422e+01   2.3483562734e+01    0.2623759    0.2119051  65.47  0.001407119    1.477    0.323
        31 -10.5053    233.2432     10.6537   3.8118387144e+01   2.5855713027e+01      0.85705     0.435749 -42.05  0.004414278    1.575    0.365
        32 -10.9710    212.9095     30.7951   4.5114212166e+01   2.8257240440e+01    0.7582346    0.6427016  22.84  0.004418789    1.426    0.299
        33 -11.2612    214.5342     21.2820   4.2308420675e+01   2.8945853393e+01    0.9304175     0.423433 -46.99  0.003997479    1.958    0.489
        34 -10.9919    181.8370     31.9629   4.8847330655e+01   3.5618112705e+01     1.036755    0.5084475 -51.90  0.003874115    2.159    0.537
        35  -9.4240    184.8720     13.7491   4.2725135144e+01   3.6907023427e+01    0.7622971    0.2477743  76.82  0.002619859    3.424    0.708
        36 -10.2422    156.9945      6.6791   4.3236853169e+01   4.4779841716e+01    0.9312861    0.3583595 -19.97  0.003500919    2.633    0.620
        37 -10.1067    181.7631     18.4044   4.4521681717e+01   3.7201837292e+01    0.5591012    0.2908839 -60.71  0.002357392    2.152    0.535
        38 -10.4179    151.8387      8.7868   4.4617546365e+01   4.5935424716e+01    0.4650254    0.3089031  -1.09  0.001084757    1.781    0.439
        39 -10.7115    154.1595     17.5689   4.7554054212e+01   4.4422915346e+01    0.5715645    0.3246788  58.78 0.0004173731    1.742    0.426
        40 -10.4273    149.6333     15.5313   4.7423974864e+01   4.5831877081e+01    0.6453705    0.4359623 -30.77  0.003156056    1.422    0.297
        41 -10.3202    176.5879     19.7042   4.5509284743e+01   3.8374652653e+01    0.5653356    0.3581867 -50.89   0.00223014    1.528    0.345
        42 -10.8373    162.2491     17.8637   4.6597206324e+01   4.2275557373e+01    0.6110637    0.4024553  27.57  0.002468217    1.928    0.481
        43 -11.4574    169.2791     13.8164   4.4362466496e+01   4.0878345956e+01    0.7613549     0.423477  58.78  0.002425424    1.815    0.449
        44  99.0000     71.5745     16.4795   6.5683360427e+01   6.5088412017e+01    0.9292718     0.302171  48.80  0.003365768    3.002    0.667
        45  -9.7160     83.1029     19.8441   6.3583246789e+01   6.2081771266e+01    0.4822224    0.3612708 -15.02  0.002498909    1.361    0.265
        46  -9.5457    232.6844     17.3256   3.9876259600e+01   2.5303152093e+01    0.3531302    0.1503194 -49.74  0.001043924    2.093    0.522
        47  -8.9919    193.6787     14.7323   4.2209182615e+01   3.4615871372e+01    0.3263739    0.1474454 -59.57  0.001296799    2.493    0.599
        48  -9.8611     37.9837     11.0275   7.7588455845e+01   7.2232984390e+01    0.4912743    0.2173421 -32.43  0.002103848    2.209    0.547
        49  -8.9217     37.1639      6.3912   7.4940982735e+01   7.3100475981e+01    0.3178293    0.1886422  41.48  0.001486959    1.809    0.447
        50 -10.2134     41.9391      3.3907   7.0231485478e+01   7.2721206698e+01    0.4302538    0.2865236 -36.97  0.001893698    1.478    0.323
        51  -8.8590     86.1625     10.9421   5.7966842289e+01   6.2519883260e+01    0.3374151    0.1495174  48.78 0.0009548917    2.171    0.539
        52 -10.7708    199.7729      5.5656   3.8967159413e+01   3.4030565091e+01    0.6412006    0.4025185 -40.95  0.002221477    1.385    0.278
        53 -10.5787    163.5571      5.9138   4.2253567427e+01   4.3134966133e+01    0.5900591    0.3694268 -32.95  0.001877763    1.498    0.333
        54  -8.4024    167.9704      4.5073   4.1323328607e+01   4.2117276596e+01    0.2330367     0.189158  10.86 0.0007078998    1.431    0.301
        55  -9.9722     77.8471      8.8264   5.9259636567e+01   6.4692433904e+01    0.3023761    0.2339972 -37.44 0.0004732642    1.333    0.250
        56  -8.9428     77.4924      4.5484   5.6906733946e+01   6.5251508352e+01    0.2500235    0.1764241  27.39 0.0009081853    1.465    0.317
        57  -9.7125    243.8024      5.7377   3.6285965449e+01   2.4093851757e+01    0.3927889    0.1759225 -18.69  0.001838743    2.253    0.556
        58  -9.3148    250.0396      7.3726   3.6361402443e+01   2.2659652948e+01    0.3110346    0.1269455 -44.43  0.001531339    1.878    0.468
        59  -9.3710    190.1352      6.1866   3.9899649592e+01   3.6334032473e+01    0.4522873    0.1643451 -35.00  0.001827115    2.252    0.556
        60  -8.9793    185.4222      5.7350   4.0148544936e+01   3.7552046195e+01    0.2837514    0.1935125  12.13  0.001399235    1.895    0.472
        61  -9.7554    181.9509      4.2613   3.9974520208e+01   3.8561728813e+01    0.4047553    0.2842401  48.06  0.001934567    1.600    0.375
        62  -9.2324    218.3136      4.6943   3.7465500243e+01   2.9750613667e+01    0.4056524    0.2143384  34.56  0.001768671    2.960    0.662
        63  -8.9823     67.5071      5.9512   6.0976457445e+01   6.7326895170e+01     0.286648    0.1983147 -32.92  0.001011373    1.429    0.300
        64  -9.5457     71.4807      3.9107   5.8390731970e+01   6.6683179080e+01    0.3959473    0.2666641 -40.55  0.001612459    1.596    0.374
        65  -8.6909     29.7927      5.8247   7.8954277952e+01   7.4338757075e+01     0.185703      0.14542  -7.63  0.000982852    1.228    0.186
        66  -9.2463     84.7952      2.9734   5.3974103826e+01   6.3701071936e+01    0.4143413    0.2450307  31.95  0.001251562    1.828    0.453
        67  -9.3068    247.7303      1.9146   3.5161433448e+01   2.3644029500e+01     0.227469    0.1576861 -68.27  0.001177173    1.386    0.279
        68  -8.7483     74.3606    107.2765   9.7850267901e+01   4.5296536626e+01    0.2209088    0.1910713 -46.59 0.0008932769    1.216    0.178
        69  -8.9561    211.1646    250.1849   9.1672968393e+01  -5.4395955723e-01    0.1311653    0.1008671  29.22  0.001076128    1.341    0.254
        70  -8.4486    190.3186    250.3195   9.4994053802e+01   1.9414820187e+00     0.104993   0.06369726  11.01 0.0007042086    1.662    0.398
        71  -8.9943    162.0217    249.9906   9.9637997568e+01   5.4913180487e+00     0.132813   0.09717578  29.14  0.001017905    1.020    0.020
        72  -9.0813    124.9615    250.0096   1.0603726420e+02   1.0157384537e+01    0.1626392      0.11399  12.15  0.001134084    1.741    0.426
        73  -9.9686     65.8308    128.8058   1.0448951379e+02   4.1284379797e+01    0.2689772    0.2278384  71.60 0.0008882548    1.118    0.106
        74  -9.9419     60.9296    120.5437   1.0457083202e+02   4.3969785174e+01    0.3382682    0.2878333   6.36    0.0016577    1.529    0.346
        75 -11.0831     66.2444    123.1083   1.0341141426e+02   4.2612703121e+01    0.6644431    0.5196202 -15.95  0.003457237    1.835    0.455
        76 -11.1803     69.5962    113.1573   1.0055295566e+02   4.4572788919e+01    0.9506108    0.2776726 -49.83  0.003048783    3.523    0.716
        77 -10.9770     45.2410    113.8631   1.0837945648e+02   4.7592426722e+01    0.6048824    0.4225674  -5.30  0.002238554    2.229    0.551
        78  -9.3638     55.9685    133.2473   1.0801491987e+02   4.1508082535e+01    0.1905439     0.170042  74.06  0.001157823    1.053    0.050
        79  -9.1418     73.1577    129.5827   1.0250861941e+02   4.0059259897e+01    0.2246056    0.1748229 -81.34 0.0004235379    1.249    0.200
        80 -10.3541     55.9874    126.4450   1.0700803300e+02   4.3163252399e+01    0.4176746     0.233807 -56.49  0.002002137    1.731    0.422
        81  -9.1762     81.8501    124.4621   9.9091654551e+01   3.9970488694e+01    0.2365347    0.1866428 -64.43 5.984666e-05    1.213    0.175
        82  -9.0939     74.2082    125.0625   1.0141179366e+02   4.0991550944e+01    0.1990682    0.1824908 -50.13 0.0004301699    1.199    0.166
        83  -8.7008    131.5939    124.2332   8.5804550266e+01   3.1142905602e+01    0.2027743    0.1369034 -37.70 0.0005597014    1.563    0.360
        84 -10.5413     91.5881    121.2693   9.5679946086e+01   3.9144540616e+01    0.4712985    0.4427317 -57.31  0.002464683    1.099    0.090
        85 -11.3237     75.5879    120.0087   1.0006748499e+02   4.2006059285e+01    0.2751571    0.2438014  49.01  0.001566618    1.165    0.141
        86  -9.2741    104.4693    116.4985   9.1043545579e+01   3.7989334527e+01    0.3782668    0.2253329 -36.08  0.001590534    2.078    0.519
        87  -9.9324    116.2237    116.4394   8.7870095335e+01   3.5798687023e+01    0.2677051    0.2545923 -30.68 0.0006157365    1.112    0.101
        88  -9.3328    108.7993    115.3450   8.9594777576e+01   3.7450542149e+01    0.3459986    0.2186853 -41.64  0.001556265    1.673    0.402
        89  -9.6579     82.8471    114.8926   9.6882850580e+01   4.2102906141e+01    0.3415209    0.2808633  21.50   0.00180305    1.464    0.317
        90  -8.7119    142.4894    114.8767   8.0978832033e+01   3.0880898396e+01    0.2188107    0.1433692 -42.76  0.000515853    1.497    0.332
        91  -8.8026     63.5228    113.5123   1.0251407778e+02   4.5353685114e+01    0.1416533    0.1282175 -78.25 0.0002327294    1.032    0.031
        92  -9.2822     55.1822    112.1549   1.0490832790e+02   4.6808431734e+01    0.3619179     0.230129 -62.27  0.001811379    1.429    0.300
        93  -9.9103     61.4854    109.9689   1.0248759936e+02   4.6515357248e+01    0.5399687    0.4170149   4.77  0.002401224    1.800    0.445
        94  -9.0749     90.5075    112.6423   9.4134421159e+01   4.1362534075e+01    0.2435035    0.1385742  39.48 0.0009670465    1.822    0.451
        95 -10.3368     96.8203    109.3925   9.1550821487e+01   4.1017664490e+01    0.4466504    0.3437974 -66.95  0.001796761    1.316    0.240
        96  -8.6917    104.2192    109.3960   8.9444542898e+01   3.9659635344e+01     0.260279    0.1820735 -75.80  0.001070851    1.767    0.434
        97  -9.0619     23.7269    108.8878   1.1471073093e+02   5.1023563152e+01    0.3100957    0.1821968  26.89  0.001618701    1.941    0.485
        98  -9.1775    113.1354    107.8337   8.6600735410e+01   3.8306849458e+01    0.2271477    0.2037535 -85.76 0.0005948371    1.175    0.149
        99  -8.1442    124.5127    106.5657   8.3275311246e+01   3.6308340464e+01    0.1494163    0.1437949 -76.95 8.535401e-05    1.044    0.042
       100 -10.2075    105.8106    102.9028   8.7375292608e+01   4.0838346564e+01    0.4319315    0.3300276 -60.32  0.001317179    1.309    0.236
       101  -9.6317    107.1323     95.9690   8.5160055100e+01   4.2145907480e+01    0.5149026    0.2775009 -29.02  0.001790664    2.989    0.665
       102  -9.7005    104.4194     92.1696   8.4887369418e+01   4.3537692619e+01    0.4256258    0.3036535  12.74   0.00141558    2.132    0.531
       103  -9.4762    106.6691     87.1865   8.2800183334e+01   4.4195140970e+01    0.3426152     0.219109 -46.92 0.0008003902    1.492    0.330
       104  -9.6458    109.1416     83.8156   8.1080645242e+01   4.4422325133e+01    0.3112985    0.2688623   7.97  0.000728282    1.398    0.285
       105 -12.1322     51.8338     93.9980   1.0251851965e+02   5.1803088407e+01     2.060538    0.6253309 -54.54  0.004975018    2.804    0.643
       106  -9.4738    235.7614    249.4140   8.7850515996e+01  -3.2848534615e+00    0.1760224   0.07405775  35.80 0.0008047465    2.031    0.508
       107  -9.2442    108.6892    249.2969   1.0884704016e+02   1.2274236556e+01    0.1406314   0.08357234  73.98  0.000592421    2.599    0.615
       108  -8.7057     30.5571    248.2504   1.2261463514e+02   2.1197398265e+01    0.1162764   0.08618806 -77.03 0.0009498746    1.634    0.388
       109 -11.2091     24.0456     95.6735   1.1282664758e+02   5.4348547319e+01    0.8246745    0.5264494  71.44  0.004322623    1.631    0.387
       110 -12.3581     27.6730     60.0185   1.0429349529e+02   6.3023707821e+01     1.654652     1.030777  10.86  0.008393399    2.091    0.522
       111  -8.6730      3.4418    246.5837   1.2719666249e+02   2.3970987478e+01     0.149865   0.07142708 -70.63  0.001021638    2.518    0.603
       112 -11.7862     57.8890     48.2932   8.6631208743e+01   6.1876732816e+01    0.8662676    0.7594732  -4.64  0.004927754    1.261    0.207
       113 -11.2926     66.2645     44.9971   8.1782526064e+01   6.1141715945e+01    0.6259772    0.4543648 -31.58  0.002961622    1.378    0.274
       114 -11.8021     41.5845     51.1509   9.5047645672e+01   6.3596935862e+01    0.7584423    0.6334692  25.67  0.004422497    1.362    0.266
       115 -10.1803    141.9894    244.2821   1.0247540551e+02   8.7439670459e+00    0.2611836     0.223921  12.28  0.002106785    1.237    0.192
       116  -8.7719    188.5064    243.5710   9.4462831256e+01   2.8886381994e+00    0.1059099   0.07799393  22.51  4.26135e-05    1.011    0.010
       117 -10.9470    106.7411     32.5085   6.2776643610e+01   5.4688666491e+01    0.7916443    0.6663266  43.95  0.004172357    1.216    0.178
       118 -11.2753     30.3982     72.6400   1.0614456965e+02   5.9620764758e+01    0.7830535    0.4488558 -48.51  0.002556032    1.643    0.391
       119 -11.9098     75.0195     71.3207   8.8117045737e+01   5.3828440231e+01       1.7209    0.9872059  56.87  0.007123765    2.277    0.561
       120  -9.5669     55.7920    238.1884   1.1762761782e+02   2.0170781493e+01    0.1984726    0.1317549 -81.36  0.001261173    1.685    0.406
       121 -10.1766     14.3992    237.5262   1.2506848838e+02   2.4461061375e+01    0.2601622    0.1232985  75.86  0.001732336    1.875    0.467
       122  -8.8164     21.0416    232.3305   1.2370435636e+02   2.4710048207e+01    0.1454487   0.09898742  52.38 0.0005094699    1.072    0.067
       123  -9.2277     12.3635    231.9051   1.2525796378e+02   2.5587231263e+01    0.2387775    0.1068956  47.81  0.001581565    1.530    0.346
       124 -12.0093     31.8077     41.8894   9.6539326207e+01   6.6901094135e+01    0.8902848    0.5257643  25.48  0.004515176    1.971    0.493
       125 -12.7590     49.0388     39.6200   8.7016630697e+01   6.5114757219e+01    0.7266757    0.4681469  34.41 0.0003625441    1.727    0.421
       126 -11.8072     56.5443     37.6508   8.2695079314e+01   6.4320125774e+01    0.5288388     0.390838 -18.57  0.001825679    1.537    0.349
       127 -11.2087    142.7536    101.4713   7.7450134505e+01   3.3522699579e+01    0.6180611    0.3634814  30.15  0.002392386    2.280    0.561
       128  -9.9989    133.7573    102.5105   7.9884670435e+01   3.5238324262e+01    0.4174379    0.2919944 -45.03  0.001052251    1.387    0.279
       129  -9.3982    132.6327     97.8704   7.8899905351e+01   3.6438488330e+01    0.3119199    0.2500969 -62.58 0.0009875161    1.351    0.260
       130 -10.4680     77.4150    101.6078   9.5608297700e+01   4.6196291891e+01    0.4267079    0.2977339  19.25  0.001556427    1.921    0.479
       131  -9.3184     62.0796    102.8808   1.0087703933e+02   4.8199133353e+01    0.3159075    0.2132818 -68.86 0.0004991309    1.388    0.279
       132 -10.3855     66.5702    101.7252   9.9148148774e+01   4.7841105783e+01    0.5403264    0.3094279  51.40  0.002414565    1.926    0.481
       133  -9.8749    158.6477    101.9683   7.4036851943e+01   2.9969671253e+01    0.3181401    0.2591431 -54.64 0.0007882213    1.297    0.229
       134  -8.8422     39.8909    102.8795   1.0837628793e+02   5.0967048903e+01     0.210637    0.1717466 -52.48 0.0009321843    1.267    0.211
       135 -12.3542     23.0562     80.7696   1.1079769666e+02   5.8229795266e+01     1.791941     1.549622  34.84   0.01120018    1.342    0.255
       136  -8.8956     67.4471     87.4005   9.5448387111e+01   5.1240789384e+01    0.3164635    0.2377495 -36.84   0.00092695    1.478    0.324
       137  -9.9770     87.4906     96.9481   9.1286437472e+01   4.5612279636e+01    0.5741715    0.5579187  56.51  0.003263496    1.097    0.089
       138 -11.0570     73.0520     95.2194   9.5500599985e+01   4.8452182442e+01    0.6680812    0.4715548  48.01  0.002433689    1.501    0.334
       139 -10.5806     73.8687     89.6492   9.3821582876e+01   4.9676150162e+01    0.7750916    0.3107091  39.21   0.00290223    2.631    0.620
       140  -9.1299     82.2968     89.9944   9.1112906328e+01   4.8174723251e+01    0.2353979    0.2187621  77.22 0.0005494786    1.109    0.098
       141  -9.6700     82.9684     85.5295   8.9658979067e+01   4.9113226319e+01    0.4375184    0.2770812 -30.99  0.001853817    2.063    0.515
       142 -10.0769      4.6702     99.8670   1.2019053300e+02   5.4701478752e+01    0.4910294    0.2099221  84.41  0.002181305    2.266    0.559
       143  -9.3140      3.6187     93.1978   1.1992446543e+02   5.6438243410e+01    0.3392969     0.113701 -71.98  0.001256253    2.277    0.561
       144 -10.7413      4.2037     88.0156   1.1917381430e+02   5.7710130508e+01    0.5742939    0.3501631 -57.88  0.002634693    1.502    0.334
       145  -8.6007      4.7048     82.6424   1.1837380472e+02   5.9037816826e+01    0.2417009    0.1572429 -44.64 0.0008149852    1.644    0.392
       146  -8.8219     34.1621     99.5052   1.0981017618e+02   5.2425999022e+01    0.2763836    0.1701852 -72.35  0.001408355    1.409    0.290
       147  -9.0194     10.7923     99.8241   1.1806245354e+02   5.4317517415e+01    0.1893351    0.1480819 -70.90 0.0003580393    1.142    0.125
       148  -9.7981    156.1687     96.5103   7.3085843937e+01   3.1543290502e+01    0.4871236    0.2692981 -24.83  0.001549697    2.291    0.564
       149  -9.2299    124.5291     92.6603   7.9490127341e+01   3.9266890766e+01    0.4697697    0.3185532  75.77  0.001678085    2.172    0.540
       150 -10.6243    119.0175     87.0050   7.9297835282e+01   4.1644937164e+01    0.4405743    0.3901937  82.45  0.001331255    1.249    0.199
       151 -10.5193    115.9612     95.1551   8.2474924834e+01   4.0536911156e+01    0.6790968     0.446347  58.40  0.001838979    1.743    0.426
       152  -9.1082    118.9873     91.9582   8.0752550882e+01   4.0595796732e+01    0.2398364    0.2104164 -68.59 0.0005195333    1.190    0.160
       153 -10.4789     88.9720     88.8625   8.8654715332e+01   4.7248923309e+01    0.6167425    0.5519797  -4.45  0.001600789    1.335    0.251
       154  -8.2423    228.3023     95.3144   6.0311108826e+01   1.6429854394e+01    0.1349279   0.09720458   5.14 0.0002890388    1.615    0.381
       155  -9.1892    189.5316     93.9332   6.5930717530e+01   2.4625298421e+01    0.2880067    0.2151617  -6.18   0.00097346    1.544    0.352
       156  -9.1860    193.9098     89.5954   6.4033027240e+01   2.4375044397e+01    0.2296273    0.1863282 -20.57 0.0004285969    1.186    0.157
       157  -9.0133    187.4158     89.2282   6.5034933860e+01   2.5859964366e+01    0.2117537     0.187391 -65.27   0.00031754    1.268    0.211
       158 -10.1050    112.5899     87.1202   8.1095505850e+01   4.2984641857e+01    0.6788566    0.2529469 -36.71  0.002056992    3.420    0.708
       159  -9.0090    131.7288     67.0950   6.9705662499e+01   4.2745651304e+01    0.2641395    0.2082785  41.29 0.0006512588    1.360    0.265
       160 -11.0777    135.2203     82.4850   7.3792395209e+01   3.8977346757e+01     1.003214    0.6794576  -4.74  0.003973874    2.411    0.585
       161 -11.3777    138.6990     69.5658   6.8883204669e+01   4.0631742144e+01    0.7294332    0.5096972  64.80 0.0008374131    1.617    0.382
       162 -10.4489    146.7487     82.3314   7.1064586725e+01   3.6358765124e+01     1.077279    0.4556431 -28.00  0.003386499    3.257    0.693
       163  -9.9967    143.1788     77.2704   7.0318592397e+01   3.8141547852e+01    0.4954079    0.3660004  85.78  0.001951743    1.821    0.451
       164  -9.1846    146.7443     74.9906   6.8810382262e+01   3.7725047251e+01    0.2484955    0.2190885  52.13 0.0001821726    1.188    0.159
       165  -9.1637    155.1694     86.1534   7.0361548812e+01   3.3703423016e+01    0.3804146    0.2251475  28.86  0.001466534    2.441    0.590
       166  -8.9219    222.9378     86.5220   5.8869944589e+01   1.8730714196e+01    0.1894834    0.1372821  53.79 0.0005668541    1.585    0.369
       167  -8.0225    202.7017     86.6860   6.1849069048e+01   2.2927159377e+01    0.1426678    0.1070985   7.81 0.0007014889    1.606    0.377
       168  -9.0025     74.8129     83.7892   9.1918737431e+01   5.0931487328e+01    0.4753432    0.1767225  31.15  0.001511601    3.792    0.736
       169 -11.2903    130.6632     74.7775   7.2492319309e+01   4.1531924093e+01     2.156482     1.166527 -72.91  0.004926756    7.327    0.864
       170 -11.2018    107.8034     69.0169   7.6702058710e+01   4.7839197017e+01      1.14714    0.8010815 -67.78  0.005020307    1.832    0.454
       171 -10.2741    106.2299     60.7820   7.4259014949e+01   4.9843354017e+01    0.5184631    0.3678496 -29.05  0.001420117    1.490    0.329
       172 -10.9186    112.0525     63.6057   7.3610635928e+01   4.7981652577e+01    0.9917228    0.6299496  54.07   0.00408808    1.679    0.404
       173 -10.9909    102.7979     80.9376   8.2053901303e+01   4.6362007647e+01     0.667578    0.4875984 -13.76   0.00111414    1.951    0.487
       174 -10.6692     98.8078     76.0108   8.1711379524e+01   4.8255289689e+01    0.6630303    0.3890275 -37.64   0.00260323    1.769    0.435
       175 -10.4266    101.2266     69.0569   7.8668459132e+01   4.9244004045e+01     0.670751    0.3991839 -55.75  0.002792287    1.840    0.457
       176 -10.9424    115.0096     72.0233   7.5677290061e+01   4.5636385566e+01    0.4996105    0.2953984 -41.78  0.001055529    1.613    0.380
       177 -11.0382    118.5098     70.5486   7.4233099958e+01   4.5147162748e+01    0.5278174    0.3927038  29.39  0.001659372    1.612    0.380
       178  -9.6066    160.9204     81.7544   6.7877106789e+01   3.3171622186e+01    0.3965584    0.2496422  64.18  0.001452347    1.877    0.467
       179 -10.5870    123.1000     80.4214   7.6206792550e+01   4.2122546237e+01    0.4107311    0.3292878  54.38  0.001616822    1.313    0.238
       180  -8.8441     88.4984     78.5132   8.5768386492e+01   4.9724046309e+01    0.2494442    0.2268962 -58.11  0.001341666    1.038    0.037
       181  -9.1786     92.0024     76.2033   8.3911448054e+01   4.9570819260e+01    0.3393859    0.2699946  -5.40  0.001622527    1.676    0.403
       182 -11.2942     40.4314     66.5634   1.0035057095e+02   6.0053769017e+01    0.8531463    0.6070272 -51.30  0.004581041    1.255    0.203
       183  -9.4612      4.9469     77.0184   1.1757888268e+02   6.0443968230e+01    0.2758827    0.2058326  58.50  0.001519102    1.419    0.295
       184  -9.5877      3.6749     72.7516   1.1754455251e+02   6.1587795744e+01    0.3217767    0.1337155 -60.92  0.001079178    1.904    0.475
       185  -9.2448     70.3036     76.4528   9.1399119428e+01   5.3426966064e+01    0.3039308    0.2709099 -34.26  0.001291662    1.181    0.153
       186  -9.2848    248.3754     76.2469   5.3244194480e+01   1.5157471403e+01    0.1954696   0.09496486 -36.03 0.0006197498    1.661    0.398
       187  -9.1603    204.3546     75.8964   5.8711018132e+01   2.4195988788e+01    0.2459676     0.204415  40.39 0.0005031696    1.337    0.252
       188  -8.9181    219.2564    230.7213   8.7805282670e+01   4.2469430076e-01    0.2090577    0.1090445  40.90 0.0009344808    1.990    0.498
       189  -9.5919    168.5924     78.3456   6.5367835651e+01   3.1975044806e+01    0.4650448    0.3515576  70.89  0.002253634    1.549    0.354
       190  -9.8334    164.9388     69.9119   6.3519759207e+01   3.4269062357e+01    0.8724232    0.2584538 -40.71  0.002718351    3.077    0.675
       191  -9.8179    189.6146     77.3640   6.1388046248e+01   2.7273425415e+01    0.5001976    0.2604773  36.75  0.001923674    2.544    0.607
       192 -11.7780    101.9264     54.5517   7.3205438656e+01   5.2012443256e+01     1.323056    0.8980319   6.98  0.005340312    2.422    0.587
       193  -9.6534    177.3299     69.4279   6.1144317704e+01   3.1388547541e+01    0.5088224     0.378993 -64.01   0.00245771    1.557    0.358
       194  -8.9081    170.3169     70.4993   6.2703649657e+01   3.2884058135e+01    0.2879694    0.1990166  42.80 0.0006775019    1.593    0.372
       195  -9.2574    250.0552     70.0188   5.1575016740e+01   1.5627440825e+01    0.2027434    0.1643783 -26.81 0.0006099604    1.033    0.032
       196  -9.1203    156.0548     32.3635   5.2608729825e+01   4.2156420098e+01    0.3265695    0.2401283 -34.35  0.001530443    1.287    0.223
       197  -9.9495    136.2843     42.2989   5.9842161411e+01   4.5841810468e+01     1.506564    0.3305997 -42.18  0.003914751    4.544    0.780
       198 -10.7158    146.5523     35.3927   5.5301280206e+01   4.4210102324e+01     1.016651    0.4080548  55.47  0.003747074    2.427    0.588
       199 -11.0152    155.7169     43.3609   5.6522691115e+01   4.0731422479e+01     1.428386    0.8561552 -11.39  0.005816355    2.146    0.534
       200 -11.1119    141.8776     44.7984   5.9622568578e+01   4.4041817191e+01    0.4186448    0.3353869  -8.78 0.0005004603    1.399    0.285
       201 -11.3226    149.3184     65.9958   6.5385115361e+01   3.8713967745e+01    0.9568012    0.6069406 -31.22  0.004207536    1.550    0.355
       202 -10.6427    166.2433     53.8347   5.8205384187e+01   3.6521986980e+01     1.364838    0.3081604 -36.75   0.00395869    3.571    0.720
       203 -10.4829    160.7461     52.0437   5.8578182025e+01   3.8167224351e+01    0.5690253    0.3535685 -27.51  0.002203278    1.586    0.369
       204 -10.2053    144.0789     58.0706   6.3845729835e+01   4.1354199266e+01    0.3308578      0.28109  50.84 0.0003756992    1.230    0.187
       205 -12.1906    147.2417     53.8042   6.1729066480e+01   4.1273025548e+01    0.4602352    0.3724707  71.11 0.0002519331    1.334    0.250
       206 -10.5947    145.4888     48.9135   6.0374580340e+01   4.2491514029e+01    0.5382026    0.3399251  35.55  0.002083806    1.942    0.485
       207 -10.4208    130.9489     62.2277   6.8233439802e+01   4.3827049263e+01    0.8308749    0.4255717  72.64 0.0006755996    3.492    0.714
       208 -10.6965    137.7197     59.2238   6.5625842724e+01   4.2719916361e+01    0.3832612    0.2884854  21.16            0    1.685    0.407
       209  -9.0355    206.9864     60.9353   5.4235912240e+01   2.5761213105e+01    0.2978827    0.1757355 -32.45  0.001184159    1.478    0.324
       210  -9.4998    173.5242     39.2170   5.2300042093e+01   3.6781039610e+01    0.4082121     0.323132  31.43  0.001633554    1.476    0.323
       211  -9.6232    180.3457     43.8653   5.2814622833e+01   3.4448264737e+01    0.3170561    0.2472508  -0.46  0.001439217    1.507    0.337
       212  -9.8120    174.1731     56.9087   5.7853157775e+01   3.4098189332e+01    0.7280515    0.3988029   2.43  0.002234953    4.240    0.764
       213 -10.7587    173.5224     47.1239   5.4857662498e+01   3.5693471959e+01    0.9098012    0.5128679 -88.92  0.003480188    2.701    0.630
       214 -10.0418    186.2405     61.1026   5.7219787905e+01   3.0553597470e+01    0.4814135    0.3043094  72.48  0.001960499    1.888    0.470
       215 -11.5382    184.5143     54.9651   5.5638421834e+01   3.1868240563e+01    0.7435477     0.339685 -46.90  0.002874265    2.231    0.552
       216  -8.9355    234.0938     59.8342   5.0736381026e+01   2.0056934404e+01    0.1970824    0.1552028 -43.13  0.001157781    1.144    0.126
       217  -9.2357    212.9078     58.9715   5.2942145727e+01   2.4704189952e+01    0.3698733    0.2343275  10.73  0.001383193    2.391    0.582
       218  -9.0961    201.0157     59.8431   5.4724250518e+01   2.7275122045e+01    0.2395483    0.1976089  71.95 0.0008693168    1.361    0.265
       219  -8.9282    240.7213     57.9577   4.9575731745e+01   1.8948066077e+01     0.196058    0.1459778 -33.92 0.0008549365    1.103    0.093
       220 -10.6633    193.5019     55.0804   5.4379907709e+01   2.9701223970e+01    0.6574861    0.4307251  24.60  0.002938026    2.121    0.528
       221 -10.4490    120.9856     54.8358   6.8049968790e+01   4.7547495919e+01    0.6153105    0.4949061  -5.35  0.002976039    1.478    0.323
       222  -9.2055    135.5911    230.1812   1.0209776800e+02   1.1491002576e+01    0.1393644    0.1020651 -31.67 0.0009548378    1.751    0.429
       223  -9.6993    133.0089     55.5051   6.5388375339e+01   4.4516436079e+01    0.3990939    0.2828072  12.04  0.001152419    2.007    0.502
       224  -9.7772    133.6827     52.6638   6.4216062711e+01   4.4833772545e+01    0.5285637    0.3399145   7.42  0.002005607    2.617    0.618
       225  -8.8646     12.5284     56.8521   1.1076442814e+02   6.5039685540e+01    0.2524911    0.1592595  34.85  0.001077217    1.835    0.455
       226  -9.8285    233.7925     55.4738   4.9653901531e+01   2.0671421751e+01    0.3121578    0.2807529  29.21  0.001964255    1.308    0.235
       227  -8.3767    224.0341     56.2590   5.0906478091e+01   2.2630773429e+01    0.1560375    0.1203828  65.79 0.0004217983    1.496    0.331
       228  -9.1713    202.3133    228.9065   9.0267925332e+01   2.7536028199e+00    0.1648065    0.1192783  29.66 0.0003130739    1.210    0.173
       229  -8.9611    244.2305     55.0403   4.8505399350e+01   1.8607068056e+01    0.1966152    0.1604765  -7.52 0.0005560686    1.301    0.231
       230 -10.0062    238.3781     52.1339   4.8343274288e+01   2.0142187097e+01    0.2203975    0.2004056   2.57 0.0005544869    1.240    0.194
       231  -9.0714    211.7286     50.7036   5.0805063158e+01   2.6069632569e+01    0.3631168    0.1662178 -30.90  0.001550972    1.867    0.464
       232  -8.9547      9.9283     52.1165   1.1101902755e+02   6.6375448519e+01    0.1749436    0.1563869 -88.92 0.0004496696    1.166    0.143
       233  -8.2719    126.9590     51.2373   6.5250492438e+01   4.6729340271e+01    0.2046044    0.1957282  87.80 0.0004739562    1.090    0.083
       234  -8.9194    228.4108     49.8249   4.8743643632e+01   2.2511137512e+01    0.2035807    0.1733394 -73.45 0.0003904917    1.288    0.224
       235  -8.0557     16.6537     50.6759   1.0722557143e+02   6.6258214912e+01    0.1417042   0.08112487 -40.23 0.0007049976    1.742    0.426
       236 -10.4413    193.4995     48.7968   5.2522885838e+01   3.0571245164e+01     0.413431    0.2937377  31.66   0.00201403    1.750    0.428
       237  -8.3982     21.4857     49.4534   1.0440784516e+02   6.6158378113e+01    0.1327255    0.1127957 -60.77 3.902864e-05    1.027    0.026
       238  -9.9865    206.2662     46.1731   5.0169740462e+01   2.7910344327e+01    0.4296971    0.2033785  61.23  0.001264565    2.264    0.558
       239  -9.4540    128.5856     44.5033   6.2343136912e+01   4.7436583943e+01    0.4612871    0.3246096  25.74  0.001890634    1.801    0.445
       240  -9.8932    220.0478     43.7845   4.7991600085e+01   2.5083102725e+01    0.4459558    0.1486455 -33.50  0.001404264    2.341    0.573
       241  -8.6305     24.9831     46.1570   1.0159165964e+02   6.6624255232e+01    0.1597354   0.09718552  23.77 0.0006156481    1.921    0.480
       242  -9.4365    248.9872     44.0547   4.5370949909e+01   1.8970585494e+01    0.2648584    0.1703534  -4.65  0.001054323    1.909    0.476
       243  -8.9586    249.4771     40.5153   4.4463924983e+01   1.9280480833e+01    0.1848926    0.1100283 -17.66 9.113792e-05    1.666    0.400
       244  -8.9266    191.9491     44.5311   5.1450152497e+01   3.1516798599e+01    0.2367492    0.1886945 -54.52  0.001257182    1.222    0.182
       245  -9.1144    190.7797     40.9908   5.0529578620e+01   3.2265094005e+01    0.3180554    0.1946722  -3.07  0.001346016    2.240    0.554
       246  -8.4403    137.4843    224.5129   1.0110010327e+02   1.2045246813e+01    0.1139932   0.09188479  32.12 0.0004208266    1.034    0.033
       247 -10.5363      7.8077     41.0380   1.0945801823e+02   6.9189737668e+01    0.6664872    0.2331845  33.52  0.002880574    3.212    0.689
       248  -9.1654     40.8805    221.8044   1.1951265992e+02   2.4543250792e+01    0.1505729    0.1326745  56.00 0.0006135023    1.239    0.193
       249  -8.4679    235.0391    219.0000   8.3650274910e+01  -3.1913325637e-01    0.1685766   0.04996391  37.22  0.000807523    2.978    0.664
       250 -11.1150     15.8502     31.0570   1.0148779914e+02   7.0934239417e+01    0.3803814    0.2915999  29.44 0.0004615306    1.535    0.349
       251  -9.2457     26.9992    212.4977   1.2175129648e+02   2.7637546527e+01    0.1630268   0.08917635  36.50 0.0009098099    1.596    0.373
       252  -9.0130     13.5391    212.5421   1.2438966598e+02   2.8901988200e+01    0.1087324   0.07790405  60.93 0.0001133618    1.007    0.007
       253 -11.3925     36.4819     27.2026   8.7655925305e+01   6.9481754442e+01    0.2708875    0.2399898  -4.47 0.0003228459    1.164    0.141
       254  -9.2615    233.8741    200.0752   8.0841270461e+01   1.8401938096e+00    0.2004965    0.1303682 -17.43  0.001355509    1.389    0.280
       255  -9.4653     11.9321    192.9528   1.2395430754e+02   3.2799375787e+01    0.4338689    0.0934635  42.83  0.002005785    2.809    0.644
       256  -9.4812     32.9833    192.0487   1.1941296613e+02   3.0975436491e+01    0.1613937    0.1336499 -45.95 0.0008332864    1.700    0.412
       257 -11.4394      5.0701     26.1298   1.0660746038e+02   7.2833858239e+01    0.5350031    0.2909434 -30.05  0.002827642    1.950    0.487
       258  -8.1741    215.6702    189.6658   8.1999634214e+01   5.5756458520e+00    0.1244897     0.077208   5.70 0.0007052069    1.725    0.420
       259  -9.4554     27.4436    193.5308   1.2069144975e+02   3.1235059317e+01    0.2334574    0.1646657  68.95  0.001477339    1.137    0.120
       260  -9.3255    225.1545     41.3309   4.6821320635e+01   2.4257066250e+01    0.2389617    0.1878066  34.14 0.0009958853    1.564    0.361
       261  -9.0735    208.2985     41.7633   4.8684797477e+01   2.8001131280e+01     0.262969      0.17845  52.82 0.0008160514    1.656    0.396
       262  -8.4489    202.3245     42.2848   4.9512593324e+01   2.9331409839e+01    0.1378078    0.1064304  25.00 0.0002829754    1.601    0.375
       263  -8.4597    226.0000     65.9475   5.3218671849e+01   2.0938374101e+01    0.2407168   0.06817155 -29.01  0.000812924    3.016    0.668
       264  -8.5492    112.4713     41.4663   6.5056675097e+01   5.1890101874e+01    0.1510846    0.1431903 -50.39 1.667406e-05    1.059    0.055
       265  -8.9666    235.8263     39.4778   4.5351993582e+01   2.2188292997e+01    0.2010159    0.1665116  -8.46 0.0007658856    1.308    0.236
       266 -10.0883     10.6497    185.0628   1.2389636348e+02   3.4505486741e+01    0.3025045    0.2229597   6.39  0.002006896    2.052    0.513
       267  -9.9508    215.3080     38.9975   4.7164936053e+01   2.6734471712e+01    0.3212878    0.2400698 -79.19  0.001204394    1.493    0.330
       268  -9.7950     31.4039    184.9193   1.1931562873e+02   3.2588664232e+01    0.2231531    0.1285498 -64.57  0.001316562    1.872    0.466
       269 -10.0524    246.8602     19.0076   3.9371231737e+01   2.2148027491e+01    0.5509989    0.2524746  89.98  0.002570593    2.792    0.642
       270  -9.9894      2.4800    178.4024   1.2541949612e+02   3.6561790312e+01     0.339533    0.2406714 -70.00  0.002350642    1.550    0.355
       271  -9.3855     26.3164    179.9636   1.2015164471e+02   3.4126995345e+01    0.1701511    0.1315639  76.73  0.001095054    1.081    0.075
       272  -8.6741     36.7868    179.5901   1.1773680733e+02   3.3146064654e+01       0.1746   0.08718161  45.06 0.0009505997    1.669    0.401
       273 -10.6814    220.5402     34.8765   4.5522011665e+01   2.6046484406e+01    0.4867428    0.4261985 -89.83  0.001505452    1.248    0.199
       274 -10.6184    226.2865     28.4956   4.3295668395e+01   2.5500451529e+01    0.5449997    0.3862996 -42.47  0.003098521    1.191    0.160
       275  -8.4663     79.8721    176.7277   1.0745815490e+02   2.8526817963e+01    0.1971836    0.1317974 -22.60 0.0009418817    2.772    0.639
       276  -8.2380     65.4712    173.4751   1.1047850250e+02   3.1111760282e+01    0.1271423    0.1073261  65.78 9.590184e-05    1.010    0.010
       277  -9.2287      1.3083    170.3224   1.2537711590e+02   3.8361253681e+01    0.2944812   0.08430568 -80.94  0.001301696    2.995    0.666
       278  -8.8004     16.9798    168.8259   1.2165715655e+02   3.7384340548e+01    0.1633625    0.1102468 -65.81 0.0005417606    1.592    0.372
       279 -10.7867     32.3059    166.2538   1.1780761260e+02   3.6491620598e+01    0.2288936    0.1920411  65.31 0.0003006259    1.077    0.071
       280  -8.8605    203.0963     37.8711   4.8143549766e+01   2.9703600994e+01    0.2193679    0.1752917 -59.06  0.001205831    1.227    0.185
       281  -9.7623    197.7439     37.3379   4.8592077608e+01   3.1045210713e+01    0.2400324    0.2167976 -51.78 0.0006543002    1.042    0.040
       282  -9.2671    199.2954     33.1138   4.7166809099e+01   3.1189945739e+01    0.3872052    0.2063141 -50.83  0.001722496    1.850    0.460
       283 -10.2131     13.2891    165.5139   1.2235050638e+02   3.8431475671e+01    0.2428255    0.1774753 -32.48  0.001037422    2.122    0.529
       284  -8.7273    160.1842     24.5418   4.9223802612e+01   4.2055323693e+01    0.7661278    0.2629482 -45.26  0.002576637    2.971    0.663
       285  -9.2508     19.0114    165.5311   1.2097832170e+02   3.7924886501e+01    0.2541906    0.1019941  47.59  0.001278935    2.047    0.511
       286 -10.2261      2.0810    159.8492   1.2476556909e+02   4.0583142722e+01     0.502239    0.1680247 -88.44  0.002280509    2.631    0.620
       287 -10.1939    179.8211     25.1255   4.6900906811e+01   3.6942093189e+01    0.3466365    0.2579821 -74.34 0.0002632755    1.419    0.295
       288 -10.6696     19.6669    158.7362   1.2038679709e+02   3.9382066224e+01    0.4851466    0.2393582  35.55  0.001804688    1.909    0.476
       289  -9.8219     28.7004    158.2830   1.1808821061e+02   3.8637193529e+01    0.2032646    0.1743084  73.42  0.000285604    1.084    0.077
       290 -12.0794     15.7187    151.8240   1.2093254206e+02   4.1301591760e+01    0.9523469    0.5047873  30.59  0.005275423    1.954    0.488
       291 -11.3056     16.0348    140.7086   1.2007747089e+02   4.3867590049e+01    0.8169569    0.4291355 -67.20  0.004382093    1.754    0.430
       292 -10.1904     34.8541    131.6322   1.1392475736e+02   4.4310650696e+01    0.4083579    0.2050775 -75.90 0.0005545985    1.784    0.440
       293 -10.9505     19.1975    119.1162   1.1729966018e+02   4.8846891234e+01    0.6365014    0.2471625 -66.90  0.002854378    2.141    0.533
       294 -12.6803     38.4337    121.5222   1.1162224470e+02   4.6430364404e+01     2.540638     0.899985  40.32   0.01048973    2.652    0.623
       295 -11.4891    192.5200     32.4480   4.7722761602e+01   3.2912580143e+01    0.4530659    0.3669718 -14.28 7.894012e-05    1.298    0.230
       296  -8.7761    198.6364     25.3137   4.4920743816e+01   3.2260206837e+01    0.3477122    0.1422706 -32.88  0.001116094    2.042    0.510
       297  -9.0037    124.5935     36.0947   5.9956953018e+01   4.9731495746e+01    0.2673722    0.2088957  75.08  0.001311536    1.407    0.289
       298 -10.5959    245.3890     33.4249   4.3037327836e+01   2.0901144211e+01    0.5252264     0.293866  71.80  0.002482427    2.102    0.524
       299  -9.0615    242.4991     25.0237   4.1154808246e+01   2.2412954786e+01    0.2911992     0.205106 -36.66  0.001412138    1.146    0.127
       300 -10.9582    235.6875     32.4614   4.3560043846e+01   2.3023020208e+01    0.5122348    0.3525513   7.15  0.001986794    1.950    0.487
       301  -9.8009    238.0068     26.4809   4.1848389732e+01   2.3194797714e+01     0.294947    0.2306676 -66.07  0.001146719    1.284    0.221
       302 -10.1213    135.8250     33.3839   5.6545925718e+01   4.7255186536e+01    0.5607068    0.3218389  26.07  0.001813302    2.626    0.619
       303  -8.6214      3.9138     33.7064   1.0974379169e+02   7.1150381201e+01    0.3029953    0.1110071 -46.05  0.001357187    2.291    0.563
       304  -9.7268    173.4510     30.2956   4.9382703913e+01   3.7942927485e+01    0.3691645    0.2800406   9.80  0.001325658    1.621    0.383
       305 -10.5072    167.3737     28.7798   4.9693103396e+01   3.9685016566e+01    0.4282472     0.353874 -23.57  0.001119906    1.205    0.170
       306  -9.2957    203.2527     28.7295   4.5465235542e+01   3.0760919126e+01    0.2948677    0.1885053 -18.02  0.000955253    1.608    0.378
       307  -9.9228    204.5300     23.0553   4.3690270163e+01   3.1098189375e+01    0.4965371     0.269723 -37.01   0.00185364    1.569    0.363
       308  -9.8512    146.6962     29.4111   5.3065749645e+01   4.4968595609e+01    0.4339043    0.3075676  76.65  0.002075493    1.511    0.338
       309  -9.5851    147.3634     24.0363   5.0949641402e+01   4.5462989023e+01    0.2669103    0.2324728  51.23 0.0006614012    1.189    0.159
       310  -8.3596    247.2807     27.6854   4.1478364496e+01   2.1146585205e+01    0.1683296    0.1065222 -21.21 0.0002013847    1.475    0.322
       311  -8.7943    250.0495     25.5017   4.0752515189e+01   2.0822145656e+01    0.1889246     0.130792 -60.19 0.0006090043    1.404    0.288
       312  -9.8221    185.8004     25.0514   4.6193833216e+01   3.5447469640e+01    0.5166795     0.164925 -39.07  0.001352226    2.607    0.616
       313 -10.4370    188.9304     19.4150   4.4101002103e+01   3.5295689684e+01    0.2998159    0.2326999  44.36 0.0004543691    1.476    0.322
       314  -9.4683    153.4028     24.9602   5.0358643569e+01   4.3772956998e+01    0.4130221    0.2874068 -41.27   0.00200746    1.371    0.271
       315  -9.0504    139.6688     23.9817   5.2195614353e+01   4.7482413501e+01    0.4385228    0.2156477  54.67  0.001791825    1.997    0.499
       316 -10.6545      5.4365    147.3361   1.2331818068e+02   4.3157913527e+01    0.3694611     0.221701  20.59  0.002160398    2.039    0.509
       317  -9.2150     74.9809     18.9682   6.5833774132e+01   6.4001823923e+01    0.2338583    0.2255166 -86.24 0.0006113357    1.204    0.169
       318 -10.3553      6.2978    142.7189   1.2283370149e+02   4.4163804578e+01    0.2861011    0.2044064  73.61 0.0004682207    1.127    0.113
       319  -9.2073     79.2805     18.7564   6.4254268328e+01   6.3090306265e+01    0.3773937    0.2338557  41.92  0.001477814    1.656    0.396
       320  -9.8389    231.5166     20.0223   4.0658277322e+01   2.5275150781e+01    0.3823989    0.2536761 -75.60   0.00212682    1.619    0.382
       321 -11.0058     14.7450    132.2778   1.1979530314e+02   4.5987973125e+01    0.7706824    0.4046188  -5.73  0.003327439    3.852    0.740
       322  -8.4381    101.3898     18.7496   5.7867374594e+01   5.7907347094e+01    0.1870431    0.1356905  -8.62 -0.0001541599    1.494    0.331
       323  -9.1951    198.6912     15.9784   4.2137056116e+01   3.3261843036e+01    0.2368948    0.2211595  48.57  0.001106784    1.225    0.184
       324 -12.7174     11.9933    125.5357   1.2006003342e+02   4.7838428555e+01    0.7452858    0.3991114  89.48 0.0005464158    1.612    0.379
       325  -9.7630     67.2356     12.9681   6.5278058322e+01   6.6494188966e+01    0.3256146    0.2029203  57.69  0.001037431    1.784    0.439
       326  -8.3136     42.4255     12.4905   7.6100907276e+01   7.1270550923e+01    0.2931913    0.1243337  38.97  0.001257948    2.565    0.610
       327 -10.5148     31.7381    108.4102   1.1198432198e+02   5.0405660749e+01    0.5179047    0.3380818 -80.45  0.001095623    1.351    0.260
       328 -10.3499     37.5958    108.9837   1.1012134773e+02   4.9666258186e+01     0.333713    0.2914144 -69.15  0.000375668    1.117    0.105
       329  -9.9160     16.8297    110.1322   1.1712681926e+02   5.1280003113e+01    0.2252012    0.2064704 -79.71 0.0002992215    1.162    0.140
       330 -11.4869      9.8903    108.9350   1.1927941779e+02   5.2092294050e+01    0.6593413    0.3417011 -49.79  0.002402723    2.105    0.525
       331 -11.5350     15.5834    102.6410   1.1671740864e+02   5.3262033351e+01    0.7301373    0.4004604 -58.27  0.003777486    1.682    0.405
       332  -9.7747     45.4371    150.8440   1.1308425171e+02   3.8583890552e+01    0.2613613    0.2017267 -63.31 0.0006976246    1.354    0.262
       333 -11.3053     29.9929    141.2579   1.1629229495e+02   4.2473693653e+01    0.7378241    0.4239066  72.47  0.003875255    1.665    0.399
       334 -10.4779     23.3169    136.3009   1.1770006618e+02   4.4287705775e+01     0.382478    0.2651997  82.35  0.001594187    1.237    0.191
       335  -9.3841     35.6674    151.2389   1.1569653644e+02   3.9552502210e+01    0.3027469     0.164409  52.64  0.001590802    1.673    0.402
       336 -10.0450     30.5669    151.6397   1.1706829487e+02   3.9976869066e+01    0.2525337    0.2109525 -76.27 0.0005549819    1.214    0.176
       337  -9.0264     45.2342    144.5724   1.1245523917e+02   4.0077532020e+01    0.2254048    0.1721911 -27.02 0.0008663922    1.903    0.475
       338 -11.9443     37.0974     92.2615   1.0749817360e+02   5.3967096338e+01    0.9275905    0.5838318  39.97  0.002461419    1.707    0.414
       339 -10.1280     40.4680    146.6777   1.1397313628e+02   4.0109320678e+01    0.3449065    0.2814187 -23.24  0.001619188    1.749    0.428
       340 -10.2043     37.9376    143.0036   1.1428003848e+02   4.1249489326e+01    0.3509884    0.2368617  37.88  0.001072483    1.499    0.333
       341 -10.5633     23.3716    146.5293   1.1854543035e+02   4.1853926968e+01     0.346919    0.1917586  30.52  0.001881219    1.905    0.475
       342  -9.2445     98.5460    139.8107   9.7388063492e+01   3.3723005995e+01    0.2465017    0.2090466  72.33 0.0005007928    1.193    0.162
       343  -9.1534     47.5541    139.1898   1.1118476173e+02   4.1093338058e+01     0.300624    0.1521363 -74.54  0.001418038    1.859    0.462
       344 -10.2015      3.1709    136.7846   1.2333585843e+02   4.5781821632e+01    0.4066253     0.269473 -43.51  0.002115722    1.988    0.497
       345 -10.1430     58.3450    137.9721   1.0800400124e+02   4.0070103434e+01    0.4589771    0.1666798  37.35  0.001617685    2.575    0.612
       346 -10.1934     66.5516    134.4362   1.0517667942e+02   3.9830002164e+01    0.3000807    0.2147569  83.92 0.0009186202    1.447    0.309
