#   1 NUMBER                 Running object number                                     
#   2 MAG_AUTO               Kron-like elliptical aperture magnitude                    [mag]
#   3 X_IMAGE                Object position along x                                    [pixel]
#   4 Y_IMAGE                Object position along y                                    [pixel]
#   5 X_WORLD                Barycenter position along world x axis                     [deg]
#   6 Y_WORLD                Barycenter position along world y axis                     [deg]
#   7 A_WORLD                Profile RMS along major axis (world units)                 [deg]
#   8 B_WORLD                Profile RMS along minor axis (world units)                 [deg]
#   9 THETA_WORLD            Position angle (CCW/world-x)                               [deg]
#  10 FWHM_WORLD             FWHM assuming a gaussian core                              [deg]
#  11 ELONGATION             A_IMAGE/B_IMAGE                                           
#  12 ELLIPTICITY            1 - B_IMAGE/A_IMAGE                                       
         1 -14.9173      9.0530    147.2721   1.4304916053e+02   4.3439459836e+01     9.189931     3.348852 -89.04   0.03435295    3.982    0.749
         2 -13.1190    196.4639     29.8046   6.8179195308e+01   3.2679187505e+01     1.316535     1.149312  64.90  0.006360583    1.146    0.127
         3 -13.3161    212.1160     10.3209   6.1623470879e+01   3.1164233202e+01     1.235126    0.9117213  40.90   0.00716462    1.773    0.436
         4 -12.4372      3.2213      9.0470   1.1515701670e+02   7.1123569201e+01     1.047204    0.2362239 -42.85   0.00492846    3.246    0.692
         5 -10.8254    106.4361    246.6610   1.3385520137e+02   9.6492428962e+00    0.2414645    0.1702753  55.47  0.001492728    1.146    0.127
         6 -11.2791    156.6313    249.9095   1.2480550162e+02   6.7850171971e-01    0.4746111    0.2149027  52.10  0.002186717    2.156    0.536
         7 -11.2910    139.4244    250.3282   1.2811206865e+02   3.5448260158e+00    0.5120846    0.1575223  47.38  0.002031751    2.739    0.635
         8 -11.4336    123.4109    249.5225   1.3101929823e+02   6.3690390322e+00    0.4858115    0.1880049  43.13  0.002207698    2.145    0.534
         9 -11.4171     99.5333    247.7075   1.3524288574e+02   1.0555542726e+01    0.4075153    0.3246675  84.03  0.002657852    1.197    0.164
        10  -8.9177     66.4759    250.0851   1.4136962346e+02   1.5028869224e+01    0.1760197    0.1213083  57.60 0.0003417412    1.169    0.144
        11  -9.7023     46.7675    249.3325   1.4465783499e+02   1.7802580311e+01    0.1857908     0.133145  85.32 0.0007645068    1.161    0.139
        12 -10.4108     29.4948    249.0727   1.4746467450e+02   1.9968507014e+01    0.3220764    0.2333784  82.08  0.001521053    1.113    0.102
        13 -10.7636     35.3319    244.4342   1.4620886735e+02   2.0140711176e+01    0.3409557    0.2993883 -87.53  0.002686456    1.451    0.311
        14  -9.7940      2.5435    246.0319   1.5149376004e+02   2.3472445264e+01    0.2078918    0.1101696  89.89 0.0006587881    1.440    0.306
        15  -9.0707     18.8427    242.0771   1.4874044291e+02   2.2487559473e+01    0.1699583    0.1026148  72.43 0.0005036079    1.220    0.181
        16  -9.3845      5.9273    240.9750   1.5071548790e+02   2.4065058376e+01    0.1561639    0.1129697  79.09 0.0005983998    1.109    0.098
        17  -9.1996     12.8573    240.1421   1.4958128247e+02   2.3499746431e+01    0.1316774    0.1085176  82.41 0.0008398322    1.328    0.247
        18 -10.9340    184.2004    238.9679   1.1792727588e+02  -2.3591971014e+00    0.4362476    0.1468018  46.91    0.0014468    2.815    0.645
        19 -10.5904    230.5076    231.9831   1.0803261127e+02  -9.1152277525e+00    0.5090505    0.2777047 -58.18  0.001909681    5.118    0.805
        20 -10.4294     50.4302    235.1711   1.4293169175e+02   2.0033672692e+01    0.2614943    0.1676136 -59.61  0.001241773    1.875    0.467
        21 -11.5583     22.3841    126.6433   1.3719997330e+02   4.7057552798e+01    0.4000715    0.2389475  49.96  0.001407646    1.968    0.492
        22 -14.2016    105.0548    229.2685   1.3210183527e+02   1.3147702765e+01     8.174429          nan  45.14   0.01345665   15.734    0.936
        23 -13.6418     38.2161    224.7992   1.4426363425e+02   2.3628413730e+01    0.7572049    0.5803482  75.31    0.0024548    1.061    0.058
        24  -8.5109    152.4757    212.9298   1.2012163685e+02   7.9505256192e+00    0.1818751    0.1387939 -53.60  0.000359426    1.454    0.312
        25 -12.3290      9.8764    206.7896   1.4798894327e+02   3.0406568015e+01    0.6156114    0.4042903  37.53   0.00307404    1.842    0.457
        26 -11.3397     59.8239    198.1832   1.3757352360e+02   2.6511320794e+01    0.2702601    0.2212224 -65.83 0.0004822733    1.323    0.244
        27  -9.3314    192.0436    193.2593   1.0836529093e+02   4.0500854349e+00    0.3519148    0.1933582 -61.49  0.001338491    3.035    0.670
        28 -12.0486     13.2824    195.8724   1.4656985462e+02   3.2366925673e+01     0.264018    0.1741156  66.37 0.0004982455    1.312    0.238
        29  -8.5799     60.7740    203.4189   1.3795847200e+02   2.5235610563e+01    0.1513435    0.1196476  38.17 0.0006380019    1.519    0.342
        30 -11.6562     66.2087    189.8744   1.3524352929e+02   2.7492509514e+01    0.2850206    0.2289537 -64.15  0.000435604    1.295    0.228
        31 -10.7246      6.6056    188.8773   1.4729897385e+02   3.4478417382e+01    0.2667695    0.1716559  56.48  0.001805862    1.479    0.324
        32 -11.0765      2.5494    183.0033   1.4763130079e+02   3.6088161335e+01    0.3361622    0.1795664 -88.30  0.002048749    1.481    0.325
        33 -10.6440     76.5223    177.1882   1.3124550192e+02   2.8916057533e+01    0.2421037     0.215485 -76.62 0.0003820864    1.123    0.109
        34 -13.0400     63.2703    175.0334   1.3397145028e+02   3.1295112089e+01    0.5170481    0.2815068 -45.99  0.002000404    2.312    0.568
        35  -9.5616     96.5777    173.2897   1.2597652698e+02   2.6658059941e+01    0.2549693    0.2268021  83.93 0.0006296258    1.015    0.015
        36 -11.4888     84.2083    168.0560   1.2805274127e+02   2.9882985919e+01     0.587846    0.5719422  -8.45  0.003596772    1.308    0.235
        37  -9.8439     55.1836    229.9868   1.4163903927e+02   2.0435651351e+01    0.2074933    0.1447152  57.16 0.0007946048    1.232    0.188
        38  -9.7318     97.1349    152.0925   1.2207395991e+02   3.1559134844e+01    0.3063388    0.2622343 -43.50 0.0008418774    1.279    0.218
        39  -8.7641    100.0091    148.0074   1.2055136503e+02   3.2035056729e+01    0.2165129    0.1743985 -26.86 0.0003495308    1.584    0.369
        40 -11.8100     85.5930    151.2042   1.2482637882e+02   3.3662551038e+01    0.3017954    0.2445381 -47.07 0.0007381209    1.309    0.236
        41  -8.1583    134.3100    148.6771   1.1210096478e+02   2.5350761171e+01    0.1590394     0.120137  85.49 0.0003648861    1.650    0.394
        42 -12.0703     67.2978    143.4871   1.2813749908e+02   3.8196116885e+01    0.6785504    0.4476481  67.92  0.002403332    1.806    0.446
        43 -11.1170    248.9176    248.0108   1.0747920545e+02  -1.3989387589e+01    0.2935862    0.2708819  60.73  0.002105003    1.794    0.443
        44  -9.4578    109.0563    137.0865   1.1594086592e+02   3.2993067120e+01    0.4547183    0.2811722 -22.74  0.001426429    2.989    0.665
        45 -12.5603     32.7478    231.9422   1.4576422506e+02   2.2855992163e+01    0.3024541    0.2265445 -71.16  0.000787712    1.478    0.323
        46 -10.1810     96.1646    134.3620   1.1874928042e+02   3.5931053873e+01     0.261827    0.2206533 -39.90 0.0003967901    1.259    0.206
        47  -8.2311    192.1941    144.0035   9.7845588844e+01   1.3736129310e+01    0.1989061    0.1188093 -42.20 0.0005230679    1.659    0.397
        48  -8.8738     78.0774    130.8007   1.2288086474e+02   3.9670362232e+01    0.2288748    0.1477975  66.42  0.001035629    2.036    0.509
        49 -10.5556     30.7975    131.2282   1.3566781670e+02   4.5264277203e+01    0.2823483    0.1934419  53.92 0.0005804074    1.662    0.398
        50  -9.1110     85.2522    127.1401   1.2015483575e+02   3.9430057782e+01    0.2501346    0.1695343  66.58  0.000428791    1.896    0.473
        51  -8.8365    106.2737    123.7732   1.1365916885e+02   3.6610179952e+01    0.1851368    0.1676264 -18.35 0.0002816845    1.248    0.198
        52 -10.0535    171.5055    223.0056   1.1787360449e+02   2.5622906099e+00    0.2983477    0.1559961  28.17  0.001252926    2.420    0.587
        53 -10.1253    167.8877    112.9593   9.5519629810e+01   2.5766926975e+01    0.3294155    0.2748033 -78.62  0.000637272    1.361    0.265
        54  -9.1612    203.4782    111.5120   8.7797700157e+01   1.7630160469e+01    0.1512783    0.1477364 -48.47 4.538638e-05    1.047    0.045
        55 -11.2113    242.4692     93.0665   7.6896608834e+01   1.2115318599e+01    0.3447178    0.2437658  -9.66  0.001596087    2.191    0.544
        56  -8.5618    184.4980     77.4954   8.2666754128e+01   2.8522399489e+01    0.1498718    0.1452172  71.43 -2.043901e-06    1.058    0.055
        57  -9.2398    158.4600     76.5241   8.7713461274e+01   3.5093909154e+01    0.1504859    0.1462412  68.15 4.783617e-05    1.004    0.004
        58  -8.4838     45.8362     68.8686   1.1800959522e+02   5.7401190458e+01    0.1510073    0.1407311 -62.92 0.0002717462    1.301    0.231
        59 -11.6941      2.2628     61.9006   1.3176825281e+02   6.2225701296e+01    0.5681971     0.139677 -63.46  0.002237636    3.752    0.733
        60  -8.8374     31.7888     62.1245   1.2111212645e+02   6.0104341261e+01    0.1646104    0.1515277 -47.02 0.0007169464    1.243    0.195
        61 -11.6268     11.8007     54.1570   1.2636275661e+02   6.3151847186e+01    0.3410524    0.1981207  36.22  0.001785662    2.310    0.567
        62 -11.1470    237.5858    247.0881   1.0932301086e+02  -1.2218111359e+01    0.2754207    0.1996407 -39.36  0.001775216    1.717    0.418
        63  -9.6562     81.9708    248.9824   1.3854928601e+02   1.3004156426e+01    0.2030336    0.1147934  69.98  0.001074507    1.709    0.415
