#   1 NUMBER                 Running object number                                     
#   2 MAG_AUTO               Kron-like elliptical aperture magnitude                    [mag]
#   3 X_IMAGE                Object position along x                                    [pixel]
#   4 Y_IMAGE                Object position along y                                    [pixel]
#   5 X_WORLD                Barycenter position along world x axis                     [deg]
#   6 Y_WORLD                Barycenter position along world y axis                     [deg]
#   7 A_WORLD                Profile RMS along major axis (world units)                 [deg]
#   8 B_WORLD                Profile RMS along minor axis (world units)                 [deg]
#   9 THETA_WORLD            Position angle (CCW/world-x)                               [deg]
#  10 FWHM_WORLD             FWHM assuming a gaussian core                              [deg]
#  11 ELONGATION             A_IMAGE/B_IMAGE                                           
#  12 ELLIPTICITY            1 - B_IMAGE/A_IMAGE                                       
         1 -13.0938    188.9054     32.3399   6.2047228327e+01   3.4356029900e+01     1.357192    0.9702193  18.71  0.007100797    2.505    0.601
         2 -11.1713    212.3083      2.5600   5.3266796629e+01   3.2550948440e+01    0.6281257    0.2257374  72.95   0.00306804    2.326    0.570
         3 -10.2105    172.6624    219.0993   1.0719297156e+02   1.9741939057e+00     0.254472    0.1889248  45.15  0.001307524    1.369    0.269
         4 -19.4516     20.3946    140.6518   1.3205916692e+02   4.4189205723e+01     20.28921     3.206772 -68.22   0.05160337    6.195    0.839
         5 -10.0142    184.1272    215.7291   1.0414307745e+02   6.5261494651e-01    0.2448509     0.196239 -55.14  0.001233338    1.423    0.297
         6  -9.5341     82.3075    195.2900   1.2409661614e+02   2.2977890132e+01    0.2770208     0.230001 -84.68  0.001278586    1.142    0.124
         7 -12.1732     71.2497    189.9510   1.2599581167e+02   2.5950848959e+01     1.048392       0.6799 -52.96  0.004550435    1.557    0.358
         8  -9.1460     58.5591    187.9220   1.2880290263e+02   2.8225175192e+01    0.3622227     0.288978 -16.43  0.001933847    1.819    0.450
         9  -8.7586    110.3059    211.3253   1.1991398466e+02   1.4597211208e+01    0.1402512    0.1144086 -19.05 0.0003388753    1.647    0.393
        10  -9.1133     99.3035    180.9671   1.1754663477e+02   2.3751836947e+01    0.2495979    0.2179162  45.37 0.0006658529    1.171    0.146
        11 -10.8835     98.6325    169.4448   1.1561527254e+02   2.6738693664e+01    0.6002743    0.2980789  52.72  0.002255182    2.388    0.581
        12  -8.0272    163.4700    203.5769   1.0637541479e+02   6.8036997821e+00    0.1440178    0.1385329  18.70 8.957547e-05    1.011    0.011
        13  -9.6756    195.5485    169.0777   9.2496955430e+01   8.0865196917e+00    0.3007765    0.2919487 -62.70 0.0006089819    1.095    0.087
        14 -10.9420     97.4788    155.0921   1.1310592283e+02   3.0533691345e+01    0.7355055    0.4384581 -34.32  0.002942614    2.170    0.539
        15  -8.8371    189.2081    154.7896   9.0718203148e+01   1.2373760389e+01    0.2138047    0.1819781 -10.61  0.001078909    1.356    0.262
        16  -9.7824    134.3349    148.1800   1.0188910162e+02   2.5239959152e+01    0.5696482    0.1557429 -52.03  0.001529385    3.881    0.742
        17 -10.4179    108.5538    140.2695   1.0688189165e+02   3.2200828134e+01    0.5294327    0.3035459 -37.16  0.002092333    2.014    0.504
        18 -10.7947     96.9228    140.2132   1.1009276525e+02   3.4323737388e+01    0.3018889    0.2804559 -25.57 0.0003532277    1.146    0.128
        19  -9.8331     78.6476    133.4252   1.1383867846e+02   3.9017980918e+01     0.350193    0.1652639 -49.78  0.001393391    1.944    0.485
        20  -9.6310    105.9972    131.0020   1.0543396215e+02   3.4911351600e+01    0.4126748    0.2907339 -64.16  0.001613326    1.547    0.354
        21  -9.4336    103.2257    126.8448   1.0521762222e+02   3.6413575530e+01    0.2997395    0.2504557 -37.06 0.0006696646    1.205    0.170
        22  -9.8980    115.2442    130.6740   1.0280505031e+02   3.3220507595e+01    0.3787425     0.288343 -12.91  0.001457671    1.754    0.430
        23  -9.7690    119.8409    125.1537   1.0021108813e+02   3.3597152292e+01    0.3298654    0.2254552  -9.96  0.001283654    2.412    0.585
        24  -9.2006    135.5004    128.9871   9.7059099076e+01   2.9487767555e+01    0.2487888     0.152632 -48.04  0.001033588    1.592    0.372
        25  -8.7561    126.6703    128.3260   9.9177575225e+01   3.1476863910e+01     0.161975    0.1248101  87.39 -0.0002286072    1.704    0.413
        26  -8.7566    160.6823    127.3704   9.0589432701e+01   2.4411989239e+01    0.1658401    0.1225566 -81.84 0.0007035058    1.790    0.441
        27  -9.2565    135.9195    122.8722   9.5438238321e+01   3.0783309974e+01    0.2795229    0.2317351 -66.14 0.0007387566    1.289    0.224
        28  -8.9827    110.8213    119.2556   1.0120618733e+02   3.6736474776e+01    0.2229193    0.2091965  82.45 0.0005530664    1.147    0.128
        29  -7.9603    156.6715    202.3392   1.0767134007e+02   8.3193754784e+00    0.1511324    0.1167385  78.43 7.869578e-05    1.735    0.424
        30  -8.9384    167.9434    112.7923   8.5404344030e+01   2.5894471244e+01    0.3001565     0.195485 -69.76  0.001223545    2.063    0.515
        31  -8.2971    205.4980    110.4511   7.7571947496e+01   1.8050436856e+01    0.1448269    0.1339826 -59.52 0.0001567131    1.046    0.044
        32  -8.9908     94.8701    200.2059   1.2182373907e+02   1.9787746045e+01    0.3133793    0.1993166 -80.57 0.0008271641    1.847    0.459
        33  -8.0592    134.6957    103.3582   9.0705034925e+01   3.5257673731e+01    0.1582511    0.1209289 -81.94 0.0007039419    1.721    0.419
        34  -9.6918     84.5564    200.8691   1.2438390710e+02   2.1273980854e+01    0.3047135    0.1611868  53.35 0.0009488612    1.991    0.498
        35  -8.2978    209.5252    199.4548   9.5848023680e+01  -5.5158614420e-01    0.1382043    0.1267883 -16.40 7.508647e-05    1.029    0.028
        36  -8.8642    115.3154    199.6488   1.1684172382e+02   1.6449494449e+01    0.1567839    0.1116123  76.00 0.0005163325    1.732    0.423
        37  -9.8577    168.8978     68.6869   7.4035628857e+01   3.3830935231e+01    0.3619238    0.2119317 -77.54  0.001407881    2.804    0.643
        38  -9.0768    101.1268    198.8121   1.2010383172e+02   1.9086565283e+01    0.1954298    0.1777842 -20.09  0.000582225    1.344    0.256
        39 -11.5144    174.3590     47.1421   6.7656383360e+01   3.5772734925e+01    0.4512074    0.3981718  48.96  0.001147984    1.261    0.207
        40  -8.2982    198.7500    222.6167   1.0237014635e+02  -3.0882410376e+00    0.1788098    0.1221079  42.52  0.000626459    1.541    0.351
        41 -10.0827    193.3768    192.4735   9.7755475017e+01   3.6498036591e+00    0.6770452    0.3524978 -48.17  0.002887248    1.932    0.482
