#   1 NUMBER                 Running object number                                     
#   2 MAG_AUTO               Kron-like elliptical aperture magnitude                    [mag]
#   3 X_IMAGE                Object position along x                                    [pixel]
#   4 Y_IMAGE                Object position along y                                    [pixel]
#   5 X_WORLD                Barycenter position along world x axis                     [deg]
#   6 Y_WORLD                Barycenter position along world y axis                     [deg]
#   7 A_WORLD                Profile RMS along major axis (world units)                 [deg]
#   8 B_WORLD                Profile RMS along minor axis (world units)                 [deg]
#   9 THETA_WORLD            Position angle (CCW/world-x)                               [deg]
#  10 FWHM_WORLD             FWHM assuming a gaussian core                              [deg]
#  11 ELONGATION             A_IMAGE/B_IMAGE                                           
#  12 ELLIPTICITY            1 - B_IMAGE/A_IMAGE                                       
         1 -13.0337    213.9457     47.4037   5.6409929751e+00   2.6255711126e+01    0.7087396    0.6015998 -30.45  0.001563125    1.302    0.232
         2 -12.4960    242.4992     27.7729   3.5912378555e+02   2.3050407852e+01    0.6473117    0.4279937  74.02    0.0042298    1.752    0.429
         3 -12.4180    241.7473     22.2167   3.5797756449e+02   2.3822392091e+01    0.6686021    0.4122195  72.76  0.004254625    1.872    0.466
         4 -12.0993      3.5951     24.2005   6.4577009119e+01   7.5781550663e+01    0.6027735      0.46944  63.95  0.003651745    1.638    0.389
         5 -11.4335      8.4232      9.1018   5.1876204080e+01   7.8427388472e+01    0.4940434    0.1586016  37.08  0.002021061    3.253    0.693
         6 -11.1426      1.8058      7.6213   5.7949615688e+01   7.9339403624e+01    0.7904324    0.1333001 -57.90  0.002550973    5.129    0.805
         7 -10.3155    103.8073      8.1541   6.7080895998e+00   5.8178653465e+01    0.4409941    0.2146839 -76.29  0.001699562    2.728    0.633
         8 -10.4856     47.1047    229.0357   7.5879294324e+01   2.0736571819e+01    0.2326389    0.1617382  50.96 0.0008391549    1.145    0.126
         9  -9.6445    101.2874    249.0354   6.5513934040e+01   1.0577892285e+01    0.3406279    0.1353626 -53.06  0.001712263    3.094    0.677
        10 -12.8425     84.8778    144.1537   5.6186437995e+01   3.4963479681e+01     0.897799    0.7596102 -80.28   0.00304459    1.201    0.167
        11 -15.3221     67.2635    143.9368   6.1606218586e+01   3.7849359963e+01     9.975755     4.737894 -87.90    0.0317529    3.637    0.725
        12 -10.1543    174.5324    223.0709   4.7666310028e+01   5.2032779683e+00    0.1847599    0.1356677  21.50 0.0006553832    1.149    0.130
        13 -10.6902    110.0473    223.0380   6.0950971543e+01   1.3890761550e+01    0.1974416    0.1639014  34.83 0.0006791028    1.014    0.014
        14 -11.0396    165.4419    223.0277   4.9390700539e+01   6.3887553278e+00    0.3678177    0.1959049  48.05  0.001864802    2.492    0.599
        15  -8.8404     63.7562    234.6293   7.2472984494e+01   1.7711261315e+01    0.1072574   0.09109609 -24.32 0.0004742788    1.620    0.383
        16  -8.7813    144.3190    212.1697   5.2121851771e+01   1.1005906237e+01    0.1543914    0.1179122 -60.39 0.0007736526    1.692    0.409
        17  -8.9603    132.2105    211.4064   5.4605065892e+01   1.2866524788e+01    0.1709358    0.1046951  39.50 0.0009179048    1.453    0.312
        18  -9.9479    210.9641    198.6511   3.7467717289e+01   3.9959811836e+00    0.1914041    0.1508854 -27.49 0.0005285597    1.240    0.194
        19 -10.0782    193.4562    195.7308   3.9998368667e+01   6.7270781222e+00    0.4747102    0.2629081 -62.64  0.001614312    6.632    0.849
        20 -11.4641     68.0793    192.1226   6.7657388536e+01   2.5967233916e+01    0.4709586    0.2595774  79.03  0.001511087    2.373    0.579
        21 -11.0272     74.4833    190.9353   6.5850551410e+01   2.5356315540e+01     0.318623    0.2315916 -83.52  0.001012418    1.517    0.341
        22 -10.7654     71.2482    184.2901   6.5945595039e+01   2.7322140096e+01    0.3595977     0.242945  81.35  0.001808921    1.666    0.400
        23 -16.3821     14.2960    152.8962   7.9701637350e+01   4.1816309565e+01     12.83053     3.888939  79.24   0.03851409    4.461    0.776
        24  -9.0726     78.4782    183.9541   6.3969224260e+01   2.6371318867e+01    0.1899334    0.1380818 -71.21 0.0004168391    1.492    0.330
        25 -11.7178     63.5037    181.8997   6.7778552196e+01   2.8945272882e+01    0.3760382    0.2599085  55.12  0.000966213    1.314    0.239
        26 -10.4429    116.1310    182.0712   5.4052563667e+01   2.0986912957e+01    0.2116218    0.1884582  -2.00  0.001224594    1.250    0.200
        27  -9.5410    174.7269    179.9839   4.0811752333e+01   1.1970432248e+01    0.1791392    0.1591034 -18.23 0.0005543737    1.082    0.075
        28 -10.3155    171.8684    175.2758   4.0536126416e+01   1.3228520685e+01    0.3116963    0.2606899 -59.44  0.001051896    1.484    0.326
        29 -10.8934    173.7870    171.4977   3.9473790443e+01   1.3579800557e+01    0.3548325    0.2517137 -63.01  0.001588925    1.995    0.499
        30 -11.0917    102.7753    169.6948   5.5485491363e+01   2.5861386014e+01    0.5786438    0.4121638  64.18  0.002841852    1.581    0.368
        31 -14.7515     14.0973    242.5653   8.3830957780e+01   2.1566470681e+01    0.8493425    0.4710357  27.68   0.00356654    1.621    0.383
        32 -10.6085    234.7847    170.5104   2.8978685976e+01   4.8093922531e+00    0.2083939      0.13406 -31.41 0.0006693949    1.307    0.235
        33 -10.7959    179.8295    166.4996   3.7381064507e+01   1.3470107141e+01    0.5937548    0.3107369 -57.74  0.002462484    3.069    0.674
        34 -10.8342     82.0133    220.7959   6.7110940092e+01   1.8074893484e+01    0.4281824     0.214759  45.43  0.001026673    1.688    0.408
        35  -9.2113    110.6951    167.1180   5.2998558809e+01   2.5116101919e+01    0.2237596    0.1787903  87.89 0.0007877243    1.482    0.325
        36 -11.5300     98.4908    226.0488   6.3865717548e+01   1.4901925754e+01    0.6219602    0.4949561  15.09  0.003938536    1.316    0.240
        37 -11.2155    238.3318    159.6530   2.6533893177e+01   5.8332389465e+00     0.390525    0.1719318 -22.87  0.001796579    2.771    0.639
        38  -9.3343    231.2990    160.6555   2.7712703311e+01   6.6442031509e+00    0.1094751   0.08644855 -53.93  0.000703605    1.675    0.403
        39 -10.8704     46.7148    159.4600   7.0150993472e+01   3.6673604946e+01    0.2666011     0.213439  64.42 0.0002681509    1.122    0.108
        40 -10.3478    127.0278    157.8866   4.7224416857e+01   2.4288434621e+01    0.3463156     0.230723 -63.88  0.001090629    1.759    0.431
        41  -9.5709     90.2839    156.6566   5.6768863270e+01   3.0982344141e+01      0.24487    0.1993866  70.02 0.0006438589    1.258    0.205
        42 -10.9501    133.6506    145.1219   4.3084033561e+01   2.5817523778e+01      1.13833    0.2618821 -53.68   0.00271624    6.173    0.838
        43  -8.8242    123.6629    150.3260   4.6608968465e+01   2.6554473235e+01    0.2326302    0.1742539  81.24  0.001088714    1.756    0.430
        44 -14.3878     43.7306    177.7965   7.2878521680e+01   3.2450528168e+01     3.465464     2.071749 -33.31   0.01517508    2.712    0.631
        45 -10.7036    108.8706    145.2262   4.9493765952e+01   3.0449427599e+01    0.3048084    0.2791924  71.90 0.0006603631    1.084    0.077
        46 -10.6758     36.8269    142.3410   7.1376586318e+01   4.2341071170e+01    0.3616702    0.2282565 -76.17 0.0009001054    1.522    0.343
        47 -10.6658     28.5521    142.7465   7.4202512837e+01   4.3134912335e+01    0.4338991    0.3101667  16.20  0.002116344    1.622    0.383
        48  -9.1082    210.2308    142.0027   2.7315547695e+01   1.2585679037e+01    0.1808866    0.1396483 -34.39 0.0004966536    1.138    0.122
        49 -10.9136     44.6830    134.9289   6.7750845971e+01   4.3380706050e+01    0.4080514    0.2882262  79.38 0.0004602398    1.423    0.297
        50 -11.6378     42.9573    131.4946   6.7871665858e+01   4.4520382276e+01     0.770795    0.5600446  18.04  0.003261701    1.593    0.372
        51 -14.5246      5.1947    228.5565   8.5364266637e+01   2.5115868540e+01    0.4037914    0.2836439  42.67  0.001874403    1.136    0.120
        52 -11.6182    103.9850    131.4366   4.8025399504e+01   3.4641897506e+01    0.7167051    0.5231448  11.54  0.002503312    1.970    0.492
        53 -11.6028     88.0926    131.9993   5.2883547978e+01   3.7453537608e+01    0.2937225    0.2802921 -86.75 0.0003857834    1.055    0.052
        54 -14.8921     10.3579    206.0651   8.3453690587e+01   2.9367263748e+01    0.7289815    0.4250532  11.42  0.002454735    2.222    0.550
        55 -10.0276    110.3801    126.3833   4.5092116043e+01   3.4597126061e+01    0.2855733    0.2631291  -2.60 0.0002067262    1.282    0.220
        56  -8.9646     35.0012    123.9998   6.9704358735e+01   4.7494738368e+01    0.2152901    0.1650795 -41.99 0.0004021617    1.515    0.340
        57 -13.4667    126.6012    229.8410   5.8155586028e+01   1.0477576579e+01     1.424423    0.5036572  34.49  0.006395962    2.258    0.557
        58 -11.1562     45.6941    241.1919   7.6918357001e+01   1.8562367458e+01    0.2101247    0.1634191 -83.70   0.00144702    1.495    0.331
        59 -10.5199    134.7122    122.3372   3.7775928453e+01   3.0535062775e+01    0.5292289    0.1315672 -44.91   0.00146161    4.078    0.755
        60 -10.0894     97.4824    121.3788   4.7711879004e+01   3.8338103236e+01    0.2863015    0.2573136   6.01 0.0007741102    1.351    0.260
        61  -9.3452     76.5040    120.4886   5.4228712183e+01   4.2436494851e+01     0.156693    0.1454864  76.11 0.0008105634    1.008    0.007
        62 -10.5910     26.9430    118.1573   7.1975138098e+01   4.9946143270e+01    0.3754821    0.1861453  44.25  0.001601352    1.929    0.482
        63  -9.1695    142.5581    117.9599   3.4865936590e+01   2.9817143109e+01    0.2163815    0.1442494 -46.78 -2.063592e-05    1.471    0.320
        64 -11.2625     43.5166    237.9115   7.7215350389e+01   1.9420325855e+01    0.2305316    0.1824342  74.33 0.0004984948    1.287    0.223
        65  -9.4574    106.9942    116.0422   4.3627932696e+01   3.7725457205e+01    0.2290862    0.2163965  84.72  0.001198557    1.014    0.013
        66  -9.0141    139.7779    113.7216   3.4472742641e+01   3.1299368770e+01    0.2083516    0.1739299 -84.72 0.0008202774    1.341    0.254
        67 -12.5139    110.6629    229.0715   6.1493703287e+01   1.2737655976e+01    0.9639078    0.2837715  34.19  0.003926236    2.630    0.620
        68  -8.5183    198.2986    240.6789   4.5857196635e+01   5.8400005563e-03   0.09202317   0.08067084  35.41 0.0004853577    1.622    0.383
        69 -11.8219     29.3814    108.0691   6.9582628608e+01   5.2450518116e+01    0.6543733    0.2477934  42.47   0.00188718    2.536    0.606
        70 -11.3527     24.2660    105.0402   7.1253031604e+01   5.3787701417e+01    0.4222957     0.321066  44.94  0.001808944    1.308    0.235
        71 -10.2634    114.8195    108.2061   3.9436839245e+01   3.7904976936e+01    0.2145439    0.1939288  -2.67 0.0009673691    1.362    0.266
        72 -10.4082    133.2926    104.1132   3.3561376488e+01   3.4749922610e+01    0.4734248    0.2911169 -74.04  0.001767102    2.558    0.609
        73 -10.5054    112.4270    102.6805   3.8647088187e+01   3.9681654473e+01     0.294758     0.150779 -52.96  0.000903925    1.999    0.500
        74 -11.7519    148.3119    227.5156   5.3379492061e+01   7.9608816174e+00    0.3486343    0.2316623 -42.85  0.001648063    1.725    0.420
        75 -10.7496     31.3178     95.8288   6.6696149975e+01   5.5566084635e+01    0.7239197    0.1906305  44.61  0.002138077    4.084    0.755
        76 -11.3647    147.9659    221.9513   5.2712805679e+01   8.8875051288e+00    0.3417268    0.2364928 -32.32  0.001130886    1.616    0.381
        77 -10.5009     53.1251     90.1477   5.5984590874e+01   5.4198567584e+01     0.264394    0.2185514 -85.59 0.0006245417    1.240    0.194
        78  -9.8414     57.9341     87.5222   5.3284560034e+01   5.4108040532e+01    0.3146842    0.2167713 -80.44  0.001165264    1.685    0.407
        79 -10.4846     52.3845     82.2184   5.4202944631e+01   5.6346293210e+01    0.5527544    0.2649439  54.53  0.001389866    2.735    0.634
        80  -9.5158     48.5240     80.0553   5.5322589048e+01   5.7487510167e+01    0.2203522    0.2035776 -30.10 0.0003376576    1.177    0.150
        81 -10.2153     38.3619     84.6621   6.1162917452e+01   5.7707709856e+01    0.4813674    0.1980232  46.00  0.001729994    2.650    0.623
        82 -10.0844     27.5609     84.5960   6.6236302195e+01   5.8973886692e+01    0.2729836    0.2228067  66.50 0.0001450317    1.264    0.209
        83  -9.7180     72.1828    224.4243   6.9731343058e+01   1.8631803331e+01    0.1821829    0.1676125  75.78 0.0003904167    1.213    0.176
        84 -10.0725     22.9251     82.8845   6.8138042546e+01   5.9888188382e+01    0.2089824     0.193483  87.92 0.0003230466    1.043    0.041
        85  -9.5414     30.0591     80.7085   6.4195187890e+01   5.9731574440e+01     0.192749    0.1852443  50.63 0.0006273179    1.082    0.076
        86 -10.1956     16.8007     80.9048   7.0802046733e+01   6.0951458048e+01    0.2376271    0.1965044  39.75 0.0003430014    1.263    0.208
        87  -9.2544     71.8467     79.4983   4.5329162786e+01   5.3598638785e+01    0.2975759     0.201062 -75.48 0.0007996343    1.848    0.459
        88 -17.4202      5.0339    217.2371   8.5088077051e+01   2.7449648898e+01     3.204495     1.486986  78.82   0.01702709    2.013    0.503
        89  -8.5908    132.7466     77.6617   2.6203762834e+01   4.0257709347e+01    0.1451303    0.1241612  -0.96 0.0003168165    1.571    0.364
        90  -9.6224     52.2799     74.4771   5.1998819719e+01   5.8296617698e+01    0.2536594    0.1937392  55.06 0.0004628747    1.383    0.277
        91  -9.1541    128.4732     72.9678   2.5752135712e+01   4.2197044229e+01    0.2292682    0.1470278 -45.24 0.0007124086    1.528    0.346
        92  -9.9146     82.3988     71.7310   3.8831888624e+01   5.3231551975e+01    0.3117821    0.2371378  89.99 0.0005120359    1.623    0.384
        93  -9.0696    132.4147     68.2695   2.3376385612e+01   4.2104288141e+01    0.2149682    0.1354839 -51.78 0.0005180162    1.578    0.366
        94 -11.7461    191.7088     63.0827   1.1917623680e+01   2.8822973868e+01    0.4327179    0.4056613  37.62 0.0009341442    1.345    0.257
        95  -9.1472    135.7965     62.3685   2.0776238992e+01   4.2315261147e+01    0.2011569    0.1364774  53.49 0.0002893291    1.512    0.339
        96 -11.2393     13.2683     60.0907   6.8506150690e+01   6.6618728239e+01    0.3380581    0.2415356 -58.70 0.0008717151    1.270    0.212
        97 -11.6534      7.4894     61.7344   7.2300120164e+01   6.6602163926e+01    0.2605874    0.2429289 -56.25  0.000907444    1.035    0.034
        98 -13.0058    206.0507     53.6444   7.9143237723e+00   2.7069471495e+01    0.9010042    0.8137532 -40.52  0.003420139    1.201    0.167
        99 -10.5248    102.8381    238.9078   6.4219468413e+01   1.2064832735e+01    0.2660216    0.1949326 -44.74 0.0006156013    1.708    0.415
       100  -9.3802     13.4768     45.5208   6.4446255802e+01   7.0171194644e+01    0.1296174    0.1227669 -52.14 0.0002539103    1.041    0.040
       101 -10.8268      4.8937     40.6522   6.9079928527e+01   7.1947876484e+01    0.3242472    0.2334942 -20.65  0.001534687    1.430    0.301
       102 -10.4134    125.5630    237.9875   5.9315594387e+01   9.2859145870e+00    0.2689019    0.1677549 -39.28  0.001022914    1.961    0.490
       103  -8.3356     41.2697     36.3091   4.2912479749e+01   6.8655607678e+01    0.1352059    0.1047367 -11.68 0.0002082478    1.543    0.352
       104 -11.4025     28.8711     35.4129   5.0085129975e+01   7.0741932087e+01     0.397758    0.3047888  42.35  0.001601893    1.385    0.278
       105 -10.7709    125.1400    244.7255   6.0145517251e+01   8.2784163636e+00    0.3636073    0.1610021 -55.86  0.001888906    2.909    0.656
       106 -11.0634     89.0053    223.3187   6.5740676455e+01   1.6669614595e+01    0.4507643    0.3218508  53.51  0.001856287    1.327    0.247
       107 -11.1224     36.0574    243.5252   7.9143202361e+01   1.9172429750e+01    0.3020532    0.2518769  29.75  0.001027611    1.282    0.220
       108  -9.5888     60.7383     21.1504   2.5188992727e+01   6.7381213856e+01    0.2349571      0.18193  65.84 0.0007219604    1.343    0.255
       109  99.0000     43.3401    233.7320   7.7018134900e+01   2.0241252351e+01    0.4013457    0.1344298  55.92  0.001714526    2.855    0.650
       110 -10.2209     43.3367    229.6659   7.6781886894e+01   2.1036622459e+01    0.3621614    0.1563977  37.13  0.001253685    1.708    0.414
