#   1 NUMBER                 Running object number                                     
#   2 MAG_AUTO               Kron-like elliptical aperture magnitude                    [mag]
#   3 X_IMAGE                Object position along x                                    [pixel]
#   4 Y_IMAGE                Object position along y                                    [pixel]
#   5 X_WORLD                Barycenter position along world x axis                     [deg]
#   6 Y_WORLD                Barycenter position along world y axis                     [deg]
#   7 A_WORLD                Profile RMS along major axis (world units)                 [deg]
#   8 B_WORLD                Profile RMS along minor axis (world units)                 [deg]
#   9 THETA_WORLD            Position angle (CCW/world-x)                               [deg]
#  10 FWHM_WORLD             FWHM assuming a gaussian core                              [deg]
#  11 ELONGATION             A_IMAGE/B_IMAGE                                           
#  12 ELLIPTICITY            1 - B_IMAGE/A_IMAGE                                       
         1 -13.1694    212.1941     48.5693   3.7695682104e+01   2.6971025900e+01     1.202369    0.9979047  81.88  0.007781245    1.177    0.151
         2 -13.7839    230.0323     34.1159   3.2913481683e+01   2.5216936033e+01     1.293058    0.9472957  45.56  0.008037628    2.026    0.506
         3 -12.0408      2.6385     35.7160   9.3951945663e+01   6.9184410859e+01    0.7592469    0.2026101 -59.17  0.002751488    4.650    0.785
         4 -12.2363      4.0001      6.5579   8.0973270370e+01   7.3748735743e+01    0.8302874    0.3682235 -31.60  0.004748331    2.005    0.501
         5  -9.9174     96.1280      4.8946   4.3415537122e+01   5.8396149151e+01    0.3809274    0.2329788 -80.10  0.001028793    2.672    0.626
         6 -11.0698     18.4160      2.6944   7.0424448485e+01   7.2659984235e+01    0.4013404    0.2294548  48.88  0.002150846    3.045    0.672
         7 -11.8030     45.0548    177.8969   1.0649092906e+02   3.1860013510e+01    0.4220349    0.3631003 -31.77  0.001136113    1.400    0.286
         8 -14.1357    100.9953    226.2305   9.8667276543e+01   1.2583846081e+01     6.570988     1.048991  41.33   0.01803629    4.934    0.797
         9  -8.7954    110.8203    167.8189   8.6834157609e+01   2.4636890465e+01    0.2032465    0.1763179  70.90 0.0003215454    1.257    0.204
        10 -12.3758     55.3440    126.3754   9.5204988713e+01   4.3960907886e+01     2.812769    0.9021727 -71.11  0.005517103    9.262    0.892
        11 -12.8742     68.2217    144.3573   9.4599165363e+01   3.7560040755e+01    0.9945894    0.6611698  66.36  0.003328444    1.925    0.480
        12 -10.9047     64.8640    162.1376   9.8712712033e+01   3.3406425912e+01    0.2785181    0.2673747 -65.78  0.000376428    1.063    0.059
        13 -13.2211     50.2567    158.3788   1.0237350754e+02   3.6282041888e+01    0.5596204    0.3569438 -35.05  0.001530167    1.938    0.484
        14 -14.1195     19.8458    197.3798   1.1486293946e+02   2.9709142403e+01     1.997231     1.195701  60.76  0.007700562    1.571    0.363
        15 -14.1202     11.0309    205.2061   1.1749261677e+02   2.8686093769e+01     1.422365    0.7836728 -58.18  0.001288439    1.909    0.476
        16 -10.3469     90.4198    142.6026   8.7512021105e+01   3.4527588946e+01    0.3652272    0.3377015 -79.91 0.0009796999    1.106    0.096
        17  -9.4648     94.2418    139.2249   8.5646686994e+01   3.4724322176e+01    0.3604967    0.2316722 -31.87  0.001424405    1.914    0.478
        18 -14.3511     40.8941    248.4297   1.1416388464e+02   1.5961964796e+01     6.037621     1.821665  29.09   0.02352758    3.613    0.723
        19 -10.8780     67.6318    129.2360   9.1765922910e+01   4.1540995365e+01    0.4132413    0.2383555 -82.29  0.001522686    2.729    0.634
        20 -10.7034    244.6687    131.8342   5.0992335585e+01   7.2760661726e+00     0.277827     0.102574 -35.68  0.001098376    2.636    0.621
        21 -10.5772    105.6878    130.8917   8.0369517766e+01   3.4711430012e+01    0.5116189    0.3771136  13.27  0.001473192    1.724    0.420
        22  -9.8789     91.2129    127.0001   8.3795095175e+01   3.8306954605e+01    0.3517435    0.2774481 -12.05  0.001648823    1.556    0.358
        23 -10.0770    239.5715    126.8171   5.0714743726e+01   8.9938439221e+00    0.1909366    0.1042721 -49.33 0.0006398254    1.643    0.391
        24  -9.4151    113.4716    124.7578   7.6640939681e+01   3.4681788604e+01    0.4786339    0.2661223  17.34  0.001504918    3.531    0.717
        25  -8.7105    137.4975    134.9230   7.2619936024e+01   2.7434537293e+01    0.2343002    0.1529463 -52.43   0.00099721    1.544    0.352
        26  -8.5461     68.9769    208.2866   1.0405874672e+02   2.1284795991e+01    0.1817996    0.1644226  62.10 0.0004755001    1.026    0.025
        27  -9.4501    103.1401    119.3591   7.8311395424e+01   3.7972704458e+01    0.2358378     0.206203 -34.59 0.0004033324    1.157    0.136
        28 -11.9878     77.6329    140.4949   9.0946618752e+01   3.7147912210e+01    0.3558021    0.2953803 -51.59 0.0006079161    1.156    0.135
        29  -9.8661     23.9005    117.0016   1.0415402913e+02   4.9705602924e+01     0.208214     0.178018 -55.49 0.0004128563    1.027    0.026
        30  -9.3972    204.5165    110.8590   5.2740643440e+01   1.8393355474e+01    0.2854946    0.1850194  35.03  0.001339297    2.051    0.512
        31 -10.5946    244.4912    108.4921   4.6346221669e+01   1.1283541242e+01    0.2379273    0.1101177 -32.60  0.001037326    2.378    0.579
        32 -12.6006     74.0748    155.8189   9.4948962500e+01   3.3727834480e+01     1.526585    0.8710502  63.32  0.002057617    2.472    0.595
        33 -11.5026     14.1398    187.2512   1.1540483968e+02   3.2703855318e+01     0.459706    0.3607664  78.54  0.002847046    1.100    0.091
        34  -9.5639     54.3939     93.6107   8.7987684330e+01   5.2102369711e+01    0.3471206    0.1433107  23.11  0.001258946    2.995    0.666
        35 -12.2450      2.4441     78.7844   1.0530269575e+02   6.0329075331e+01     1.215795          nan -61.16  0.003447854    5.413    0.815
        36  -9.6531    249.5198     87.9907   4.1660738198e+01   1.3739226821e+01    0.1652822     0.103991 -21.25 0.0005912347    2.496    0.599
        37 -10.9532    164.0402     84.6378   5.3735863355e+01   3.2030346509e+01    0.3415205    0.2759627  45.51  0.001780947    1.320    0.242
        38  -8.9097    184.5998     77.2602   4.8150964089e+01   2.8637005608e+01    0.1856531    0.1331145 -30.85 0.0004274847    1.568    0.362
        39 -10.3353     13.4579     60.1708   9.6011573480e+01   6.3691240737e+01    0.2327846    0.1860681 -30.43 0.0004419868    1.029    0.028
        40 -10.2751    114.5886    244.7034   9.7957260478e+01   6.7898575486e+00    0.2945142     0.132529 -59.93  0.001307232    2.649    0.623
        41 -12.1194      9.9891    249.4534   1.2033049965e+02   1.9117928630e+01     1.425084    0.5558439  36.41   0.00752992    2.189    0.543
        42 -15.1168     29.2466    187.2887   1.1165281225e+02   3.1235367210e+01     9.430044     3.454639  85.01   0.02647312    5.616    0.822
        43  -8.5811     94.5436     46.5371   5.8921150158e+01   5.4065041731e+01    0.1367942    0.1244922  32.84 8.238872e-05    1.007    0.007
        44  -9.6409    191.9576    193.2117   7.2568908395e+01   4.6373089657e+00    0.3932374    0.1997883 -60.79  0.001350939    3.965    0.748
        45 -11.6909     52.3701    171.7392   1.0368997499e+02   3.2555868224e+01    0.3315684    0.2812741 -36.36 0.0004329667    1.355    0.262
