#   1 NUMBER                 Running object number                                     
#   2 MAG_AUTO               Kron-like elliptical aperture magnitude                    [mag]
#   3 X_IMAGE                Object position along x                                    [pixel]
#   4 Y_IMAGE                Object position along y                                    [pixel]
#   5 X_WORLD                Barycenter position along world x axis                     [deg]
#   6 Y_WORLD                Barycenter position along world y axis                     [deg]
#   7 A_WORLD                Profile RMS along major axis (world units)                 [deg]
#   8 B_WORLD                Profile RMS along minor axis (world units)                 [deg]
#   9 THETA_WORLD            Position angle (CCW/world-x)                               [deg]
#  10 FWHM_WORLD             FWHM assuming a gaussian core                              [deg]
#  11 ELONGATION             A_IMAGE/B_IMAGE                                           
#  12 ELLIPTICITY            1 - B_IMAGE/A_IMAGE                                       
         1 -13.2754    127.7248     30.2385   8.1276931259e+01   4.9217594997e+01     1.409076    0.9108689  -3.36  0.006901099    1.990    0.497
         2 -14.1021    175.1681     33.7465   7.3242950474e+01   3.7384561209e+01     1.072055    0.8655285  16.96  0.003900474    1.570    0.363
         3 -12.6874    179.0679     26.8159   7.0719425602e+01   3.7264762369e+01    0.5387336    0.4043142  37.25  0.001563891    1.534    0.348
         4 -11.4455      6.9377     11.6908   1.1518208152e+02   7.0332116720e+01    0.3767578     0.164384   7.47  0.002080363    2.830    0.647
         5 -12.1214     12.5138      4.3449   1.0947652237e+02   7.0875265607e+01     0.398266      0.23793 -27.75  0.002858712    1.309    0.236
         6 -12.2746      3.8870      3.0585   1.1301455455e+02   7.1734769990e+01    0.4337902    0.2494194  -5.62  0.002242317    1.567    0.362
         7 -12.8072    193.3376      2.9141   6.2636999164e+01   3.6327977933e+01    0.7595744    0.3207922  72.29  0.003426035    2.055    0.513
         8 -10.7445     87.3454    224.6698   1.3582997440e+02   1.6927362248e+01    0.2887783    0.1820364  47.59  0.001040622    1.431    0.301
         9 -15.4107    244.8188    175.5816   9.5737225793e+01  -2.9239928637e+00     3.625329    0.9293225 -39.86  0.006239563    3.690    0.729
        10 -15.7362    236.8021    195.6910   1.0124830877e+02  -4.7632056564e+00     2.537439     1.618157 -11.13   0.01212094    1.901    0.474
        11 -16.1349    157.9005    198.3099   1.1750379651e+02   9.7903794869e+00     2.341876     1.670713 -84.76  0.009172408    1.980    0.495
        12 -19.5926     45.8889    144.6716   1.3454441900e+02   4.0442194075e+01     20.44408     2.701746 -64.93   0.04873887    7.283    0.863
        13 -10.8523     78.6719    200.6753   1.3473078723e+02   2.3262270937e+01    0.2285517    0.1867159  59.39 0.0004898612    1.159    0.137
        14  99.0000     16.0176    206.2037   1.4743191074e+02   2.9901886752e+01    0.1614384     0.110942  75.63  0.001122493    1.132    0.116
        15 -11.1202     11.6208    205.6899   1.4817734246e+02   3.0445671757e+01    0.2439306    0.1892764  68.76  0.001018117    1.209    0.173
        16 -11.7445     83.0562    193.6260   1.3289987201e+02   2.4145636535e+01     1.030908    0.6576031 -25.16  0.004046049    4.114    0.757
        17 -11.2147     83.2112    187.5522   1.3203836562e+02   2.5478183273e+01    0.5784512    0.4833071 -23.27  0.003275154    1.832    0.454
        18  -9.6699     99.5171    180.8594   1.2740948724e+02   2.4365001847e+01    0.1974116    0.1312939 -61.55  0.000526433    1.467    0.318
        19 -10.8682    197.7562    175.4056   1.0468510209e+02   6.2406652958e+00    0.3719333    0.2515399 -51.66  0.001347038    1.644    0.392
        20 -12.0016     94.2674    172.8614   1.2732838985e+02   2.7072979104e+01    0.7445628    0.2991061 -43.35  0.002507942    3.756    0.734
        21  -9.6542      1.5806    177.2689   1.4793471813e+02   3.7330738659e+01     0.102143   0.08152065  87.91            0    1.130    0.115
        22 -15.9281    162.8960    228.3670   1.2145292925e+02   3.2591397223e+00     1.781304     1.543074  64.56  0.009216606    1.191    0.161
        23 -11.1425    116.8573    249.0353   1.3304617807e+02   7.6410470132e+00    0.2004285    0.1661396 -63.13 0.0006323023    1.439    0.305
        24 -17.5982    192.7303    220.5388   1.1429288532e+02  -8.5820441556e-01     4.726052      3.10108 -23.02   0.01890416    1.939    0.484
        25 -10.9402    203.9414    167.6022   1.0177929872e+02   6.4566020740e+00    0.4226253    0.3290666  55.52  0.002138504    1.391    0.281
        26 -10.5542    100.4119    161.9017   1.2399529454e+02   2.8590879275e+01    0.2305853    0.2060289  43.65 0.0004282762    1.217    0.178
        27  -9.7914     14.2701    159.9933   1.4380198548e+02   4.0046673621e+01    0.1683451     0.118478 -77.21 0.0003634038    1.100    0.091
        28 -12.6749     89.9641    156.4068   1.2555367735e+02   3.1624624970e+01    0.3621052    0.2894137 -31.31  0.001167107    1.617    0.381
        29 -10.1780    139.9798    156.5162   1.1343600396e+02   2.2327671680e+01    0.2216161    0.2030844 -64.18 0.0003483729    1.086    0.079
        30 -11.1721    104.3951    154.9799   1.2173915976e+02   2.9520596515e+01     0.537723    0.3474803 -37.63  0.001758573    1.938    0.484
        31 -11.3803    163.0947    154.8594   1.0772522669e+02   1.7801052272e+01    0.2474498    0.2167823  82.09  0.001247918    1.248    0.199
        32 -11.5569    175.0079    149.0317   1.0375822937e+02   1.6435508451e+01     0.244339    0.2375058  80.39 0.0007798294    1.037    0.035
        33 -11.9330    133.9227    145.0382   1.1241060424e+02   2.6178488215e+01    0.9397188     0.221068 -53.14  0.002275295    5.225    0.809
        34 -10.0723     91.5632    148.1139   1.2363019776e+02   3.3325765906e+01     0.237718    0.1853407  58.58  0.000563118    1.327    0.246
        35  -9.5372     30.5983    213.5243   1.4537383480e+02   2.6828684248e+01    0.1151211   0.08744082  86.29 0.0003893326    1.072    0.067
        36 -10.7091     11.3034    142.7233   1.4262627214e+02   4.4156926988e+01    0.1640507    0.1420028  49.70 0.0004493273    1.395    0.283
        37 -11.0792    113.6451    139.2135   1.1619230303e+02   3.1528562721e+01    0.4825193    0.2071782 -37.91  0.001537297    3.416    0.707
        38 -11.3192    102.6117    139.9697   1.1918343570e+02   3.3368359930e+01    0.2693288    0.2463655 -60.92 0.0004215789    1.058    0.055
        39 -11.3660    171.0235    137.5114   1.0196025238e+02   1.9773470148e+01    0.2469908     0.154313  48.52   0.00103609    1.602    0.376
        40 -11.5288     22.6505    135.7271   1.3904387319e+02   4.4811118319e+01    0.2220577    0.1789146 -66.51 0.0003037533    1.098    0.089
        41 -10.6453    105.9639    130.9812   1.1636380314e+02   3.4872328731e+01    0.3480543     0.292548 -64.95  0.001388165    1.155    0.134
        42 -10.5724    106.8667    126.7744   1.1516979577e+02   3.5683937577e+01    0.2883951    0.1981641 -37.96 0.0007564414    1.582    0.368
        43 -12.3251     76.8768    203.8535   1.3548845951e+02   2.2841535235e+01    0.4824993    0.2594559 -54.77  0.001991663    2.032    0.508
        44 -14.9796    191.1066    118.0518   9.2894493279e+01   1.9148145444e+01      1.34128     1.122709 -28.63  0.004046268    1.269    0.212
        45 -13.1928    191.6323    109.1297   9.0544713596e+01   2.0788029998e+01    0.6411766    0.3977535 -44.47  0.002651419    1.582    0.368
        46 -11.2000    118.6158    130.3234   1.1291541483e+02   3.2634166491e+01    0.2880551    0.2660752 -24.98 0.0008059574    1.197    0.165
        47 -12.8675    160.5095    128.3697   1.0214210893e+02   2.4121824783e+01    0.4631265    0.3588314 -46.38  0.002180253    1.285    0.222
        48 -11.9448      4.1945    127.3581   1.4254497886e+02   4.8096399990e+01    0.3296711    0.1998499 -64.80  0.001079089    1.259    0.206
        49 -11.2166    125.2421    127.1430   1.1046098542e+02   3.2040314433e+01    0.3069093     0.202013  70.27  0.001247039    2.122    0.529
        50 -13.0185     19.5754    121.6865   1.3787375772e+02   4.8249183244e+01    0.6543559    0.2998815 -40.11  0.003108498    2.647    0.622
        51 -12.0018    135.4904    122.7155   1.0678051176e+02   3.0900623853e+01    0.5732743     0.182048 -48.82  0.001730229    3.191    0.687
        52 -13.6638    201.5171    104.3499   8.7413073932e+01   1.9348897017e+01      1.09647    0.7575154  41.57  0.004988991    1.594    0.372
        53 -10.6787     85.1245    121.6907   1.1991064935e+02   4.0581213251e+01    0.1913261    0.1908947  19.76  0.001071594    1.109    0.098
        54 -11.9649      3.1447    119.2362   1.4180763013e+02   4.9958185803e+01    0.4449361    0.1984356 -61.75  0.001639042    1.640    0.390
        55 -12.3455      7.8815    115.3102   1.4005441402e+02   5.0519526716e+01    0.4515273    0.3296064  77.04  0.002005002    1.503    0.334
        56  -9.8248    112.9906    119.2598   1.1175535965e+02   3.6255536205e+01    0.2046586    0.1950738  51.04 0.0003608008    1.089    0.082
        57 -11.8342    168.3117    113.5246   9.6618873746e+01   2.5455320743e+01    0.4045833    0.2849689  75.72  0.001197431    1.857    0.461
        58 -11.9184    247.5980    110.6464   8.1080295179e+01   7.8048515260e+00    0.3235895    0.2339633 -54.38 0.0009847344    1.362    0.266
        59 -12.5841    205.6720    110.1460   8.8075477877e+01   1.7262591338e+01     0.519068    0.3085231  37.41  0.001730178    2.058    0.514
        60 -13.9213    178.0164    104.6641   9.2199973197e+01   2.4935868562e+01     1.131156    0.7799768  43.46  0.003138365    1.513    0.339
        61  -9.9889      1.9193    106.0306   1.4035979229e+02   5.2918661817e+01    0.1798485    0.1319628 -64.43 0.0005852435    1.028    0.027
        62 -13.0894    189.0085     87.6060   8.5483809117e+01   2.5505632420e+01    0.7292604    0.6304801 -82.11  0.002213202    1.215    0.177
        63 -13.0003    198.5494     80.9107   8.1964879257e+01   2.4354866339e+01     0.989145    0.6182194 -45.04  0.003801302    1.569    0.363
        64 -13.0620    190.8735     78.5428   8.2734300859e+01   2.6662164452e+01    0.7483561    0.6457342  81.67  0.002409474    1.171    0.146
        65 -12.9523     81.7433     85.6832   1.1190110388e+02   4.9065703093e+01    0.9543154    0.5331977 -41.83   0.00360308    1.664    0.399
        66 -11.2712     22.7412     73.1586   1.2787867904e+02   5.8502418321e+01    0.4045777    0.2254251  41.13  0.002272995    2.406    0.584
        67 -12.9159    162.0779     49.0895   7.9975860883e+01   3.8557183025e+01    0.4651387    0.4568163 -15.35  0.001123079    1.102    0.092
        68 -12.7740    118.0624     36.9877   8.5837670335e+01   5.0511373029e+01     1.128962    0.5507959  61.67  0.004691042    2.457    0.593
        69 -11.3695     11.5615    248.7042   1.5082430249e+02   2.2116103650e+01    0.1162466   0.07775753 -77.19 0.0008719013    1.487    0.328
        70 -11.0402      1.5803    248.8913   1.5232047518e+02   2.3117935895e+01   0.08073796   0.05643263  43.81 0.0006085196    1.749    0.428
        71 -10.9756    100.2966    231.2743   1.3410120067e+02   1.3590929088e+01    0.2455991      0.18202  68.52   0.00061483    1.171    0.146
        72  -9.3900     23.4789    227.8685   1.4766887213e+02   2.4747888136e+01    0.1317128   0.08611831 -83.89 0.0002768597    1.266    0.210
        73  -9.1613    124.4031    227.5906   1.2895581256e+02   1.0267448642e+01    0.1295503    0.1106539  59.36 0.0001757893    1.031    0.030
        74  -9.5663     95.5373    226.0188   1.3440430164e+02   1.5377176810e+01    0.1732059    0.1179857 -70.86 0.0006099876    1.503    0.335
