#   1 NUMBER                 Running object number                                     
#   2 MAG_AUTO               Kron-like elliptical aperture magnitude                    [mag]
#   3 X_IMAGE                Object position along x                                    [pixel]
#   4 Y_IMAGE                Object position along y                                    [pixel]
#   5 X_WORLD                Barycenter position along world x axis                     [deg]
#   6 Y_WORLD                Barycenter position along world y axis                     [deg]
#   7 A_WORLD                Profile RMS along major axis (world units)                 [deg]
#   8 B_WORLD                Profile RMS along minor axis (world units)                 [deg]
#   9 THETA_WORLD            Position angle (CCW/world-x)                               [deg]
#  10 FWHM_WORLD             FWHM assuming a gaussian core                              [deg]
#  11 ELONGATION             A_IMAGE/B_IMAGE                                           
#  12 ELLIPTICITY            1 - B_IMAGE/A_IMAGE                                       
         1 -12.2599     17.9966     24.5320   1.0438738162e+02   7.1189753411e+01    0.5990186     0.322367 -64.00  0.002292089    1.762    0.433
         2 -10.8934     14.5784     17.4022   1.0361524940e+02   7.3001115536e+01    0.4289758    0.2876215  82.95  0.002035949    2.490    0.598
         3 -11.7207     12.8932     11.2501   1.0193838125e+02   7.4417812791e+01    0.3732034    0.2186376  23.35  0.001056844    1.949    0.487
         4 -12.0016      1.9250     25.2199   1.1453400623e+02   7.2122736980e+01    0.3887563    0.1780408 -70.73  0.001974097    1.878    0.467
         5 -11.7239      5.8363     17.6453   1.0954428309e+02   7.3584160699e+01    0.4823788    0.3054373 -54.46  0.002255563    1.251    0.200
         6 -11.4376    182.2096     18.9116   5.0556133091e+01   3.6493979848e+01     0.335673    0.2684742  -8.67 0.0009057873    1.334    0.250
         7 -11.1435    199.4779     17.5014   4.8248874107e+01   3.2213115163e+01     0.334516    0.2649647  20.71  0.001469363    1.467    0.318
         8 -10.9572     24.3366     16.8424   9.7120171734e+01   7.2180748430e+01    0.3247862    0.2633052  16.15  0.001930432    1.366    0.268
         9 -10.2278     21.5371     11.8040   9.6338405340e+01   7.3478874035e+01    0.3666296    0.2046907  47.16  0.001836091    2.593    0.614
        10 -10.4253     76.4878     14.5004   7.0538211379e+01   6.3938629162e+01    0.4192172    0.2463097 -50.55  0.001860937    2.172    0.540
        11 -11.1408     31.7134     14.3347   9.1346614479e+01   7.1795693352e+01    0.4885911    0.1995055 -45.91  0.001833674    2.131    0.531
        12 -10.7384    116.3347     15.3050   5.9785421855e+01   5.4343052792e+01    0.4154093    0.2173027  33.98  0.001631035    2.312    0.567
        13 -10.1945    133.0142     13.2286   5.5591566913e+01   5.0207698522e+01    0.3526947    0.1880776 -21.87  0.001484235    1.909    0.476
        14 -12.2678    172.6870     11.3212   4.9147982922e+01   3.9768589232e+01    0.7616526    0.1668405 -35.57  0.002357249    3.559    0.719
        15 -11.2753    148.1124     13.0765   5.3048024103e+01   4.6180560639e+01    0.4140211    0.2299132  48.89  0.001770885    1.795    0.443
        16 -10.8761    128.0114      8.4730   5.4491116733e+01   5.2029762976e+01    0.2164459    0.1987678 -15.84 0.0003784364    1.110    0.099
        17 -11.1986    209.5637     12.2225   4.5761065530e+01   3.0228628448e+01    0.4195744    0.2627821   1.87  0.001989965    1.988    0.497
        18 -11.9572    208.9449      4.7690   4.3657244227e+01   3.1067789452e+01    0.4978665    0.2632921 -56.50 0.0003545835    1.918    0.479
        19 -10.1430     67.1166     11.8068   7.2542118091e+01   6.6276049110e+01    0.2755964    0.2106906 -19.84 0.0007351331    1.247    0.198
        20 -10.8630    218.3210     12.0657   4.4998015011e+01   2.8129047602e+01    0.2285481    0.1818586  61.21 0.0009543066    1.357    0.263
        21  -9.3865     97.6332     11.8460   6.2678172060e+01   5.9430709706e+01     0.206004    0.1225245 -36.11 0.0007999418    1.693    0.409
        22  -9.4289    229.2524     10.9858   4.3881142407e+01   2.5676269057e+01    0.1661136    0.1020055 -25.28 0.0002461416    1.475    0.322
        23  -9.5437     56.3525     10.7388   7.6438040266e+01   6.8520109909e+01    0.1865304     0.116399 -24.47 0.0006905355    1.571    0.364
        24 -10.9631     47.9075      9.1164   7.9458730528e+01   7.0272148360e+01    0.4465721    0.2208577  47.66  0.001116016    2.285    0.562
        25  -9.4179     51.5461      6.4696   7.6066276288e+01   7.0036405912e+01     0.133371    0.1156937  -6.47 5.576142e-05    1.031    0.030
        26  -9.7629      4.5223      8.7381   1.0685748483e+02   7.5564178976e+01    0.2703983    0.1123662 -71.68 0.0008508059    3.155    0.683
        27 -11.7140    194.2842      8.4694   4.5990833625e+01   3.4404746918e+01    0.3729971    0.2332914 -75.10  0.001609849    1.752    0.429
        28 -10.6467    185.1723      8.8861   4.6995261958e+01   3.6715693623e+01    0.2146062    0.1776949 -57.11 0.0003301938    1.174    0.149
        29  -9.7370    160.1566      9.2838   4.9960511683e+01   4.3315450548e+01    0.2730125    0.1859105  39.51 0.0006701025    1.585    0.369
        30 -12.0052    160.6494      3.4528   4.7793776229e+01   4.3717474120e+01    0.6138399    0.4208136  63.28  0.003004825    1.404    0.288
        31 -11.2097    165.7053      3.9437   4.7391790150e+01   4.2316111418e+01    0.2664063    0.2062328 -27.76  0.000359987    1.287    0.223
        32 -11.1944    146.8656      8.3299   5.1408961651e+01   4.6989003981e+01    0.3502717    0.2040602  35.01  0.001502414    1.965    0.491
        33  -9.9711     73.9967      8.6504   6.8207956359e+01   6.5266000927e+01    0.1956936    0.1664954  33.60 0.0008171258    1.145    0.127
        34 -10.9476    107.9323      7.7784   5.8188295030e+01   5.7327858790e+01    0.4404938    0.2264353  69.89  0.001763665    2.112    0.527
        35 -10.1375    106.3815      3.8275   5.6631660963e+01   5.8124640906e+01     0.292015    0.1411071 -15.25 0.0006055806    2.230    0.552
        36  -9.8696    119.6681      7.7078   5.5707988480e+01   5.4306597263e+01    0.1555636    0.1011592  34.79 0.0003841506    1.632    0.387
        37 -10.0153     87.6259      6.7613   6.2832887862e+01   6.2417336614e+01     0.217012    0.1990162  56.06  0.000622715    1.145    0.126
        38  -9.8871     62.2114      6.8058   7.1592439430e+01   6.7960093686e+01     0.247412    0.1657379  68.10  0.001211692    2.112    0.526
        39 -10.5304     24.8088      6.6814   9.1276447174e+01   7.4073797158e+01    0.2358756    0.1770812 -53.49  0.001397176    1.440    0.305
        40  -9.9698     19.6509      6.5154   9.4666975087e+01   7.4695974867e+01    0.2999108   0.08985165 -46.71  0.001151286    2.709    0.631
        41 -11.3642    133.6850      5.5600   5.2305831202e+01   5.0798134221e+01    0.3242781    0.2676397  -4.51  0.001531819    1.277    0.217
        42 -10.8368    111.9043      5.2372   5.6133007043e+01   5.6571043626e+01    0.2963123    0.2037049  -9.62 0.0005426992    1.538    0.350
        43 -10.9772     40.0533      5.2994   8.1183057421e+01   7.2168260978e+01     0.338623    0.2785745  69.44  0.001994097    1.856    0.461
        44  -9.6880     38.0014      2.0217   8.0164666850e+01   7.3003914708e+01    0.1720552     0.146889 -14.75            0    1.010    0.010
        45 -10.6282     48.3474      3.2910   7.5574126889e+01   7.1070793442e+01    0.4198745    0.2487489  15.22  0.001946691    2.321    0.569
        46 -12.2643    195.7126      3.2862   4.4274519885e+01   3.4507642938e+01    0.6087682    0.2658371  63.27  0.002578989    2.214    0.548
        47 -10.0922     30.7794      3.6333   8.5525139549e+01   7.3825820468e+01    0.2378613    0.1502657 -46.62 0.0007663068    1.608    0.378
        48 -10.4803    248.9574      2.9080   4.0578503441e+01   2.2052219758e+01      0.20462    0.1580292 -29.94 0.0003642781    1.140    0.123
        49 -10.2557    218.0078      2.2309   4.2284601829e+01   2.9097445453e+01    0.2386566    0.1796103 -30.37 0.0009681982    1.221    0.181
        50 -10.1197     12.1558      2.1858   9.7575632067e+01   7.6270765488e+01    0.2760366    0.1741844  57.40  0.001251584    3.024    0.669
        51 -11.4177    180.2095      2.0943   4.5273532420e+01   3.8623647143e+01    0.3418407    0.2001392  72.28  0.001050212    1.669    0.401
        52 -10.7532    127.9841      2.0155   5.1729080870e+01   5.2645580210e+01    0.3633022    0.1330042  54.01  0.001339481    2.420    0.587
        53 -10.7442    115.6764      2.0597   5.3908146576e+01   5.5893912726e+01    0.2223966    0.1911414  80.94 0.0003183334    1.216    0.178
        54 -10.3565    143.9297      1.4348   4.9127457699e+01   4.8407644085e+01    0.2153367    0.1373249  73.51  0.000492627    1.532    0.347
        55 -10.3376     73.9947      1.9323   6.4333012438e+01   6.6080341460e+01    0.2093851    0.1908979  15.62 0.0005137562    1.017    0.017
        56 -10.1023     90.5189      1.4420   5.9190704910e+01   6.2298901048e+01    0.2564059    0.1332138  62.03 5.983969e-05    1.909    0.476
        57 -11.5383    110.8635    227.2302   1.1123317858e+02   1.6953080686e+01    0.3653652    0.1823631  55.53  0.001544532    2.090    0.522
        58  -9.7783    216.0585    250.6224   9.6066358357e+01   2.9916246800e-01    0.1451015   0.06912503  33.98 0.0002983504    1.512    0.338
        59 -12.5927    186.6735    250.3039   1.0061024079e+02   4.0390879013e+00    0.2167813    0.1134202  33.17  0.001486464    1.364    0.267
        60 -11.4607    116.0177    249.4361   1.1230165880e+02   1.3289592128e+01     0.316834    0.1763079  40.35  0.002217904    1.275    0.216
        61 -10.9691     23.8001    230.2449   1.2733347087e+02   2.6565673013e+01     0.326353    0.1434903 -75.38  0.001617141    2.471    0.595
        62 -11.3927     38.9963    249.2890   1.2546263580e+02   2.2184365498e+01    0.2736593    0.1979572 -73.19 0.0009527259    1.772    0.436
        63 -11.6743     36.4099    243.6295   1.2566792059e+02   2.3274327689e+01    0.3388155    0.2735514  71.54 0.0006519576    1.270    0.213
        64 -12.7646     18.5656    247.4802   1.2879350730e+02   2.4427468586e+01      0.84738    0.1884552  41.55  0.003860108    2.395    0.582
        65 -11.8675     29.8812    245.1306   1.2683190215e+02   2.3698612148e+01    0.3978858     0.323705   1.45  0.003272837    2.174    0.540
        66 -12.0587      7.1712    241.1398   1.3050534165e+02   2.6399100921e+01    0.4812215     0.167169  35.64  0.002469728    2.148    0.534
        67 -12.1141      3.1165    233.6914   1.3100903734e+02   2.7892897782e+01    0.3748829    0.2154274  86.40   0.00298934    1.636    0.389
        68 -12.9251     12.5955    231.9988   1.2934593017e+02   2.7327116387e+01    0.7890853    0.3890165  52.69  0.005823552    1.364    0.267
        69 -12.7997      3.2821    246.8235   1.3126917186e+02   2.5887372908e+01    0.2673435    0.1943518  65.84  0.001026718    1.184    0.155
        70 -12.2838     22.4921    241.6721   1.2795716617e+02   2.4924820725e+01    0.4774649    0.2293677  79.53  0.003394224    1.994    0.498
        71  -9.7735    112.5400    223.5779   1.1057121011e+02   1.7255222416e+01    0.1642321    0.1286451  42.15 0.0001006508    1.040    0.038
        72  -9.7060     55.4394    228.5230   1.2156127402e+02   2.3570468632e+01     0.104192   0.07667556  52.97  6.40635e-05    1.026    0.025
        73 -10.4420    233.9232    225.3987   8.9992847795e+01   2.7399661239e-01    0.1642514    0.1536557   2.52 0.0008225027    1.694    0.410
        74  -9.8531    164.4958    225.0149   1.0130751832e+02   9.8103918604e+00    0.1359586    0.1112273 -41.17  0.001029665    1.609    0.379
        75 -10.0138    122.5493    225.5142   1.0891261873e+02   1.5618491334e+01    0.2147218   0.08494333  38.47 0.0006595133    1.919    0.479
        76 -10.4085     99.0135    223.7710   1.1311677487e+02   1.9023472496e+01    0.2316933     0.162438 -73.55  0.001651016    1.792    0.442
        77 -10.1545     79.7135    224.2344   1.1677366765e+02   2.1400445936e+01    0.2770335    0.1385823  67.77  0.001562339    2.441    0.590
        78  -9.3967     20.2537    225.6077   1.2779535317e+02   2.7642671995e+01    0.1072225   0.04860477  61.18 0.0006958194    1.686    0.407
        79 -10.4950      1.8442    224.5211   1.3101474562e+02   2.9456415071e+01    0.2231938    0.1023982  74.41  0.001525006    1.802    0.445
        80 -10.6763     36.8018    223.5075   1.2471130427e+02   2.6361581209e+01     0.288778    0.1221239  56.60  0.001474416    1.836    0.455
        81 -10.2934     63.9632    221.4298   1.1953333819e+02   2.3727996967e+01    0.2997973    0.1364468  72.00   0.00159697    2.810    0.644
        82  -9.8810     54.8199    221.5293   1.2125944099e+02   2.4754376842e+01    0.2121992    0.0899349  60.98  0.001188959    2.246    0.555
        83 -10.6802    228.9037    220.2777   9.0018905707e+01   1.3985461703e+00    0.1721643    0.1356337  18.45 0.0003150591    1.186    0.157
        84  -9.2376     27.2983    221.3856   1.2635890761e+02   2.7657629470e+01   0.08530325   0.07592437 -45.30 0.0007017333    1.778    0.437
        85  -9.3489    249.6822    220.3378   8.6916830069e+01  -1.2791920289e+00   0.08566362   0.07731037  20.56 0.0007048928    1.704    0.413
        86  -9.9149     21.1725    218.4246   1.2736458380e+02   2.8734459089e+01     0.215834   0.09952079 -76.77  0.001404592    2.271    0.560
        87 -11.5906      9.3393    248.3225   1.3032326034e+02   2.5138825409e+01    0.3108697    0.1252794  60.92  0.002197744    1.775    0.437
        88 -10.4233    135.5777    218.1554   1.0570590641e+02   1.4826778966e+01     0.209021    0.1502604  28.37 0.0005465564    1.271    0.213
        89 -10.6518    100.6517    217.3571   1.1221662654e+02   1.9781607729e+01    0.3149503    0.1949735  20.93  0.001736501    2.102    0.524
        90 -11.6438     40.1685    217.9968   1.2381239903e+02   2.6919034062e+01    0.2695005    0.1524239  38.59 0.0008440563    1.463    0.316
        91 -10.3956     47.4684    217.8990   1.2243014553e+02   2.6158387389e+01    0.2726509    0.1575427  28.85  0.001594313    1.844    0.458
        92 -10.4400    195.3175    217.0362   9.4958130099e+01   6.3513360025e+00    0.1524888    0.1237509  17.06 0.0006730024    1.107    0.097
        93  -9.5958    176.0527    216.8060   9.8227307829e+01   9.1489508740e+00    0.1972638    0.1080066  19.42  0.001083976    2.132    0.531
        94 -11.8073     67.2583    207.2827   1.1787385549e+02   2.5680409178e+01    0.2349215    0.1525779  49.05 0.0002510706    1.190    0.160
        95 -11.0000     72.8547    216.2229   1.1746436365e+02   2.3512319414e+01    0.2202034    0.1795259   9.74 0.0003660574    1.767    0.434
        96 -12.7280     74.3995    211.1481   1.1676637923e+02   2.4157342887e+01    0.2533492    0.1928705  53.70 0.0003996837    1.023    0.022
        97  -9.3185    147.6594    216.1662   1.0323869455e+02   1.3361391754e+01    0.1346988    0.1030147 -27.93 0.0007697638    1.668    0.401
        98  -9.9264     92.4123    216.2616   1.1369716399e+02   2.1038934287e+01    0.1301036   0.09774092  80.47 0.0002501945    1.480    0.324
        99  -9.8739     58.9899    215.5812   1.2008844441e+02   2.5257166086e+01    0.1546063    0.1212592  66.40 0.0005756991    1.133    0.117
       100 -10.7116     38.9122    210.7272   1.2366759947e+02   2.8277884931e+01    0.2579229    0.1503399  74.96  0.001756327    1.577    0.366
       101 -11.4282     25.1266    208.3207   1.2620655024e+02   3.0076430023e+01    0.3657114    0.2964852  34.02  0.002943216    1.431    0.301
       102 -11.8779     35.0342    205.5458   1.2414635239e+02   2.9577806388e+01    0.3645917    0.2770675 -68.32  0.002785085    1.606    0.377
       103 -11.8575     31.0661    214.6152   1.2536081853e+02   2.8415264359e+01    0.4416181    0.2569472  80.01  0.001241884    1.593    0.372
       104  -9.7763     34.5108    213.4580   1.2465249829e+02   2.8264725004e+01    0.1616831    0.1258537  70.89 7.663819e-05    1.152    0.132
       105 -11.1846    165.4812    214.0107   9.9726968407e+01   1.1039617580e+01    0.2079035    0.1757974  36.45  0.000629138    1.157    0.136
       106 -10.9841     85.2990    214.3129   1.1490111957e+02   2.2268345771e+01    0.3242726    0.2265926  36.20  0.001209853    1.286    0.222
       107 -10.4512    156.8496    215.4480   1.0147098869e+02   1.2118565008e+01     0.167368    0.1564579  13.56 0.0005443043    1.231    0.188
       108 -10.4526     13.9790    212.6646   1.2848563561e+02   3.0367530087e+01    0.2031464    0.1414854  44.54  0.001153494    1.244    0.196
       109 -10.0711     11.0760    215.0000   1.2909962427e+02   3.0231053603e+01    0.2171649   0.09499693  37.55 0.0008613323    1.798    0.444
       110 -11.6950      8.3652    210.8935   1.2947166552e+02   3.1166440656e+01    0.3207235    0.1779887 -79.27  0.001877073    1.851    0.460
       111 -10.8630    111.8560    213.5398   1.0968602101e+02   1.8843455557e+01     0.227118    0.1888788  20.81  0.001340011    1.363    0.266
       112 -12.5568    128.9085    208.0316   1.0578443406e+02   1.7249340094e+01    0.5128148    0.3158667  11.66  0.002653577    2.719    0.632
       113  -9.7287     14.4109    219.1282   1.2862486610e+02   2.9241979229e+01    0.1452943    0.1079374  43.83 0.0004848695    1.270    0.213
       114 -10.0675    118.2381    212.1610   1.0831047233e+02   1.8160127473e+01    0.2006686     0.129205  33.33 0.0006005848    1.360    0.265
       115  -9.6202     63.9628    212.5022   1.1891232552e+02   2.5191557205e+01    0.1607845   0.08786988  37.92 0.0008036012    1.514    0.340
       116  -9.2311    155.2709    210.3364   1.0110034526e+02   1.3031069627e+01    0.1104022   0.08012603   9.77 0.0005548152    1.599    0.374
       117  -9.9235    144.7271    209.2710   1.0292554941e+02   1.4742722158e+01    0.1832745    0.1432848 -71.51   0.00123639    1.836    0.455
       118 -10.6596     60.0203    209.0471   1.1943895630e+02   2.6236992329e+01    0.2096621    0.1800253  37.61 0.0004271558    1.310    0.237
       119  -9.7356     96.8456    209.2003   1.1217185822e+02   2.1576879039e+01    0.1477126    0.1177536  30.33 0.0006430874    1.301    0.231
       120 -11.8367     17.6139    207.7757   1.2762234903e+02   3.0878248081e+01    0.2445735    0.1254129  55.67 0.0002394793    1.423    0.297
       121  -9.0818     82.4921    207.4951   1.1485722714e+02   2.3745975621e+01    0.1145759   0.08883803  51.76 0.0008106098    1.009    0.009
       122 -10.5831    153.2531    205.4362   1.0082727830e+02   1.4004761855e+01    0.2137462    0.1759281  -4.64  0.001495086    1.417    0.294
       123 -10.2369     99.9321    205.4897   1.1118902734e+02   2.1759123483e+01     0.173584    0.1395497  65.97 0.0004612847    1.227    0.185
       124 -11.3521     97.7475    200.6887   1.1113171769e+02   2.2852359392e+01    0.3271466    0.2760735  31.60  0.001342075    1.248    0.199
       125 -10.5825     95.6476    194.8915   1.1094802217e+02   2.4127753006e+01    0.2044407    0.1477582  37.67 0.0003764576    1.234    0.190
       126  -9.8014     77.9723    206.0078   1.1562981150e+02   2.4572495037e+01    0.1593187    0.1372731  -2.38  0.001139745    1.706    0.414
       127 -10.6393     53.1334    204.0584   1.2046200426e+02   2.7890251266e+01    0.3146496    0.1920914  70.69  0.002079745    1.524    0.344
       128 -11.4166      4.0340    205.2618   1.3011442683e+02   3.2510008612e+01    0.2905842    0.1372352  40.51  0.001340116    1.638    0.389
       129 -10.0230      1.2860    213.2762   1.3084012405e+02   3.1362295981e+01    0.2036591   0.06819912 -77.84 0.0007077978    2.939    0.660
       130 -10.7772    121.6490    200.8651   1.0634717361e+02   1.9412016933e+01    0.3060522    0.2132749 -84.05  0.001488013    2.069    0.517
       131 -10.3514    185.9987    202.2925   9.4426063382e+01   9.4480116112e+00     0.168719    0.1273814  26.86 0.0006089643    1.050    0.048
       132  -9.8964    165.8237    202.0973   9.8031646908e+01   1.2549711919e+01    0.1722959    0.1360463  41.47 0.0008591691    1.184    0.155
       133  -9.8157    240.4647    201.4821   8.5377404732e+01   1.6403413887e+00    0.1107618   0.08168801  13.19 -2.662337e-05    1.010    0.010
       134 -10.5586     70.7924    199.0985   1.1649465352e+02   2.6666813949e+01    0.3604626     0.160016 -55.01  0.001909608    2.798    0.643
       135 -10.7163     19.2207    200.4861   1.2701689693e+02   3.2016708383e+01    0.1689605    0.1392001  85.14 0.0006570133    1.274    0.215
       136 -10.0222    190.6908    199.8737   9.3238569093e+01   9.0334931921e+00    0.2029686   0.09997549 -28.16  0.001080388    2.464    0.594
       137  -9.3157    106.3022    202.2928   1.0957659660e+02   2.1394454444e+01    0.1063057   0.08661045  11.23 0.0002011353    1.571    0.364
       138 -10.1525     90.5097    200.0046   1.1253542323e+02   2.3954254861e+01    0.2686527    0.1383363  37.88   0.00151674    1.621    0.383
       139 -11.3196      5.5126    200.0216   1.2967454004e+02   3.3310707652e+01    0.1683793    0.1121375  48.19 2.763063e-05    1.208    0.172
       140 -10.4721    223.4816    198.9777   8.7615337518e+01   4.2722593105e+00     0.251805    0.1196394  32.01  0.001041622    1.763    0.433
       141  -9.7989    149.8520    199.1756   1.0062181814e+02   1.5411877905e+01    0.1687925    0.1367368  43.06 0.0002990133    1.125    0.111
       142 -11.1477     55.7186    199.0407   1.1958457530e+02   2.8483458504e+01    0.2021684    0.1291678  48.62  0.001349053    1.227    0.185
       143 -10.0756     52.0159    198.5134   1.2030524985e+02   2.9000827221e+01    0.2386758    0.1330059  60.18  0.001028646    1.539    0.350
       144  -9.9126     13.5763    198.0371   1.2803081846e+02   3.2969222917e+01    0.2112314     0.170299  25.24  0.001664899    1.585    0.369
       145 -10.3620    208.8188    198.3918   8.9913874911e+01   6.4807873299e+00    0.1710848   0.08606315  30.62 0.0009536691    1.700    0.412
       146 -10.1497    108.6769    194.3098   1.0818980149e+02   2.2375716837e+01    0.3482295    0.1307133 -62.68  0.001532495    3.597    0.722
       147 -10.0937    109.3405    197.6744   1.0844513624e+02   2.1719405185e+01    0.2691059    0.1361083  54.87 0.0009786898    2.057    0.514
       148 -10.2105    105.2330    196.0256   1.0909554238e+02   2.2583451652e+01    0.2549698    0.1770663  58.59  0.000791692    1.383    0.277
       149 -10.2784    129.1454    197.2757   1.0441116077e+02   1.8859328718e+01    0.3146899    0.1115605  43.06 0.0008696086    2.311    0.567
       150  -9.7723    140.7383    195.9430   1.0194533495e+02   1.7295604141e+01    0.1807292    0.1315832  73.63  0.000770624    1.970    0.492
       151  -9.9018     82.8999    195.2697   1.1363820282e+02   2.5789632014e+01    0.1782747     0.141545 -53.03 0.0007292292    1.590    0.371
       152  -9.6909     36.9633    196.5504   1.2325902604e+02   3.0988372013e+01    0.1585646   0.09054076  36.84 0.0005043895    1.556    0.357
       153 -10.5368    217.6490    194.4678   8.7828116207e+01   5.6106553764e+00    0.1805276    0.1439541  37.75 0.0004834495    1.387    0.279
       154 -10.3502     44.7485    194.5280   1.2153101260e+02   3.0530880240e+01    0.1675487    0.1380124  67.84 0.0002523483    1.102    0.093
       155  -9.7174     24.8697    194.8634   1.2563161482e+02   3.2503833893e+01    0.1457054    0.1265797  80.42 0.0003123174    1.256    0.204
       156  -9.5966      6.4940    195.4078   1.2933407526e+02   3.4058478438e+01    0.1474095   0.09523952  16.88 0.0009968764    2.161    0.537
       157 -11.7542    122.9408    192.9683   1.0510701161e+02   2.0483817578e+01    0.3309237     0.234156  69.63 0.0005054636    1.751    0.429
       158 -10.6813    127.1119    189.3205   1.0377909429e+02   2.0441407709e+01    0.1848913    0.1809466 -60.03 0.0003528894    1.221    0.181
       159 -11.7232     52.7147    192.1149   1.1969769553e+02   3.0086327785e+01    0.3225794    0.1799467 -82.80  0.001959376    1.885    0.470
       160  -9.5200    227.3186    193.2941   8.6081633101e+01   4.3204657080e+00    0.1178397   0.07054543  13.42 0.0002795015    1.607    0.378
       161 -10.4383    153.9807    192.2975   9.8854418610e+01   1.5771859726e+01    0.2966711    0.1949049  10.73  0.001101001    2.044    0.511
       162 -11.1133    245.2661    191.3970   8.3003355361e+01   1.9644949227e+00    0.1973371   0.08552948  35.30 0.0003767407    1.978    0.495
       163 -10.2850    187.9802    190.1615   9.2198864123e+01   1.0672961055e+01    0.4171036    0.2459424  40.76  0.002437695    1.485    0.327
       164 -12.1249     91.7458    189.1586   1.1114546025e+02   2.5674355036e+01    0.2306686    0.2040721  82.15 0.0003082403    1.188    0.158
       165 -11.2764    205.1681    190.1936   8.9207569136e+01   7.9865735700e+00    0.3188928    0.1736532 -27.92    0.0018295    2.000    0.500
       166  -9.4764     68.2133    190.6406   1.1629836712e+02   2.8507465413e+01    0.1637171   0.09961381  29.38 0.0009578792    1.744    0.426
       167 -10.5049     74.7632    186.4401   1.1450343234e+02   2.8449272760e+01    0.3252005    0.1521993 -68.74  0.001710415    2.378    0.579
       168 -10.5353    131.0174    185.9802   1.0252288416e+02   2.0379262650e+01    0.3318342    0.2156456  69.75  0.001744888    2.253    0.556
       169 -11.3326    104.9178    185.0063   1.0785889390e+02   2.4526520819e+01    0.3462979    0.2962589   5.68  0.001869676    1.505    0.335
       170 -10.0473     43.4981    186.1049   1.2122228040e+02   3.2238160374e+01    0.2044895    0.1564831 -62.73  0.001004623    1.576    0.365
       171  -9.7688     43.2953    181.6691   1.2095128614e+02   3.3109389091e+01    0.2473673   0.09623731  57.71  0.001201907    2.409    0.585
       172 -10.9649     32.1058    184.5804   1.2356467760e+02   3.3719230317e+01    0.4007851     0.137083  40.77  0.001039636    2.196    0.545
       173 -12.4146     32.0490    176.5159   1.2307598468e+02   3.5289923530e+01    0.2567991    0.2119426 -83.48 0.0004966198    1.273    0.214
       174 -10.1173    225.2345    183.8233   8.4818831436e+01   5.6590572202e+00    0.1630867    0.1093788  11.39 0.0003923342    1.346    0.257
       175 -10.5679    177.8032    183.6551   9.2999752092e+01   1.3174623551e+01    0.2439595    0.1778304 -46.50  0.001132772    1.738    0.425
       176 -11.4749     57.5096    181.0272   1.1777554953e+02   3.1616905558e+01    0.4227248    0.3079385  27.82  0.002746695    1.551    0.355
       177 -10.6189     16.0354    183.2785   1.2691151580e+02   3.5492132409e+01    0.1993302    0.1616783  55.04 0.0007077004    1.164    0.141
       178 -10.7041    166.2749    189.3861   9.6068623554e+01   1.4235339892e+01    0.2078112    0.1813917  30.97 0.0003519916    1.085    0.078
       179 -10.0689     88.2818    182.1311   1.1111207435e+02   2.7430039136e+01    0.1846169    0.1426697 -67.80 0.0006312262    1.444    0.307
       180 -10.2677    213.0156    182.1865   8.6537613652e+01   7.7221165264e+00    0.1758597    0.1355755  17.82 0.0003528874    1.051    0.048
       181  -9.4473    155.0378    181.0333   9.6943566597e+01   1.7292971311e+01    0.1477243    0.1232376  33.29 0.0009533858    1.015    0.015
       182  -9.0675    143.6826    181.6952   9.9318371114e+01   1.9047080785e+01    0.1227525   0.09140306  10.78 0.0002975638    1.627    0.385
       183 -10.6243    131.4407    179.5058   1.0151012610e+02   2.1383943387e+01    0.2344849    0.1922763  62.34 0.0001131047    1.302    0.232
       184 -10.2156      4.0709    178.8049   1.2925460137e+02   3.7364523824e+01    0.1936866    0.1001008  64.16 0.0006891296    1.499    0.333
       185 -10.4898     74.1895    177.2038   1.1369661280e+02   3.0266287676e+01    0.1878758    0.1598647  57.40 0.0003592078    1.043    0.041
       186 -12.2973     22.5979    176.0408   1.2513447922e+02   3.6297752126e+01    0.2441337    0.1601505  65.94 0.0003839051    1.216    0.178
       187 -11.5894    108.9111    176.5619   1.0591141246e+02   2.5435596103e+01    0.2429006    0.1898269  49.49 0.0002459484    1.108    0.098
       188  -9.4906     46.2094    177.1333   1.1996646304e+02   3.3672902177e+01    0.1634115    0.1049401  59.35  0.000273283    1.303    0.232
       189 -10.6985     92.0748    177.3626   1.0972221795e+02   2.7780594631e+01    0.1801685     0.164299 -58.77 0.0003388614    1.300    0.231
       190 -10.2666     17.3693    175.2402   1.2623991097e+02   3.6932333652e+01    0.1742231    0.1597756 -60.70 0.0007532116    1.474    0.322
       191 -11.2244     79.1973    174.3209   1.1225616174e+02   3.0153580790e+01    0.2902654     0.192262  39.94  0.000349383    1.351    0.260
       192  -8.9948     69.7024    175.7362   1.1455494804e+02   3.1132910671e+01    0.1029394     0.093831  -4.07 0.0002220708    1.512    0.338
       193  -9.8786    156.8829    173.5774   9.5374021843e+01   1.8140735172e+01    0.1973891    0.1091056  39.67  0.001013101    1.570    0.363
       194 -10.6943     87.4815    171.7119   1.1007076810e+02   2.9507303307e+01    0.2562777    0.1996678  80.82 0.0007811318    1.323    0.244
       195  -9.5300     41.0755    171.4742   1.2068911045e+02   3.5356729056e+01    0.1599398    0.0997991  39.37 0.0003659167    1.457    0.314
       196  -9.9933    200.9012    175.3479   8.7417586603e+01   1.0503847238e+01      0.17148    0.1286468  27.49 0.0002841277    1.129    0.115
       197  -9.4427    114.0259    168.4669   1.0364661937e+02   2.6114822532e+01    0.1907252    0.1121835  40.51 0.0003152458    1.494    0.331
       198  -9.3494     69.1444    168.1524   1.1388811461e+02   3.2700544364e+01    0.1711162    0.1170782  59.47 0.0004567411    1.309    0.236
       199 -10.4103     46.8742    166.7884   1.1896653412e+02   3.5669570402e+01    0.3282406    0.1451338  54.57  0.001658611    2.048    0.512
       200  -9.8684      2.7034    167.1832   1.2911903196e+02   3.9753093215e+01    0.2941019   0.08020098 -70.54  0.001363689    3.325    0.699
       201  -9.4900    122.6576    166.6611   1.0146156448e+02   2.5048770473e+01    0.1287317   0.09965345   1.91 0.0007049407    1.771    0.435
       202  -9.2997     61.0220    166.2171   1.1558882198e+02   3.4119237692e+01    0.1567419   0.08880369  36.77 0.0004289382    1.638    0.390
       203 -10.7277     37.4579    165.5765   1.2107348330e+02   3.6936000414e+01    0.2483954    0.1506897  60.35 0.0005807955    1.410    0.291
       204 -12.2383     24.3953    163.6895   1.2399607576e+02   3.8615464937e+01     0.287012    0.1789075  51.50 0.0004388107    1.335    0.251
       205 -10.7724    126.4143    161.7776   9.9855139817e+01   2.5309700965e+01    0.2428344     0.220142  32.43 0.0008776028    1.090    0.083
       206 -10.0773     75.8907    162.3582   1.1163638904e+02   3.2971143700e+01    0.2334995    0.1586659  84.87 0.0009097058    1.597    0.374
       207 -10.3594    140.4547    161.0429   9.6664788688e+01   2.3035107620e+01    0.2509539     0.172877  41.53 0.0004686427    1.293    0.227
       208 -11.3485     36.2326    158.8404   1.2083581701e+02   3.8460024196e+01    0.9476725    0.1407694  47.35  0.003181477    4.754    0.790
       209 -10.0776     99.5142    160.4881   1.0579880578e+02   2.9908600902e+01     0.128109    0.1150375  52.52 0.0002732073    1.040    0.039
       210  -9.5142    114.0395    158.5152   1.0212667259e+02   2.7976618773e+01    0.1950682    0.1179547  39.93  0.000389044    1.497    0.332
       211  -9.5248     65.9869    158.4713   1.1356547850e+02   3.5083061706e+01    0.1867351    0.1091361  39.91 0.0004807481    1.556    0.357
       212  -9.4448     27.0295    158.0383   1.2299440162e+02   3.9540679853e+01    0.1384938    0.1101485  72.15  0.000302129    1.015    0.015
       213  -9.6576    113.4794    153.9276   1.0151774831e+02   2.8950302375e+01    0.1830547    0.1314836 -61.16  0.001006175    1.541    0.351
       214  -9.3947     71.3686    154.2040   1.1173555852e+02   3.5264462462e+01     0.163808    0.1122774 -84.30 0.0004923334    1.519    0.342
       215  -9.7213    207.1642    151.8894   8.1926047735e+01   1.2530263164e+01    0.1747654    0.1604814  15.72 0.0003313822    1.163    0.140
       216  -9.7571     10.1532    152.3425   1.2671657822e+02   4.2217824902e+01    0.1639196   0.07982105  42.02 0.0009494379    1.771    0.435
       217  -9.1741      1.4090    152.5484   1.2882528098e+02   4.2842255892e+01     0.111002   0.08542642  74.71 8.084304e-05    1.028    0.028
       218  -9.8479     85.8301    150.1084   1.0759781895e+02   3.4077808847e+01    0.1938689    0.1534872  68.49 0.0002858738    1.222    0.182
       219  -9.2888     38.6771    148.3274   1.1932544130e+02   4.0448175796e+01    0.1325364   0.07396222  63.61 0.0007048788    1.691    0.409
       220  -9.7626    201.9060    143.7437   8.1194598216e+01   1.4594958143e+01    0.1931588    0.1585786  79.18   0.00107778    1.941    0.485
       221 -10.3235     15.6939    143.2396   1.2479825216e+02   4.3717389072e+01    0.2787382    0.1562536  18.16  0.001567382    2.306    0.566
       222  -9.6082      4.6213    143.0332   1.2759547272e+02   4.4626065157e+01     0.165518   0.09061495 -85.18 0.0004979531    1.551    0.355
       223 -10.1583    103.9569    139.8824   1.0143769746e+02   3.3347642209e+01    0.1977814    0.1840549  71.39 0.0004483983    1.036    0.035
       224  -9.7961     35.6574    138.9934   1.1923218850e+02   4.2811771806e+01    0.1767229    0.1356926  88.99 0.0004888289    1.143    0.125
       225  -9.7393     24.8002    139.4762   1.2215623082e+02   4.3751291229e+01    0.2192704   0.09572884  36.65  0.001125766    2.101    0.524
       226 -10.5875    236.1452    137.8483   7.4361248883e+01   9.2772881739e+00    0.1792814     0.163482 -13.76 0.0007236935    1.247    0.198
       227  -9.7209     83.2005    138.5165   1.0651915758e+02   3.6926797352e+01    0.1793075    0.1276774  23.24 0.0009289905    1.716    0.417
       228  -9.5890     94.8367    137.6124   1.0335548134e+02   3.5315343521e+01    0.1969166    0.1137208  48.98 0.0007920042    1.660    0.398
       229 -11.1243     38.7663    131.5262   1.1761789502e+02   4.4169112756e+01    0.4736278    0.2467411  73.99  0.001744105    2.114    0.527
       230 -11.3093      9.7239    131.2668   1.2558241890e+02   4.6828616736e+01     0.235412    0.1663864 -65.69 0.0001753181    1.441    0.306
       231 -11.5480     28.6255    132.1203   1.2048418183e+02   4.5042522506e+01    0.2365326    0.2117907 -85.85 0.0002678574    1.153    0.133
       232 -10.0534     24.7083    129.6978   1.2134650805e+02   4.5950808661e+01    0.1720923    0.1366187  46.29 0.0006719974    1.264    0.209
       233 -10.1638     49.8896    136.0715   1.1508251427e+02   4.1912053007e+01    0.3226885     0.164212 -52.44  0.001575158    2.194    0.544
       234  -9.6065     57.0217    132.0449   1.1261625171e+02   4.1958371800e+01    0.1555798    0.1342353  86.91 0.0003826018    1.048    0.045
       235 -10.2675     44.0240    131.7558   1.1618333151e+02   4.3551156511e+01    0.2415535    0.1501972  76.99 0.0008993082    1.621    0.383
       236  -9.7440     61.9957    131.0468   1.1110181163e+02   4.1550254767e+01    0.1549397        0.136  83.76 0.0003419758    1.029    0.028
       237  -9.3188     68.5498    131.5159   1.0936370932e+02   4.0569504488e+01    0.1302046    0.1188468  80.56 0.0002932642    1.038    0.037
       238  -9.1552     78.5230    129.5535   1.0632088057e+02   3.9585569093e+01     0.135001    0.1204498  72.91 3.427745e-05    1.032    0.031
       239 -10.3099     20.6433    126.5618   1.2220861694e+02   4.7018520190e+01    0.2181887     0.179917  23.28  0.001039559    1.477    0.323
       240 -10.1105     91.9532    126.2136   1.0208400581e+02   3.8233104096e+01    0.2071408    0.1734408  67.66 0.0003357913    1.183    0.155
       241  -9.3237     29.9996    125.9740   1.1949896973e+02   4.6311893213e+01     0.147485    0.1215567  84.66 0.0004115093    1.026    0.025
       242  -9.5258    128.1853    124.7974   9.2482316474e+01   3.2056132295e+01    0.1812968    0.1634912  -2.03 0.0003612212    1.255    0.203
       243  -9.0644      3.4932    125.4650   1.2692334053e+02   4.8569870606e+01    0.1152465   0.09457651 -89.91 1.376991e-05    1.101    0.092
       244 -10.6196    237.9655    121.3050   7.0554961386e+01   1.0980776573e+01    0.1829432    0.1561475  12.10 0.0008260517    1.091    0.084
       245  -9.1089    123.3032    121.2659   9.2913565075e+01   3.3699368986e+01    0.1363558     0.112014   6.17 0.0002397929    1.525    0.344
       246  -9.8799     21.7766    121.0450   1.2138677128e+02   4.8186753734e+01    0.1823112    0.1467693 -66.77  0.000412625    1.263    0.208
       247 -10.2695     19.8094    118.3534   1.2171207361e+02   4.8973882259e+01    0.2221826    0.1598275  37.29 0.0009748169    1.462    0.316
       248  -8.8625    111.6690    120.3288   9.5672521878e+01   3.6075673610e+01    0.1476008    0.1092976  78.37 0.0007051613    1.714    0.417
       249  -9.4170     58.2929    120.6963   1.1062435260e+02   4.4389492640e+01    0.2139934    0.1692226 -78.05 0.0002823868    1.179    0.152
       250  -9.9579     55.2503    118.2312   1.1114313490e+02   4.5343879216e+01    0.3247599    0.1709078  31.34  0.001557139    2.040    0.510
       251 -10.3035     92.3818    118.6612   1.0051078818e+02   3.9819702323e+01    0.3312891    0.2264048  59.66  0.001514423    1.575    0.365
       252 -11.1247      9.2351    118.2239   1.2480646423e+02   4.9815855040e+01    0.2671036    0.1684525 -48.93  0.001214386    1.871    0.465
       253  -9.0799     30.4407    117.4631   1.1845621174e+02   4.8239183138e+01    0.1245002    0.1066072 -88.71 0.0008060681    1.046    0.044
       254 -10.5365      1.5489    116.0878   1.2689977852e+02   5.0817857537e+01    0.2556868    0.1496443  72.34            0    1.474    0.322
       255 -12.0134      5.4770    114.3733   1.2562967059e+02   5.0957948436e+01    0.6098379    0.2417117  80.17  0.002788335    2.509    0.601
       256  -9.2885     48.6254    115.8222   1.1276623126e+02   4.6704096969e+01    0.1874888    0.1121944 -84.51  0.000640035    1.712    0.416
       257  -9.7795     61.0172    114.7534   1.0886494322e+02   4.5412901004e+01    0.2858661      0.15555  84.31  0.001176945    2.678    0.627
       258 -11.5271    149.8650    111.1699   8.4234867687e+01   3.0290533084e+01     0.233366    0.2190736   9.78 0.0002502229    1.076    0.071
       259 -10.1581     49.2869    111.4926   1.1191332909e+02   4.7642840536e+01    0.3641499    0.1358459  27.63  0.001435644    3.141    0.682
       260 -10.9701     19.8040    110.0626   1.2090103535e+02   5.0908448016e+01     0.292169    0.1995177 -50.34  0.001337313    1.625    0.385
       261  -9.6410     92.2046    109.9764   9.8754146576e+01   4.1774360882e+01    0.2452096    0.1818703  24.68  0.001209222    1.617    0.381
       262  -9.4096     84.0419    108.9433   1.0090223804e+02   4.3364573034e+01    0.1641555    0.1538705  76.37 0.0003188192    1.025    0.025
       263 -10.6916     36.8145    108.7043   1.1540324117e+02   4.9673407804e+01    0.2293061    0.1828045 -36.21 0.0008778978    1.559    0.359
       264 -10.0748     64.2482    106.7733   1.0646252790e+02   4.6838621278e+01    0.2704075    0.1703559  87.16 0.0009942398    1.978    0.494
       265  -9.1728      8.3322    106.3079   1.2413087748e+02   5.2638564513e+01    0.1194226   0.07976169 -50.24 0.0007040738    1.667    0.400
       266 -10.2631    123.9192    104.8997   8.8926158476e+01   3.6903609314e+01    0.2081429    0.2055247  58.86 0.0003223147    1.006    0.006
       267 -10.3659     18.9164    102.9766   1.2042747929e+02   5.2652407477e+01      0.24449    0.1719466  60.75  0.001483846    1.371    0.271
       268 -10.0836     43.1818    102.8531   1.1249413762e+02   5.0388010870e+01    0.1883576    0.1573327  78.12 0.0005055239    1.128    0.113
       269 -10.9648     39.5897    100.2371   1.1326028036e+02   5.1401503368e+01    0.5140131    0.2555995  21.97   0.00236777    2.532    0.605
       270  -9.2748     29.4610    103.5047   1.1706173880e+02   5.1624223178e+01    0.1286959    0.1077416  86.95 9.793876e-05    1.042    0.040
       271 -10.8077     51.3378    102.1681   1.0972620466e+02   4.9603561744e+01    0.2144357    0.1864325  16.93    0.0012734    1.394    0.283
       272 -11.8580    105.6294     98.9457   9.2350749812e+01   4.1763518566e+01     0.278779    0.2552998  43.91 0.0002535224    1.106    0.096
       273  -9.7273      9.5415     99.7426   1.2315550261e+02   5.4100783516e+01    0.2048037    0.1163342  52.96 0.0008604983    1.733    0.423
       274 -10.0185     16.2790     98.3139   1.2077854960e+02   5.3963051173e+01    0.2082095     0.159231 -66.46 0.0005643853    1.215    0.177
       275 -10.5749     54.8146     97.0916   1.0764953975e+02   5.0376645996e+01    0.2096902    0.1705653  78.86 0.0007201076    1.237    0.191
       276 -10.5404     62.9139     96.0645   1.0476740094e+02   4.9538962584e+01    0.2077498    0.1910487  60.19 0.0003235163    1.113    0.101
       277 -10.8466     48.3081     93.2886   1.0911627658e+02   5.2085684657e+01    0.4094284    0.2633668 -30.69  0.001986269    2.175    0.540
       278 -10.5007     38.0345     95.0751   1.1295343218e+02   5.2801865426e+01    0.2662454    0.1872881  28.05  0.001489285    1.617    0.381
       279  -9.0777    118.4579     94.3964   8.7640322813e+01   4.0171574648e+01    0.1450647    0.1414018  65.86 0.0001020388    1.023    0.023
       280 -10.5043     53.3408     93.1686   1.0737541719e+02   5.1497111837e+01    0.2821429     0.190885 -30.54  0.001396906    1.997    0.499
       281 -10.4051    117.7749     90.4256   8.6741954483e+01   4.1128997961e+01    0.2113893    0.1404066  34.16 0.0009436337    1.681    0.405
       282 -10.2330    104.7943     91.4454   9.0640263799e+01   4.3535721353e+01    0.3107951    0.2391794 -85.20  0.001268191    1.646    0.392
       283 -11.1393     27.4255     87.7534   1.1550537209e+02   5.5587824729e+01    0.5462263    0.2499311 -50.03  0.002535437    2.200    0.546
       284 -10.1733     17.7046     91.5756   1.1949553661e+02   5.5465979148e+01    0.2089252    0.1831874  85.35 0.0006057957    1.072    0.067
       285 -12.0577     21.2059     88.0499   1.1778715986e+02   5.6040990779e+01    0.2328464    0.2126137  80.76 0.0003013003    1.113    0.101
       286  -9.8556     39.0002     91.0027   1.1192671211e+02   5.3679502290e+01    0.1682912    0.1307087 -72.76 0.0004594096    1.137    0.121
       287 -11.2038      7.1241     90.5895   1.2307783392e+02   5.6425967020e+01    0.2338505    0.1727601 -80.89 0.0006305642    1.111    0.100
       288 -10.8700     87.9564     88.7846   9.4985576269e+01   4.7255555164e+01    0.3119955     0.258989 -19.02  0.001060784    1.483    0.326
       289 -10.9127      1.4389     92.9636   1.2524972020e+02   5.6195161295e+01    0.2503635    0.1083157 -83.89 0.0003792157    1.934    0.483
       290 -10.0681      2.4149     87.6509   1.2444221559e+02   5.7397848455e+01    0.1949864     0.145829  71.65  0.001258178    1.237    0.192
       291  -9.7452     63.9610     87.0102   1.0241283548e+02   5.1520735729e+01    0.1662408    0.1581521 -89.52 0.0008579373    1.049    0.047
       292  -9.8187    128.4506     86.0388   8.2696152126e+01   3.9722855850e+01    0.2376277    0.1953488  48.79 0.0007376229    1.220    0.180
       293  -9.9975    155.1373     85.2335   7.6169782019e+01   3.3820586804e+01    0.2150878    0.1968674  14.46 0.0004084584    1.131    0.116
       294  -9.6231     10.0257     85.2463   1.2146693168e+02   5.7519121607e+01    0.2267844    0.1559333  17.42 0.0009637874    1.787    0.441
       295 -12.3119     14.5989     83.6822   1.1959944624e+02   5.7587634832e+01    0.2478815    0.2028567  77.50  0.000250625    1.156    0.135
       296 -11.8650     50.8895     83.2368   1.0615377007e+02   5.4172362028e+01     0.437485    0.2867072  15.15  0.001322128    2.054    0.513
       297 -11.1231     73.0451     81.4350   9.7919646949e+01   5.1435984947e+01     0.408822    0.1866532 -46.66  0.001652962    2.173    0.540
       298 -10.5180     20.4988     82.2194   1.1720143448e+02   5.7501970195e+01     0.329692    0.1694142  50.03 0.0006021631    2.114    0.527
       299 -10.4503     43.9787     81.0772   1.0821589459e+02   5.5516746123e+01    0.2911393    0.2156853 -17.73  0.001115931    1.825    0.452
       300  -9.9693     89.2058     78.4973   9.1756737039e+01   4.9309780196e+01    0.3036258    0.2204708  88.42  0.001390822    1.930    0.482
       301 -11.0232     54.4380     77.5687   1.0354315307e+02   5.5060263746e+01    0.4270435    0.2393322  60.86 0.0005987238    2.473    0.596
       302  -9.4516    110.6505     77.6832   8.5022234915e+01   4.5233545910e+01    0.1539891    0.1198456   3.76 0.0007047654    1.731    0.422
       303  -9.9131     17.9469     74.0359   1.1691219658e+02   5.9669953464e+01    0.2593674    0.1574883 -48.06  0.001422308    1.639    0.390
       304 -11.0458     61.7185     74.9381   1.0019549982e+02   5.4665556576e+01    0.4706688    0.2789064  53.03  0.002177996    1.987    0.497
       305 -10.1026     28.6601     75.1283   1.1287016669e+02   5.8523169143e+01    0.3850558    0.1290242 -55.49    0.0013874    2.472    0.595
       306 -10.7032     69.5384     74.3085   9.7202206693e+01   5.3624309160e+01    0.2485516    0.2182105 -77.09 0.0006246802    1.158    0.136
       307 -10.0192     80.8766     74.1489   9.3222594904e+01   5.1768343945e+01     0.206838    0.1874058 -89.24 0.0003354038    1.172    0.147
       308  -9.3704    142.6588     73.1709   7.5370290644e+01   3.8883472884e+01    0.2152272    0.1416973 -25.69 0.0007092418    1.669    0.401
       309  -9.3286      2.4984     73.5048   1.2294891808e+02   6.0762139691e+01    0.1227893   0.09909117 -78.23 0.0008105877    1.021    0.020
       310 -10.3286     89.3753     67.8321   8.8436438945e+01   5.1579357008e+01    0.3194851    0.1758636 -37.92  0.001334154    1.930    0.482
       311  -9.2140     95.2835     71.6735   8.7762621434e+01   4.9618507578e+01    0.1474278    0.1161149 -82.98 0.0002964451    1.602    0.376
       312 -10.7322     42.0803     70.9724   1.0667958504e+02   5.8147095374e+01    0.2262308    0.2004688 -50.79 0.0006945179    1.112    0.101
       313 -11.0947     45.3355     68.8438   1.0486552114e+02   5.8270664750e+01    0.6274889     0.302022 -29.15  0.002118496    4.337    0.769
       314 -10.2080     79.8443     70.0041   9.2325243576e+01   5.2865201820e+01    0.2094514    0.1984509 -50.54 0.0004462946    1.016    0.016
       315 -10.7332     52.7881     69.8398   1.0219827723e+02   5.7094857867e+01    0.2712952    0.2105872 -81.79  0.001089037    1.382    0.276
       316 -10.4022     55.7730     66.2133   1.0003904707e+02   5.7531569582e+01    0.2815234    0.1945183  25.64 0.0007341027    1.695    0.410
       317 -10.0816     36.7563     69.3421   1.0843034993e+02   5.9118905419e+01    0.3389298    0.2103264  80.57 0.0009267653    2.116    0.527
       318  -9.9130      1.3843     65.9944   1.2249832132e+02   6.2609879058e+01    0.1849932   0.09746143 -80.19 0.0004412815    1.571    0.363
       319 -10.6938      9.4875     62.5951   1.1856449502e+02   6.2986269096e+01    0.2673094    0.2153059 -82.95 0.0009172307    1.095    0.086
       320 -11.0628      1.7869     61.0885   1.2168215992e+02   6.3760029706e+01     0.349716    0.1328523 -66.58  0.001139976    1.986    0.497
       321 -11.3057      5.9347     58.5757   1.1947912198e+02   6.4148595007e+01    0.3687533      0.29876  56.50  0.001828016    1.366    0.268
       322  -9.3858    130.4963     67.9100   7.6618035469e+01   4.2700341612e+01    0.2138997    0.1486479 -37.18  0.000291139    1.424    0.298
       323  -9.8117     22.0174     67.7174   1.1414693872e+02   6.0876839140e+01    0.1704929      0.16297 -78.45  0.001156243    1.131    0.115
       324  -9.8910    105.9813     67.0781   8.3012760261e+01   4.8367322582e+01    0.2209753    0.2176651  40.28 0.0005108181    1.039    0.038
       325  -9.7209     75.5965     66.4201   9.2695374714e+01   5.4393553969e+01    0.2436005    0.1382001  44.67 0.0006811459    1.876    0.467
       326  -9.7665    101.2994     64.0785   8.3414837790e+01   4.9957831022e+01    0.2115783    0.1842436 -41.53 0.0005185761    1.117    0.105
       327  -9.9018      1.3531     69.7820   1.2297178398e+02   6.1707896945e+01     0.234763   0.09378254 -70.64 0.0006105276    1.931    0.482
       328 -10.9472     21.8611     63.0943   1.1329996761e+02   6.1998156026e+01    0.2710432    0.1563679 -67.42  0.001195025    1.458    0.314
       329 -11.4914     23.4900     57.5823   1.1138780591e+02   6.3177890267e+01    0.3298495    0.2434168  33.98 0.0006531084    1.546    0.353
       330 -10.4758     73.5933     61.2214   9.1737193146e+01   5.5874236592e+01    0.2533765     0.205814  28.51 0.0005872083    1.365    0.268
       331 -10.4073     70.7386     59.9374   9.2364537866e+01   5.6639376317e+01    0.2771912    0.2219071 -33.28 0.0007527872    1.288    0.224
       332 -10.1494     38.9641     60.8500   1.0541676284e+02   6.0890921456e+01    0.2061739    0.1867096  15.58 0.0007875715    1.272    0.214
       333 -10.2959     98.1593     60.8743   8.3285208143e+01   5.1255148659e+01    0.2224201    0.2010688 -82.42 0.0005499892    1.234    0.190
       334 -11.1934     32.3487     59.0745   1.0781368943e+02   6.2008536550e+01    0.3122504    0.1779785  29.09  0.001596121    1.980    0.495
       335  -9.1408    238.4587     58.5678   5.5505348884e+01   1.8573235552e+01    0.1323756    0.1166922 -23.16 8.978051e-05    1.011    0.011
       336 -10.3957     53.7976     56.7760   9.7986712801e+01   5.9960708010e+01    0.3724928    0.2364718  78.66  0.001523395    2.835    0.647
       337  -9.1456     48.2630     58.6378   1.0086249513e+02   6.0284447361e+01    0.1354804    0.1019708  89.06 0.0002877139    1.638    0.389
       338 -10.2156    117.8512     56.1212   7.5877109670e+01   4.7800032468e+01    0.3601173    0.1997235 -10.10   0.00108034    4.146    0.759
       339  -9.7778    105.9177     57.1477   7.9609622114e+01   5.0317724960e+01    0.2175452    0.1986784 -74.97 0.0003773743    1.202    0.168
       340 -10.5168    225.9236     55.7916   5.6206022210e+01   2.1608389560e+01    0.2221151    0.1769675 -24.62  0.000330187    1.133    0.117
       341  -9.4752    110.0465     56.5333   7.8189384569e+01   4.9513463058e+01    0.2249285    0.1494816  53.50  0.001014687    1.565    0.361
       342  -9.2253    249.7387     55.3581   5.3525286118e+01   1.6615342762e+01    0.1356824     0.082388 -45.96  0.000299574    1.626    0.385
       343 -10.9211     94.4795     49.2789   8.0210768460e+01   5.4282708588e+01    0.3860624      0.29012 -16.02   0.00100276    1.568    0.362
       344 -10.1812     93.0098     55.2640   8.2928554488e+01   5.3434283357e+01    0.1875228    0.1663463 -39.95 0.0004517109    1.086    0.079
       345 -10.3571    151.1745     53.4387   6.7108723176e+01   4.0093994925e+01    0.2490426    0.2134374 -26.68   0.00045021    1.160    0.138
       346  -9.9632     33.1221     54.3025   1.0620908480e+02   6.3049465491e+01    0.3193991    0.1935129 -46.81  0.001669204    1.520    0.342
       347  -9.8563     28.9760     53.3122   1.0783321820e+02   6.3692236200e+01    0.1886939    0.1648554  84.55 0.0005926085    1.234    0.190
       348 -11.5820     42.6966     51.0037   1.0091453533e+02   6.2728296006e+01    0.5773193    0.3095053 -34.69  0.002573419    2.251    0.556
       349  -9.7644     60.7825     52.0821   9.3548268667e+01   5.9962783976e+01    0.2004191      0.18239 -78.88  0.001167542    1.202    0.168
       350 -10.4778      5.5829     32.7859   1.1439295233e+02   7.0215204265e+01     0.628904    0.3008447  -2.61  0.003060206    2.890    0.654
       351 -11.1917      5.8517     51.0951   1.1823945799e+02   6.5930386728e+01    0.5034626    0.1620983 -45.96  0.001715179    2.946    0.661
       352 -10.5912     19.5182     40.8575   1.0900726006e+02   6.7415968544e+01     0.360547    0.1793613  24.87  0.001800836    2.307    0.567
       353 -11.1528      5.9853     39.2790   1.1575484182e+02   6.8695913507e+01    0.4465747    0.3022617  23.07  0.001508437    1.761    0.432
       354 -10.2933     16.3353     51.9424   1.1341329959e+02   6.5073175255e+01    0.2147646    0.1718614 -68.99 0.0003986538    1.064    0.060
       355 -11.1603     17.1864     46.9977   1.1183506241e+02   6.6173515097e+01    0.2636733    0.2222677 -14.89 0.0004195326    1.366    0.268
       356 -12.8804     12.3924     44.3000   1.1358438176e+02   6.7141060011e+01    0.5043682     0.180138 -58.45  0.002286755    2.097    0.523
       357 -10.8815     13.4939     36.4600   1.1096169812e+02   6.8879780307e+01    0.2545846    0.2095452 -51.78 0.0007179761    1.055    0.053
       358  -9.9545     79.9758     50.1577   8.5482751248e+01   5.7033481699e+01    0.2755586    0.1759332 -54.65  0.001000027    1.679    0.405
       359  -8.9066    174.3102     50.2910   6.1814224026e+01   3.4688031641e+01    0.1519352    0.1122516  25.53 0.0002073411    1.584    0.369
       360 -10.7646     65.6523     49.5677   9.0681971157e+01   5.9714271205e+01    0.2785576    0.1916192 -28.39 0.0007994222    1.646    0.392
       361 -10.4120     72.5699     48.2867   8.7507884992e+01   5.8782203148e+01    0.2854868      0.22043  71.69  0.001436088    1.729    0.422
       362 -10.0522     22.5725     48.3523   1.0954341711e+02   6.5428047649e+01     0.339886     0.146338 -72.64  0.000901256    2.440    0.590
       363  -9.3087     72.5241     54.5418   8.9836035612e+01   5.7490702878e+01    0.1419142    0.1333232 -44.98 5.261982e-05    1.013    0.012
       364 -10.3633    114.2492     47.3843   7.3630713990e+01   5.0182752777e+01    0.2616627    0.1985714 -32.22 0.0002767906    1.304    0.233
       365  -9.7263     37.8298     48.2038   1.0223978164e+02   6.3941476083e+01    0.1930306    0.1403694 -38.56 0.0007263913    1.349    0.259
       366  -9.2242     31.4145     47.8465   1.0514706831e+02   6.4719093653e+01    0.1690761    0.1037324 -49.66 0.0001226373    1.420    0.296
       367 -10.8573     61.9420     45.0478   9.0475502847e+01   6.1272769771e+01    0.3456916    0.2081581 -45.09 0.0007660821    1.526    0.345
       368  -9.9202    165.1729     45.8591   6.1932442888e+01   3.7639008872e+01    0.2132826    0.1978469 -54.04 0.0003842421    1.093    0.085
       369  -9.6117    123.7393     45.5854   7.0483390138e+01   4.8200129329e+01    0.2077059    0.1485933  70.18 0.0009415425    1.613    0.380
       370 -12.2892     70.8378     38.5318   8.4238531373e+01   6.1030738426e+01    0.5829955    0.2632072 -35.68 0.0005832645    2.315    0.568
       371  -9.4523     42.6014     44.2484   9.8690839552e+01   6.4251770133e+01    0.1939409    0.1090584 -46.44 0.0009392895    1.587    0.370
       372 -10.3488     33.2153     44.0193   1.0308418898e+02   6.5402086702e+01    0.2100551    0.1845385  48.12 0.0007799489    1.319    0.242
       373  -9.3327    199.7073     43.6680   5.6048261846e+01   2.9211919454e+01    0.1464322    0.1071155  21.57 0.0002764109    1.633    0.388
       374 -10.3721    141.5315     42.3556   6.5227013833e+01   4.4230823847e+01    0.2561817    0.2420988 -16.09 0.0004002005    1.061    0.057
       375  -9.7431    151.5277     41.4780   6.2920051599e+01   4.1779963554e+01    0.2625934    0.1500995 -12.70  0.001020367    2.215    0.549
       376 -11.8274    103.5900     39.0148   7.3316918805e+01   5.4090278211e+01    0.2640154    0.2499322 -46.70  0.000367753    1.089    0.081
       377  -9.8340     82.1960     39.1547   8.0269682912e+01   5.8715821487e+01     0.212703    0.1883575 -12.26 0.0005001824    1.147    0.128
       378 -10.5664    117.0584     38.3729   6.9373620731e+01   5.0988709881e+01    0.4774292    0.2082735  61.36  0.001208983    2.590    0.614
       379 -10.1071     85.9783     37.2600   7.8143129715e+01   5.8278865197e+01      0.23932    0.1962308 -33.46 0.0005457373    1.169    0.145
       380  -9.8307    156.0667     36.9857   6.0507640011e+01   4.1216578413e+01    0.2198996    0.2175395  38.51 0.0003685547    1.020    0.020
       381  -9.9732    208.4791     36.0341   5.2758161004e+01   2.7986372974e+01    0.3026934    0.1374556  34.21  0.001048609    3.503    0.715
       382 -12.4556    194.0611     35.3265   5.4271675690e+01   3.1619786631e+01    0.3393629    0.2744008  73.57 0.0004380335    1.301    0.231
       383  -9.4263    142.3412     36.2718   6.2831681658e+01   4.4895487397e+01    0.1985903    0.1460992  71.80 0.0003214407    1.460    0.315
       384 -11.1998    142.4961     31.1998   6.0908194101e+01   4.5543307950e+01    0.5435445     0.333617 -13.92  0.001243665    1.870    0.465
       385 -10.2305    131.4636     36.2251   6.5099480965e+01   4.7706192566e+01    0.3096675    0.1998743  62.18  0.000437041    1.589    0.371
       386 -10.5483    119.2845     33.9612   6.7039652516e+01   5.1112476338e+01    0.3618904    0.2707871  89.13  0.001687507    1.713    0.416
       387 -11.5422     41.4399     38.0953   9.6974034623e+01   6.5739907452e+01    0.3765377     0.248711 -35.46 0.0007738902    1.506    0.336
       388 -11.1051     77.1520     33.6356   7.9691191857e+01   6.0727694110e+01    0.3793961    0.2412036 -64.05  0.001600011    2.455    0.593
       389 -10.7555     56.1859     33.9942   8.8394178811e+01   6.4449724518e+01    0.4759668     0.345822 -70.16  0.001508414    1.890    0.471
       390 -10.2176     60.6287     33.1892   8.6093223009e+01   6.3869317160e+01    0.2612465    0.2017851 -34.15 0.0006322722    1.206    0.171
       391 -11.8556    107.6375     29.2826   6.8067775079e+01   5.4665443724e+01    0.4887698     0.271257 -26.51 0.0004521734    1.845    0.458
       392  -9.1351     48.2541     34.3147   9.2174401146e+01   6.5601561029e+01    0.1343739   0.09538829 -25.38  0.000169778    1.527    0.345
       393 -10.0077     86.8978     33.1648   7.6039370816e+01   5.8795217741e+01    0.2154741    0.1977172 -69.71 0.0005446688    1.252    0.202
       394 -10.5175     34.1100     31.2010   9.7949362748e+01   6.8113358059e+01    0.3483132    0.2004081 -66.71 0.0008419032    2.098    0.523
       395  -9.7561    200.9442    249.3275   9.8238518528e+01   2.3073014967e+00    0.1503683   0.09343472  29.05 0.0007489387    1.130    0.115
       396  -9.8815     10.0932     22.5001   1.0852089303e+02   7.2246424773e+01    0.2039561    0.1206529  18.19  0.000348819    1.981    0.495
       397  -9.8162     24.0844     30.8278   1.0324943111e+02   6.9265798522e+01    0.2086689    0.1581253 -65.20 0.0005251623    1.284    0.221
       398 -10.2360     23.0680     27.0353   1.0237350457e+02   7.0186628067e+01    0.1855745    0.1561672 -50.26 0.0003006415    1.047    0.045
       399 -10.0475     77.9608    248.2545   1.1877195418e+02   1.8085174593e+01    0.2371543    0.1288956 -86.46 0.0006113027    2.481    0.597
       400 -11.6688     73.3986    244.1827   1.1930456090e+02   1.9186612660e+01    0.1853686    0.1205405  50.77 0.0004054749    1.120    0.107
       401  -9.8897    163.5316     29.9929   5.6823743351e+01   4.0150103126e+01    0.2234143    0.1456701 -23.00 0.0005081511    1.546    0.353
       402 -10.2383    158.9737     30.0257   5.7562520208e+01   4.1349418535e+01     0.223033    0.2142332  15.71 0.0003400661    1.072    0.067
       403 -11.0314     71.5115     29.3312   7.9856281176e+01   6.2597440213e+01    0.3063561    0.2484497  37.00  0.001687397    1.283    0.220
       404 -10.1489    220.7569     28.5782   4.9374171603e+01   2.5890553756e+01    0.1854228    0.1275792 -84.58 0.0009495905    1.673    0.402
       405  -9.1694    176.3105     36.3177   5.7006916010e+01   3.6026763964e+01    0.1532531    0.1100465  27.36 0.0007033674    1.640    0.390
       406 -10.0474    181.6672     27.4842   5.3399271492e+01   3.5695941106e+01    0.2590725    0.1315255 -24.27  0.001071582    1.921    0.480
       407 -10.2019    204.5491     26.7427   5.0482214258e+01   2.9982289291e+01    0.2055589    0.1152771 -36.98 0.0006584543    1.612    0.380
       408  -9.5266     99.9144     27.1792   6.9287890766e+01   5.6820007364e+01    0.2027944    0.1657402  23.91 0.0005511575    1.294    0.227
       409 -10.8378     49.4498     27.4611   8.8539425053e+01   6.6786656558e+01    0.3424004    0.2552104  78.63  0.001158832    2.279    0.561
       410  -9.6886    165.2846     26.6504   5.5398584463e+01   4.0088153090e+01    0.1585078     0.104662 -55.29  0.000577234    1.655    0.396
       411  -9.2229     37.6690     26.6863   9.4125195340e+01   6.8610267300e+01    0.1363161   0.09249379 -21.75 0.0003603773    1.678    0.404
       412 -12.0207     76.3809    242.1660   1.1865211814e+02   1.9127329324e+01    0.2828254    0.1705835  64.22 0.0006878868    1.586    0.369
       413 -10.8119    207.2430    245.9763   9.6846825556e+01   1.8170292611e+00    0.1888225    0.1418354  -2.10 0.0007442714    1.363    0.266
       414  -9.7299    243.2403     24.9892   4.6486467498e+01   2.1206597549e+01    0.1798656    0.1473716 -27.88 0.0004090354    1.087    0.080
       415 -11.6547    176.0603     22.3965   5.2458722169e+01   3.7729492234e+01    0.4871855    0.2521992  44.37  0.001531577    2.139    0.533
       416 -11.7132    137.1119    245.7330   1.0834646534e+02   1.1028533706e+01    0.3994935     0.204764  44.36  0.002602258    1.514    0.340
       417 -11.0816    153.5408     23.1757   5.5978480728e+01   4.3615905675e+01    0.2607998    0.2453586  55.66 0.0002639098    1.061    0.057
       418 -11.1116    169.3851     21.6646   5.3097122377e+01   3.9571088568e+01    0.3670363     0.154394 -31.21 0.0008917566    2.180    0.541
       419 -10.6076    132.9686     21.5647   5.8998185191e+01   4.9268366569e+01    0.3503004    0.2111334 -25.67  0.001550025    1.659    0.397
       420 -11.9375    116.9589     22.6013   6.2840488653e+01   5.3281679656e+01    0.2602911    0.2369853 -20.03 0.0001846971    1.095    0.087
       421  -9.4952    101.7002     22.2737   6.6553163081e+01   5.7100689960e+01    0.2133295    0.1768425 -20.34  0.000222782    1.196    0.164
       422  -9.6286    101.6956     19.2905   6.5170886281e+01   5.7506166525e+01    0.1954178    0.1608233  16.57 0.0002244712    1.275    0.216
       423  -9.7024     66.5256     22.5304   7.8521708107e+01   6.4723587797e+01    0.1392982    0.1260208 -11.13 0.0008091558    1.030    0.029
       424 -10.6700     38.1261     21.4336   9.1395465265e+01   6.9592220760e+01     0.472363    0.1976928  36.26  0.002078537    2.639    0.621
       425 -10.1590     27.4805     21.0930   9.7247529720e+01   7.0975910440e+01    0.2709921    0.1724886 -20.39  0.001428522    1.863    0.463
       426 -11.0398    224.1766     20.9995   4.6982680163e+01   2.5877745616e+01    0.3243051    0.1463177  52.53  0.001407421    2.434    0.589
       427 -10.1684    141.0038     20.9806   5.7270531772e+01   4.7212410627e+01    0.2269357    0.2180013  64.83 0.0004464313    1.034    0.033
       428 -10.2172     92.8772     19.5752   6.7804235030e+01   5.9561489722e+01    0.3938955    0.2514959 -47.96  0.001350039    1.785    0.440
       429 -10.0529     89.2571     19.5342   6.8886747174e+01   6.0400519809e+01    0.2829098    0.2488431 -82.81    0.0010048    1.392    0.281
       430  -9.1098    190.3188     20.2994   5.0072104488e+01   3.4250921378e+01    0.1458219    0.1042732  33.29 0.0002470065    1.619    0.382
       431  -9.8256     62.8066     23.1510   8.0380648320e+01   6.5315668214e+01    0.1918182    0.1555655   0.84 0.0008511283    1.320    0.243
       432 -10.8990    134.1738    240.8358   1.0837391692e+02   1.2019645313e+01     0.173672    0.1388052  34.46 0.0003704377    1.109    0.098
       433  -9.4339     57.9821     18.7539   8.0194575578e+01   6.6939974807e+01    0.1663577    0.1143804  41.22 0.0007069435    1.538    0.350
       434 -10.7643     45.7964     17.3994   8.5272597833e+01   6.9223406614e+01    0.3228328    0.2381393  72.54  0.001204926    2.362    0.577
       435 -10.8679    137.5525    240.5049   1.0775326844e+02   1.1611527894e+01    0.1840324    0.1367094  44.47 0.0005953644    1.151    0.131
       436 -10.9876     96.9065    246.5341   1.1537028516e+02   1.6053705410e+01    0.2261161    0.2015554 -65.92   0.00199099    1.529    0.346
       437  -9.4198    157.7854     17.5684   5.3284547033e+01   4.3109669891e+01    0.1955675    0.1401705  88.99 0.0003384018    1.528    0.345
       438 -10.1103     80.8886     17.1676   7.0414136636e+01   6.2606646868e+01    0.2346966    0.1963046  68.77 0.0004617231    1.410    0.291
       439 -11.1382     46.2212    246.0083   1.2409867937e+02   2.1917734725e+01    0.2580522    0.1402791  69.20  0.001603169    1.697    0.411
       440 -11.0472    200.8257    244.9019   9.7719880060e+01   2.7383967672e+00    0.2439836     0.126416  35.31  0.001056856    1.419    0.295
       441  -9.9855    230.1179     16.1851   4.5203998151e+01   2.4984694623e+01    0.1879447    0.1331583 -49.98 0.0005208153    1.303    0.232
       442 -12.2906    204.4462    240.4185   9.6589038791e+01   2.6973936276e+00    0.2747425    0.1693833  18.45 0.0002444562    1.380    0.275
       443 -10.4050    112.7238     15.4481   6.0659811672e+01   5.5248539425e+01    0.3560928    0.2556918  51.01  0.001260769    1.346    0.257
       444 -10.9129    198.1383    240.4884   9.7600418857e+01   3.5139699223e+00    0.1798944    0.1467774  17.06 -7.335952e-05    1.198    0.165
       445 -11.5952    127.6747    248.4993   1.1022240413e+02   1.1917781949e+01    0.2455277    0.2150723  70.11 0.0009574944    1.417    0.294
       446 -11.2954    145.9670    242.8517   1.0654066710e+02   1.0204854994e+01    0.2174848    0.1574192  22.66 0.0003659097    1.326    0.246
       447 -11.4901    144.3448    238.2403   1.0633976956e+02   1.0980313517e+01    0.2879546    0.1465129  37.76 0.0005605143    1.446    0.308
       448 -10.1016     88.9774     13.7713   6.6090328254e+01   6.1246197296e+01    0.2364921    0.1729752  58.02 0.0006599865    1.417    0.294
       449  -9.5789    106.2448    244.4128   1.1357544121e+02   1.5176333788e+01    0.1496737   0.06991424  44.19 0.0007052863    1.551    0.355
       450 -10.7100    191.5538    241.1302   9.8738035533e+01   4.3160985028e+00    0.2241636    0.1820789 -46.63  0.001799511    1.943    0.485
       451 -11.1559    179.6783     13.5712   4.9101622550e+01   3.7701290220e+01    0.2638595     0.129978  66.00 0.0006534946    1.966    0.491
       452 -10.7688     91.8251    242.4252   1.1595043003e+02   1.7239059388e+01     0.214159    0.1296985  46.66 0.0006218133    1.202    0.168
       453 -10.6108    210.5311    247.0463   9.6469917107e+01   1.3036819200e+00    0.1923316    0.1434289  22.45 0.0006365421    1.118    0.105
       454  -9.9852     61.9949    243.0398   1.2122546256e+02   2.0646617640e+01    0.1619202    0.1077922  50.71  0.001132913    1.060    0.057
       455 -10.0183    179.9716    242.4669   1.0078532324e+02   5.7118161632e+00    0.1638923   0.07702965  38.10  0.001018895    1.576    0.366
       456 -10.7433    128.9676    241.6714   1.0936216344e+02   1.2602492195e+01      0.22005    0.1253828  53.94   0.00143227    1.786    0.440
       457 -10.8087    110.4174    241.5497   1.1260332078e+02   1.5028694233e+01    0.2206389    0.1051987  54.97 0.0008689507    2.160    0.537
       458  -9.3220     55.7166    242.3255   1.2227979636e+02   2.1443342458e+01    0.1414873   0.09787403  72.09 0.0005830059    1.364    0.267
       459  -9.9001     54.8135    239.1959   1.2227066269e+02   2.2005644858e+01    0.1476007   0.09392321  55.63 0.0002557155    1.172    0.147
       460 -10.1726    225.9647    240.1902   9.3231877457e+01  -2.5774597373e-02    0.1525992    0.1140355   9.85 0.0002663211    1.162    0.140
       461 -11.4047    119.2123    240.8589   1.1099447233e+02   1.3984767239e+01    0.2802126    0.1146926  40.75  0.001137798    1.754    0.430
       462  -9.7855    120.1824    237.5901   1.1052173601e+02   1.4289042961e+01    0.2896991    0.1746703  63.79   0.00130021    2.103    0.525
       463 -10.8022    246.1729    239.2569   9.0119110094e+01  -2.4145618219e+00     0.220486    0.1553657  44.53  0.001665152    2.105    0.525
       464 -10.5247    167.8597    238.6170   1.0235279603e+02   7.7540302000e+00     0.158648    0.1506713  30.72 0.0006488952    1.376    0.273
       465 -10.8458    218.2876    237.3673   9.4031553219e+01   1.1962815759e+00    0.3278188    0.1429603  42.58  0.001946417    2.178    0.541
       466  -9.7081     84.0406    238.0345   1.1700884330e+02   1.8808450097e+01    0.1753367   0.09094729  56.43  0.001128924    1.723    0.419
       467  -9.4767     63.2274    238.6041   1.2075200921e+02   2.1160127950e+01    0.1333501   0.07929839  33.96 0.0003977378    1.515    0.340
       468  -9.4675     46.7340    238.3324   1.2364524334e+02   2.3003286975e+01    0.1039182   0.05233493  58.85 0.0005099887    1.581    0.368
       469 -10.3373     43.0183    236.1720   1.2419423088e+02   2.3721797183e+01    0.2005562     0.118922  76.45 0.0009433826    1.618    0.382
       470  -9.5607    160.4980    236.1402   1.0332043701e+02   9.0385485694e+00    0.1203364    0.1064658 -25.61 0.0004270014    1.461    0.316
       471 -10.0793     31.0144    236.2193   1.2629806365e+02   2.4932532933e+01    0.1333845    0.1084498   8.03 0.0009481965    1.997    0.499
       472 -11.8193     96.5178    237.9775   1.1477401332e+02   1.7279711873e+01    0.3939106       0.2223  48.72  0.002696821    1.365    0.267
       473  -9.8906    197.1468    233.6149   9.6887786033e+01   4.3333758593e+00    0.1504525    0.1303438  21.82 0.0006102165    1.296    0.228
       474 -10.1782    173.8318    233.2688   1.0071063100e+02   7.5417571624e+00    0.1982841    0.1252818   1.51   0.00125308    2.145    0.534
       475  -9.2504    183.3055    233.2510   9.9117607643e+01   6.2463526733e+00    0.1051366   0.06492349  19.99 0.0002034155    1.506    0.336
       476 -10.9576    144.1702    232.1044   1.0571206165e+02   1.1769079477e+01     0.346906    0.1409284  41.25  0.001345491    1.854    0.461
       477 -10.7690    103.4199    235.1503   1.1330184900e+02   1.6802220367e+01     0.431584    0.2162764  32.15   0.00261996    1.783    0.439
       478 -10.3268     74.8532    231.6906   1.1821709190e+02   2.0847443925e+01    0.2028846    0.1438589 -63.44 0.0009276128    1.809    0.447
       479 -11.3883     73.1213    226.1787   1.1814782883e+02   2.1897669340e+01    0.3024531    0.1198157  45.12  0.001123918    1.823    0.451
       480 -10.6886     46.2792    229.2700   1.2326972126e+02   2.4449487954e+01    0.3818882    0.1725597  70.24  0.002306871    2.289    0.563
       481 -10.4866     29.4039    231.0379   1.2637392597e+02   2.5897982298e+01    0.1817125    0.1273229  88.88  0.000753061    1.468    0.319
       482  -9.4151    186.6757    230.6666   9.8230015350e+01   6.0648775535e+00    0.1109799   0.06795859  14.64 0.0007050856    1.709    0.415
       483 -11.3907    152.6926    226.7732   1.0359968894e+02   1.1257961123e+01    0.3421015    0.2110136  45.03  0.001287172    1.394    0.283
       484 -11.0426     94.2800    228.0299   1.1436675045e+02   1.8999345435e+01    0.3249813    0.1627913  67.31  0.001744021    2.814    0.645
       485  -9.8145    133.2035    233.8476   1.0784103822e+02   1.3042254459e+01    0.1578301    0.1157559  49.44 0.0004938249    1.246    0.198
       486  -9.7898    138.2873    228.0231   1.0631518482e+02   1.3108457315e+01     0.148476    0.1212376  39.51 0.0005738511    1.089    0.082
       487  -9.7976    126.3927    228.2522   1.0849080289e+02   1.4714627443e+01    0.2003332    0.1062603  31.06 0.0007672791    1.693    0.409
       488  -9.5205    110.1191    220.8954   1.1076143640e+02   1.7975617594e+01    0.1549148     0.130277  32.00 0.0002863303    1.212    0.175
