#   1 NUMBER                 Running object number                                     
#   2 MAG_AUTO               Kron-like elliptical aperture magnitude                    [mag]
#   3 X_IMAGE                Object position along x                                    [pixel]
#   4 Y_IMAGE                Object position along y                                    [pixel]
#   5 X_WORLD                Barycenter position along world x axis                     [deg]
#   6 Y_WORLD                Barycenter position along world y axis                     [deg]
#   7 A_WORLD                Profile RMS along major axis (world units)                 [deg]
#   8 B_WORLD                Profile RMS along minor axis (world units)                 [deg]
#   9 THETA_WORLD            Position angle (CCW/world-x)                               [deg]
#  10 FWHM_WORLD             FWHM assuming a gaussian core                              [deg]
#  11 ELONGATION             A_IMAGE/B_IMAGE                                           
#  12 ELLIPTICITY            1 - B_IMAGE/A_IMAGE                                       
         1 -14.8379      6.1935     70.2962   8.6776698407e+01   6.0463651837e+01     1.153581     0.595154 -61.09  0.005578369    1.462    0.316
         2 -13.3490      2.8034     10.2907   7.2728883667e+01   7.2021384004e+01    0.6094892    0.3221695 -52.88  0.003309667    1.672    0.402
         3 -12.8384      7.8297      2.6657   6.6977013947e+01   7.2885432967e+01     0.479953    0.2985957  30.18  0.003395897    1.971    0.493
         4 -15.7129     11.6430     23.1766   7.2952069168e+01   6.9295717250e+01     1.674869    0.7604811 -37.21  0.007281792    1.838    0.456
         5 -14.4772     27.4819     10.9087   6.0632617326e+01   6.9947539228e+01    0.8445901    0.5048937 -16.57   0.00411714    1.678    0.404
         6 -13.5608    146.5558     29.8263   2.9707162847e+01   4.5202499343e+01     1.047248    0.6465857  59.07   0.00399155    1.474    0.322
         7 -12.7702    189.4836     26.4431   2.1363597490e+01   3.4505530535e+01     0.563724    0.2567215 -56.03  0.002131224    2.677    0.626
         8 -11.6961     82.7445      8.1246   3.7542580483e+01   6.2132961803e+01     0.415075    0.2024688  61.20  0.001855711    2.722    0.633
         9 -12.6441     86.1409     14.0884   3.9013969354e+01   6.0795161514e+01    0.4913884    0.3482422 -59.92  0.002604499    2.230    0.551
        10 -14.8263     98.7806     11.5017   3.4275709751e+01   5.8543560824e+01      1.26307     0.715654  56.11  0.004913809    1.705    0.414
        11 -12.0094     60.1688     15.2078   4.8473980282e+01   6.5166082466e+01    0.4472424    0.2773274  19.00  0.002513369    1.752    0.429
        12 -11.5114     46.6310     12.7838   5.2856266329e+01   6.7435924742e+01    0.2271311    0.1927393   1.85  0.001628661    1.084    0.077
        13 -12.5139    214.9364     10.1027   1.3963458131e+01   2.9934750412e+01    0.3587185    0.3257559  81.61  0.001385305    1.160    0.138
        14 -11.2793    124.3243     11.2009   2.7935616801e+01   5.2853156253e+01    0.2508384    0.1764145  63.06 0.0007505479    1.331    0.249
        15 -11.3306     75.9817      9.4023   4.0269869619e+01   6.3244813201e+01    0.2740542    0.1723927 -25.23  0.001562897    1.591    0.371
        16 -11.4152    188.0312      9.2850   1.6790296935e+01   3.6915267171e+01    0.2091147    0.1677844  81.42  0.001179832    1.083    0.077
        17 -13.5179     42.1334      3.8693   5.0683548542e+01   6.9212679168e+01    0.5380788    0.3995302  20.24  0.003222608    1.248    0.199
        18 -11.3591    119.4668      3.1444   2.6009025237e+01   5.4795820693e+01    0.2622222    0.1721919  83.73  0.001316346    1.907    0.476
        19 -11.0836    153.2003      8.7676   2.1633248045e+01   4.5978625389e+01    0.1971087    0.1507033  42.52  0.001073236    1.339    0.253
        20 -10.3626    168.6707      1.7034   1.7131094750e+01   4.2709147926e+01    0.1415467   0.09190466  44.81 0.0004573577    1.635    0.389
        21 -10.8856     61.9202      1.3905   4.1539465590e+01   6.6571897258e+01    0.2049313    0.1070401  48.83 0.0008799395    1.996    0.499
        22 -11.0120    200.5019    191.4951   5.9130041843e+01   3.2560580308e+00    0.1353701    0.1208665  37.75 0.0008103436    1.040    0.039
        23 -11.7379     51.2413    249.3549   9.4576307383e+01   1.8272148050e+01    0.2490431    0.1358978  75.16  0.001617975    1.540    0.350
        24 -12.3791      3.1646    249.4364   1.0213496701e+02   2.3810021404e+01    0.3653411     0.201893  65.73   0.00207675    1.181    0.153
        25 -13.4585      9.7180    245.6781   1.0099671482e+02   2.3774789095e+01    0.6958236    0.2803465  60.94  0.003459928    1.723    0.420
        26 -11.4392    206.2351    190.3754   5.7831824383e+01   2.3457346969e+00    0.1844563    0.1642739  15.17 0.0008348814    1.096    0.088
        27 -12.6199    249.4074    182.9523   4.8691982558e+01  -4.3540691441e+00    0.4006378    0.1393096 -39.23  0.001649972    2.958    0.662
        28 -10.5205    122.5061    181.9929   7.3694073448e+01   2.0188807635e+01     0.197727    0.1163795 -87.01 0.0008103895    2.562    0.610
        29 -10.7911    218.6675    175.3229   5.2647900168e+01   2.3901074724e+00    0.1314107    0.1095997  87.91 0.0007050218    1.703    0.413
        30 -11.0674    206.6791    169.3537   5.3733032477e+01   5.7521554486e+00    0.1396966    0.1123013 -88.64 0.0007046944    1.753    0.430
        31 -11.2453    222.3926    166.2354   5.0155288900e+01   3.1454415703e+00    0.1917979    0.1269852 -46.96 0.0009543296    1.687    0.407
        32 -11.7588    124.0424    167.0466   7.0904369200e+01   2.3075118814e+01    0.4169524    0.2443723 -81.28  0.001685966    2.531    0.605
        33 -12.1185     76.8320    156.5296   8.0357318470e+01   3.3561681028e+01    0.4404052    0.3549366  66.46  0.001684756    1.130    0.115
        34 -12.7262     73.0318    153.2675   8.0801421703e+01   3.4873964101e+01     0.535358    0.3667432  30.79  0.002493089    1.796    0.443
        35 -12.0967    189.1356    155.8867   5.4464155835e+01   1.1841766101e+01    0.2308755    0.2051748  82.81  0.001244151    1.260    0.206
        36 -12.2134    246.8855    150.1519   4.2566883787e+01   9.9402666065e-01    0.3941765    0.3399299 -53.72  0.002351141    1.339    0.253
        37 -10.8667    103.2025    149.9698   7.2866188798e+01   3.0741214395e+01    0.2258392    0.1618547 -35.01 0.0009579795    1.955    0.489
        38 -11.6708     60.3303    147.5159   8.3098287848e+01   3.7967666443e+01    0.3074576    0.2485285  28.93  0.001839172    1.561    0.359
        39 -12.0111     41.1831    137.5326   8.6550135784e+01   4.2582698381e+01    0.4263728    0.2133093  65.93  0.001986831    2.397    0.583
        40 -11.1010    135.4211    125.7452   5.9927513674e+01   2.9890261106e+01    0.2091009    0.1473296 -40.33 0.0006517739    1.578    0.366
        41 -13.4007    109.0166    123.9942   6.6282107201e+01   3.5646505350e+01    0.5897602    0.3690767 -39.75  0.002596321    1.908    0.476
        42 -13.4693    110.7356    116.7574   6.4212860693e+01   3.6971183723e+01    0.7886371     0.348968  37.14  0.002803089    2.601    0.616
        43 -12.6613     28.5935    121.6999   8.7763513502e+01   4.7479885804e+01    0.3321518    0.2591215 -79.86  0.002187137    1.048    0.045
        44 -12.2030      4.8375    119.2644   9.3745132204e+01   4.9902707849e+01    0.6420417    0.3543022 -69.90  0.003941098    1.405    0.288
        45 -11.8212      8.3156    114.4381   9.2314520755e+01   5.0736001410e+01    0.4435471     0.213385  82.55  0.002250399    2.315    0.568
        46 -11.8288     86.7205    114.8038   7.0368450210e+01   4.1721785406e+01    0.2853596    0.2306134 -20.90 0.0009638214    1.665    0.399
        47 -12.3759     81.5353    114.7175   7.1809251182e+01   4.2574549273e+01    0.3992084    0.2771015  64.85   0.00199269    1.638    0.389
        48 -12.4364     78.5577    110.1817   7.1704180784e+01   4.4087347450e+01    0.4329512    0.3063014 -66.63  0.002251852    1.357    0.263
        49 -11.0026     35.0416     86.4793   8.0139124029e+01   5.4843442919e+01    0.3071927    0.1575294 -40.96  0.001527098    2.080    0.519
        50 -12.1045     19.0627     85.9928   8.5209603041e+01   5.6276090182e+01     0.312258    0.2457203 -37.70 0.0003414307    1.351    0.260
        51 -12.5602     36.7181     92.9340   8.0848844109e+01   5.3249618530e+01    0.3795092    0.2780535  10.81  0.001532551    1.773    0.436
        52 -13.0917      2.1889     96.9268   9.1964522172e+01   5.4972990032e+01    0.6149542    0.2792769 -78.15  0.003023052    1.851    0.460
        53 -14.0221     17.9731    111.4779   8.9324925957e+01   5.0693139475e+01    0.6195919    0.5102301  22.45  0.003346565    1.556    0.357
        54 -14.2323     13.3120    104.1652   8.9682090739e+01   5.2672359377e+01    0.8261821    0.5062768  38.72  0.005157668    1.878    0.468
        55 -14.3467     22.5600     94.7889   8.5570898666e+01   5.4070955850e+01     1.087463    0.7941226  12.87  0.006549199    1.778    0.438
        56 -13.0739     29.6087     89.3233   8.2427910658e+01   5.4702926172e+01    0.8150936    0.4339537  81.49  0.003601518    3.122    0.680
        57 -11.4787    121.7215    112.1578   6.0216861827e+01   3.5806497931e+01    0.2908314    0.2465183  76.13 0.0006846429    1.228    0.186
        58 -13.2077     95.2247    110.2564   6.6977265509e+01   4.1323957143e+01    0.5111673    0.4405111 -67.07  0.002337132    1.105    0.095
        59 -14.5536    106.2528    103.7854   6.2351590097e+01   4.0763410271e+01     1.107639    0.8870423  41.13  0.005645535    1.304    0.233
        60 -12.1932    137.0511    103.2496   5.4030624937e+01   3.4437780152e+01    0.5747058    0.2710077  55.23  0.002079774    2.308    0.567
        61 -12.1098     61.5918     98.2629   7.4194509998e+01   4.9231435182e+01    0.5651031    0.3335553  74.65  0.002406629    2.813    0.644
        62 -11.9564     46.8441     99.5451   7.8968051154e+01   5.0713791924e+01    0.4494901    0.2921875  72.41  0.002344854    1.971    0.493
        63 -11.5340     53.1651     97.4904   7.6621814410e+01   5.0456818568e+01    0.3578078    0.2417865  -0.02  0.001814577    2.304    0.566
        64 -11.9211     63.0706    110.2328   7.6198817364e+01   4.6290855896e+01    0.4645755    0.2942919  58.54  0.002346227    1.823    0.451
        65 -12.3870    136.7379     94.8545   5.1885106279e+01   3.6280302762e+01    0.5028816    0.3233984  57.17  0.002180388    1.607    0.378
        66 -11.9843     49.0212     93.3722   7.7065905036e+01   5.1866316769e+01    0.3276094    0.2461608  75.85  0.001890955    1.571    0.363
        67 -12.1988     42.4944     90.6753   7.8581068273e+01   5.3177316470e+01    0.3040755    0.2208838 -77.02 0.0006270819    1.364    0.267
        68 -12.3178    187.8174     84.2696   3.7609321677e+01   2.5863813960e+01    0.4080667    0.2579603  40.55  0.001688784    1.821    0.451
        69 -12.4204    164.0242     71.6858   3.8947910361e+01   3.4183403495e+01    0.5847658    0.3637638 -32.76  0.002495614    1.767    0.434
        70 -11.4968    158.0357     83.5017   4.3626731651e+01   3.3485789363e+01     0.308985    0.2476636  63.90 0.0006373629    1.237    0.192
        71 -13.0821    162.3282     79.4863   4.1539399963e+01   3.3180113499e+01    0.8366835    0.4203287  35.83    0.0028263    2.913    0.657
        72 -12.9019    169.3063     77.1247   3.9376028356e+01   3.1859595555e+01    0.4475372    0.3498039  26.89  0.001694017    1.601    0.375
        73 -11.4018     41.9822    106.2834   8.1653404492e+01   4.9698763280e+01    0.2736716    0.2348351  30.57  0.001507866    1.384    0.278
        74 -13.1143     65.2098     49.1489   5.9641506071e+01   5.8987189022e+01     1.017701    0.5494773 -43.66  0.005120378    1.713    0.416
        75 -12.7365     54.3779     81.2180   7.2626475591e+01   5.3932311931e+01    0.5474112    0.3943277 -72.54  0.003084465    1.480    0.324
        76 -13.8444     54.2918     67.3366   6.9096352575e+01   5.6889179585e+01     1.223355    0.8128602 -16.65  0.006409896    1.993    0.498
        77 -13.5323     87.3319     65.3161   5.7355077110e+01   5.2376514034e+01    0.9229343    0.5731905  13.55  0.003384262    2.666    0.625
        78 -12.4933     77.2264     73.4724   6.3048114077e+01   5.2409473619e+01    0.6287978    0.3640894 -34.89  0.002821723    1.926    0.481
        79 -10.4789    126.2967     83.3490   5.1387834511e+01   4.0995438387e+01    0.1528348    0.1224343   0.34 0.0002188735    1.681    0.405
        80 -12.0357    216.7903     81.7953   3.1853182355e+01   1.9082706839e+01    0.2709773    0.1813857  58.25 0.0009312016    1.503    0.335
        81 -11.6663    114.0225     79.8307   5.3723353227e+01   4.4348211448e+01    0.3884362    0.3347967 -59.42  0.001585906    1.192    0.161
        82 -11.8651    136.3006     79.6913   4.7739624102e+01   3.9452497015e+01    0.5626017    0.2647669  44.67  0.001704523    2.165    0.538
        83 -13.8806     61.5477     75.2001   6.8716192137e+01   5.4317789395e+01     0.676077      0.47157 -36.89  0.002757337    1.441    0.306
        84 -11.3523    109.6699    249.3244   8.4537583207e+01   9.8603697808e+00    0.1259699   0.07065327  64.96 0.0007050228    1.701    0.412
        85 -13.7846      3.8558     63.6065   8.6399063563e+01   6.1980444322e+01    0.5157614    0.4795342  34.86  0.003008126    1.362    0.266
        86 -11.4291     27.0875     75.5107   8.0574500218e+01   5.7929011055e+01    0.4121224    0.2060123 -83.96  0.001782996    3.171    0.685
        87 -10.2617     97.9958     75.0551   5.6989843093e+01   4.8496708892e+01    0.1631241     0.161263 -34.50  0.000952551    1.016    0.016
        88 -12.3829    198.7431     70.4811   3.1946027531e+01   2.5506403708e+01    0.5898136    0.4233287  15.65  0.002535402    2.205    0.546
        89 -10.9081    117.5217     72.4861   5.0566389828e+01   4.5070136170e+01     0.246048    0.2430813  64.30 0.0005358122    1.007    0.007
        90 -12.1045    134.8074     66.4891   4.4166378441e+01   4.2303024728e+01    0.4969861    0.2867613  50.63  0.001503955    1.679    0.404
        91 -10.7591     99.7460     65.4311   5.3531106862e+01   5.0066663128e+01    0.1943445    0.1345009  33.27 0.0009429103    1.561    0.359
        92 -13.0125     78.9042     60.3568   5.8550607470e+01   5.4766023593e+01    0.6335831    0.4479944 -35.51  0.003408181    1.380    0.275
        93 -12.6629    178.3351     58.7740   3.2376522322e+01   3.2717402357e+01     0.517535    0.4673235  -4.22  0.001779073    1.333    0.250
        94 -11.8867     38.8364     59.9840   7.2686068166e+01   6.0112627786e+01    0.2625937    0.1810708  66.38  0.001440221    2.268    0.559
        95 -11.9990     35.1390     59.5483   7.3948078254e+01   6.0560238519e+01    0.6229111     0.207353 -57.17  0.002681473    2.582    0.613
        96 -12.9325     70.9832     75.2226   6.5582067935e+01   5.2993831320e+01    0.4888388    0.3471112 -15.70  0.001541894    1.877    0.467
        97 -12.8122     91.9534     56.8536   5.3176665481e+01   5.3152128428e+01    0.4481262    0.2823304  33.82  0.001797048    1.706    0.414
        98 -11.5315     24.8240     59.2842   7.7750475721e+01   6.1508602372e+01    0.3609276    0.1717141 -54.82  0.001955421    1.668    0.401
        99 -11.9173    111.1698     58.8848   4.8076910776e+01   4.8973787900e+01    0.3106486    0.2637197 -51.33  0.000332779    1.240    0.194
       100 -14.0641    120.2848     54.8188   4.4223494091e+01   4.7708069760e+01    0.8088048    0.5109079  41.58  0.003743877    1.598    0.374
       101 -13.3823    103.3165     50.5015   4.7560344458e+01   5.2073864609e+01    0.8907409    0.5423318 -65.17   0.00232945    2.882    0.653
       102 -12.9976     97.8737     50.1408   4.9074106965e+01   5.3221893558e+01    0.4946292    0.3849217 -47.45  0.001723172    1.358    0.264
       103 -10.7392     47.0334     56.2047   6.8568257488e+01   5.9993617785e+01     0.188847    0.1386425  62.97 0.0008636093    2.004    0.501
       104 -11.3276     17.7484     55.6954   7.9575751321e+01   6.2761612870e+01    0.2741022    0.1304876 -62.22  0.001490883    1.792    0.442
       105 -10.0255     42.3453     53.2681   6.9472360358e+01   6.1086851996e+01    0.1234002   0.08370326 -22.38 0.0006987541    1.612    0.380
       106 -11.2974    136.1609     49.7635   3.8539523168e+01   4.4855336564e+01    0.2527958     0.237333  56.80 0.0006431312    1.017    0.016
       107 -10.4846     23.5274     49.9553   7.5872563434e+01   6.3477403865e+01    0.1708471   0.09503967 -54.82 0.0004541264    1.480    0.324
       108 -12.0127    153.2662     47.2110   3.3885908874e+01   4.1017408763e+01    0.4395424    0.2406792  60.52  0.001848769    1.749    0.428
       109 -10.8482     38.6595     46.0929   6.8732143339e+01   6.2852044790e+01    0.1743853    0.1277791 -41.81 0.0007665069    1.157    0.136
       110 -12.5191    204.9245     40.0576   2.2879765987e+01   2.8652945073e+01    0.7361912    0.3410421  86.96  0.002421499    3.483    0.713
       111 -12.3181    212.7807     43.1197   2.2596076131e+01   2.6205428603e+01    0.5057541    0.2829957  53.41   0.00213462    1.851    0.460
       112 -12.6553    219.7489     41.6882   2.1313368958e+01   2.4653272326e+01    0.7131717    0.4226615  88.79  0.002648417    1.900    0.474
       113 -13.0580      5.9472     42.9865   8.1208288157e+01   6.5997354093e+01    0.7075225     0.353049  18.58  0.004302453    2.384    0.581
       114 -11.8840     28.9863    244.8677   9.7937055180e+01   2.1782580942e+01    0.2927217    0.1395797  57.52  0.001914434    1.483    0.326
       115 -13.5411     92.6616    230.4140   8.5798381842e+01   1.5761490508e+01    0.4438551    0.3081792  54.22  0.002844524    1.141    0.124
       116 -12.2682     24.4526    216.8507   9.7140855105e+01   2.7443937002e+01    0.5659952    0.2594749  55.03  0.003437137    1.680    0.405
       117 -13.4047     26.4702    225.6494   9.7304580325e+01   2.5550079034e+01    0.5716895     0.291817 -65.17  0.003558865    2.197    0.545
       118 -11.7494    159.2981     43.1625   3.1398009678e+01   4.0087921864e+01    0.4092831     0.294351  71.68  0.001570337    1.389    0.280
       119 -10.2395     80.2604     44.6899   5.2829464150e+01   5.7394141652e+01    0.1216306    0.1046828 -71.81 0.0002339325    1.529    0.346
       120 -11.9019    109.6516     41.8734   4.2732350169e+01   5.2164364951e+01    0.4388617     0.197177  53.21  0.001133469    2.245    0.555
       121 -12.3246    131.8133     32.9271   3.3939672454e+01   4.8419307883e+01    0.4480675    0.3083682  43.39   0.00149863    1.411    0.291
       122 -13.6688    122.2697     36.2785   3.7404474898e+01   5.0195496292e+01    0.7962909    0.5285338  34.44  0.003852316    1.621    0.383
       123 -12.4103    113.7882     37.8009   4.0152116783e+01   5.1886501580e+01    0.3528282    0.3201365  85.47  0.001125413    1.272    0.214
       124 -11.2275    135.1776     39.7296   3.5463525694e+01   4.6638448141e+01    0.3612213    0.1900595  58.87  0.001148829    1.836    0.455
       125 -12.4072    241.9346     36.1600   1.7386355813e+01   2.0026485157e+01    0.5063661    0.2671358  69.53  0.001649725    1.859    0.462
       126 -12.0670     75.7694     37.0160   5.1571983698e+01   5.9432813530e+01    0.3617748    0.2111828  40.94  0.001057399    1.740    0.425
       127 -11.4526     70.6490     36.1205   5.3042579348e+01   6.0415422585e+01    0.2416649    0.2141104  34.24 0.0007397913    1.213    0.176
       128 -12.5252     43.9468     33.1061   6.2201202666e+01   6.4612292637e+01     0.664141     0.430805  36.54  0.004020454    1.748    0.428
       129 -10.5714     35.0662     34.7220   6.6472164158e+01   6.5299057096e+01    0.1858979    0.1574677  31.75 0.0006865968    1.416    0.294
       130 -13.6592    166.4072     30.1588   2.6083480721e+01   4.0063260435e+01     0.984431    0.5024738  66.18  0.003953626    1.838    0.456
       131 -12.3237    139.2250     21.4971   2.8420396803e+01   4.8081665234e+01    0.9133571    0.2433618  61.29  0.002907172    3.422    0.708
       132 -11.7682    152.4975     31.4839   2.9062421715e+01   4.3476812431e+01    0.2739604    0.2450022  68.58 0.0009503536    1.034    0.033
       133 -13.9290     20.6344    224.0404   9.8207843585e+01   2.6499658266e+01     0.629524    0.4120283  60.90  0.004630149    1.178    0.151
       134 -10.9559     64.7687     30.0190   5.2850881652e+01   6.2307238141e+01    0.1697372    0.1423194 -24.65 0.0003573737    1.109    0.099
       135 -10.9600    191.6595    226.3281   6.6579285064e+01  -4.7962639769e-01      0.12343   0.09213355  66.41 0.0007051547    1.737    0.424
       136 -11.9950     62.5019     25.6703   5.1972869793e+01   6.3319012967e+01    0.3981751    0.2362872  14.70  0.002008703    2.181    0.542
       137 -11.9819    120.7916     26.2802   3.4220930511e+01   5.1907824496e+01    0.4030297    0.2593713  69.83  0.001545657    1.790    0.441
       138 -11.5904     30.6935     25.4810   6.5040497577e+01   6.7325040495e+01    0.3661239    0.2088687  -5.82  0.001801237    2.288    0.563
       139 -11.3643     36.3816     23.8000   6.1890727326e+01   6.7013353954e+01    0.3164322    0.1835937 -48.17  0.001859901    1.721    0.419
       140 -11.9772     48.6211     20.3446   5.5276847035e+01   6.6082251405e+01    0.5563688    0.1986805  37.05  0.002539277    2.910    0.656
       141 -13.6263     64.9527    223.1741   9.0282999307e+01   2.1176894022e+01    0.7097258    0.4953603  60.34  0.004744256    1.111    0.100
       142 -12.1292    248.8812    216.0756   5.4761193226e+01  -8.6295638904e+00     0.287194    0.1619586  41.45  0.001648704    1.663    0.399
       143 -10.8755    156.6805    214.6727   7.1517679652e+01   7.6344999499e+00     0.127264   0.09956479  15.79 0.0007046993    1.683    0.406
       144 -11.4940     71.2044     16.5400   4.4989840882e+01   6.3203094072e+01    0.2221402    0.1888843 -33.49 0.0006781824    1.305    0.234
       145 -12.0174      4.2521    212.7823   1.0041630152e+02   3.0314045843e+01    0.3049164    0.1518597 -86.82  0.001995617    1.591    0.371
       146 -13.0597     55.6004     27.0091   5.5172573756e+01   6.4117794338e+01    0.6389633    0.3146679  39.56  0.002663556    2.155    0.536
       147 -11.8897     72.4192    206.9783   8.7387680538e+01   2.3286945880e+01    0.3206654    0.2066702 -87.57  0.001903249    1.467    0.318
       148 -11.0087    185.4765    203.4811   6.4121771087e+01   4.1494714128e+00    0.1348909    0.1160468  39.66 0.0001663399    1.004    0.004
       149 -12.7135     16.3892    197.1742   9.7403429886e+01   3.2178669798e+01    0.4789229    0.1431356 -60.09  0.002133324    3.806    0.737
       150 -13.2646     29.6875    169.3875   9.2667942772e+01   3.6648506507e+01    0.9359336    0.5351998 -43.35  0.004840204    2.881    0.653
       151 -13.1335     21.9197    165.9914   9.4044166515e+01   3.8176781029e+01    0.3693924    0.2953702   3.86  0.001027206    2.098    0.523
       152 -15.5108      7.5223    182.0038   9.8144005353e+01   3.6131607312e+01     1.835848     1.083649  89.74   0.01222533    1.295    0.228
       153 -10.4572     40.5249     12.5649   5.5390225027e+01   6.8246458577e+01     0.114666   0.09364489  -9.71 6.337497e-06    1.015    0.014
       154 -14.5570     15.5632    174.7975   9.6061579422e+01   3.6895917129e+01     1.183642    0.4790508  74.38  0.005698435    2.569    0.611
       155 -12.9352     36.8784    194.5258   9.3296775817e+01   3.0493162993e+01    0.3301812    0.1855705  87.16  0.001952774    1.538    0.350
       156 -12.1989    247.4995    194.5677   5.1185719185e+01  -5.6372988728e+00    0.2346543    0.1789179 -22.77  0.001472777    1.295    0.228
