#   1 NUMBER                 Running object number                                     
#   2 MAG_AUTO               Kron-like elliptical aperture magnitude                    [mag]
#   3 X_IMAGE                Object position along x                                    [pixel]
#   4 Y_IMAGE                Object position along y                                    [pixel]
#   5 X_WORLD                Barycenter position along world x axis                     [deg]
#   6 Y_WORLD                Barycenter position along world y axis                     [deg]
#   7 A_WORLD                Profile RMS along major axis (world units)                 [deg]
#   8 B_WORLD                Profile RMS along minor axis (world units)                 [deg]
#   9 THETA_WORLD            Position angle (CCW/world-x)                               [deg]
#  10 FWHM_WORLD             FWHM assuming a gaussian core                              [deg]
#  11 ELONGATION             A_IMAGE/B_IMAGE                                           
#  12 ELLIPTICITY            1 - B_IMAGE/A_IMAGE                                       
         1 -13.3909    222.8524      7.0766   3.5296701416e+01   2.9073487527e+01     1.137449    0.8607295  63.22  0.004792219    1.404    0.288
         2 -14.3409    196.1476     37.8661   4.5777577459e+01   3.1765015881e+01     2.906912      1.75403  23.03   0.01190415    3.002    0.667
         3  -9.7395    189.7218     14.7381   4.0392816198e+01   3.6058147512e+01    0.2403653    0.2057132 -53.12 0.0008805537    1.167    0.143
         4 -10.8809     74.5676     13.1760   6.2898954131e+01   6.3074250527e+01    0.3777163    0.2226954  59.14  0.001903474    2.134    0.531
         5  99.0000     53.0943    220.6713   1.1798177521e+02   2.1871883855e+01    0.5912603    0.2194254  64.25  0.002288287    3.708    0.730
         6 -10.6789    247.0025    246.2346   8.3426973389e+01  -1.0915997770e+01    0.3937041    0.1812179  -3.66  0.001637579    3.925    0.745
         7  -9.2733     49.0373    217.3039   1.1851030354e+02   2.3051680528e+01    0.2843764    0.1840624   6.53  0.001400398    3.281    0.695
         8  -9.4654     81.3172    220.5012   1.1223498598e+02   1.8195830627e+01    0.2439085    0.1105743  37.79 0.0008942715    2.014    0.504
         9  -9.5162     58.6003    228.9051   1.1758658590e+02   1.9542437927e+01    0.1551984    0.1171903  86.31 0.0004470768    1.211    0.175
        10 -10.3314    184.0119    212.2873   8.9479808818e+01   3.1962700776e+00    0.1951335    0.1616627  26.97  0.000785536    1.071    0.066
        11 -10.8924     66.0014    207.0363   1.1405138204e+02   2.3076945292e+01    0.2629571      0.20848 -57.44 0.0003296939    1.450    0.310
        12 -11.3339     64.5161    203.0274   1.1395478008e+02   2.4134261323e+01     0.236154    0.1926705 -87.41 0.0004546221    1.135    0.119
        13 -10.0737     42.4605    208.5731   1.1911886931e+02   2.5646615925e+01    0.2712456    0.1425795  62.33  0.001136364    1.768    0.434
        14 -10.0463     35.7036    208.7012   1.2050062703e+02   2.6377110926e+01    0.1581611     0.101571  64.19 0.0005624148    1.326    0.246
        15  -9.9983     56.4460    209.1895   1.1628193340e+02   2.3842782709e+01    0.4057929    0.1960655  85.51  0.001364849    2.586    0.613
        16 -11.1366    193.9479    198.1983   8.4939057412e+01   3.8872401390e+00     1.430897    0.7367974 -53.62  0.005961436    2.860    0.650
        17  -8.7640     96.4777    202.0269   1.0678998914e+02   1.9806030006e+01    0.2484268    0.1228969 -56.61   0.00114467    2.108    0.526
        18 -10.2012     26.5177    203.6143   1.2197342325e+02   2.8431600124e+01    0.3675675    0.1075994  50.05  0.001349282    2.936    0.659
        19 -12.5857     53.0976    197.6959   1.1589125940e+02   2.6742937112e+01    0.4748845    0.2846787 -47.86  0.001849746    2.150    0.535
        20  -9.9463     38.9117    199.7472   1.1911597880e+02   2.7944444904e+01    0.2002666    0.1515732  73.80  0.001123785    1.096    0.088
        21  -8.2162    224.2727    206.6631   8.0634888277e+01  -2.4753330772e+00    0.1104851    0.1046487 -62.17 0.0002529559    1.603    0.376
        22 -10.7191    133.8073    195.1459   9.7346822524e+01   1.5113850381e+01     0.255229    0.2014489  82.85 0.0009381255    1.570    0.363
        23  -9.5598     72.0836    250.1111   1.1677708305e+02   1.3835827782e+01    0.1568131     0.124663  69.48 0.0003377228    1.096    0.088
        24  -9.9032    128.6146    196.5770   9.8751953302e+01   1.5717103938e+01    0.2675842    0.1104833 -40.61 0.0009544808    3.332    0.700
        25  -9.4914     32.6475    196.1876   1.2013855453e+02   2.9401607534e+01    0.1190471   0.06973581  57.05 0.0006661144    1.528    0.346
        26  -9.2817     81.4552    194.1607   1.0916376098e+02   2.3754585685e+01    0.3035899    0.2056948  74.68  0.001601258    1.577    0.366
        27  -7.7427     68.4357    193.4035   1.1202798778e+02   2.5734694509e+01    0.1314846    0.1097767  72.17 0.0001276459    1.052    0.049
        28 -11.6964     74.0744    188.7363   1.1017690697e+02   2.6015838667e+01    0.7664194    0.3698483  65.01  0.002471872    2.825    0.646
        29 -12.1575     61.8018    185.1474   1.1258609327e+02   2.8476602032e+01    0.7721328    0.6208004 -67.63  0.003702736    1.234    0.189
        30 -11.0338     66.5368    181.4951   1.1103645314e+02   2.8699259097e+01    0.3134106    0.2838575  84.29 0.0008981578    1.063    0.059
        31  -8.7947     93.7047    205.4569   1.0784808850e+02   1.9499204020e+01    0.2166089    0.1654297 -22.14 0.0008513074    2.011    0.503
        32 -10.7579    149.3917    187.8049   9.2558942431e+01   1.3835259422e+01    0.3495913    0.2873604  64.76  0.001078889    1.394    0.283
        33 -10.8388    124.3390    186.8581   9.8143416974e+01   1.8508018753e+01    0.2943891    0.1784192  58.29  0.001310559    1.927    0.481
        34  -8.9936     92.7618    185.1679   1.0531556390e+02   2.4085270492e+01    0.2509401     0.165676  49.40 0.0009603548    1.443    0.307
        35 -10.6909     98.9198    181.1181   1.0324069821e+02   2.4037682690e+01    0.3761254    0.2991185   3.39  0.001698056    1.745    0.427
        36 -10.8044    143.3139    178.2309   9.2187576195e+01   1.6940415268e+01     0.351147    0.2569404 -39.59 0.0009488311    1.463    0.316
        37 -10.0062    188.7180    176.9410   8.1872867639e+01   8.6400862096e+00    0.3949975    0.3752394  56.06  0.002300685    1.241    0.194
        38  -9.6355     47.9359    172.8724   1.1443624915e+02   3.3026793455e+01    0.5771194    0.3319513 -33.62  0.002565515    3.018    0.669
        39 -10.2223     54.2271    173.3796   1.1298320546e+02   3.2162710101e+01    0.2918508    0.1972139  72.70 0.0004398982    1.484    0.326
        40  -9.1884     84.2051    173.8030   1.0571122928e+02   2.8005594182e+01    0.1794268    0.1604247 -37.89 0.0003478234    1.322    0.244
        41  -9.7943    146.9011    172.3796   9.0229950905e+01   1.7512228608e+01    0.2540737    0.2076409 -63.43 0.0008985709    1.369    0.270
        42  -8.7206    194.3093    172.0310   7.9701917730e+01   8.5044735119e+00    0.2035421    0.1770576 -26.23 0.0007049313    1.120    0.107
        43 -10.1918    138.1902    169.7748   9.1780314421e+01   1.9720567901e+01    0.3451979    0.2796943  34.50  0.001071183    1.225    0.183
        44  -9.2230    149.1977    176.8669   9.0566441036e+01   1.6129528505e+01    0.2114753    0.1957995  76.51 0.0004661459    1.195    0.163
        45  -9.5669    240.4765    169.4807   7.0407257080e+01   6.9870368947e-01    0.1349333     0.114459 -12.79 4.549195e-05    1.015    0.015
        46 -10.3724     56.8779    166.1192   1.1142473025e+02   3.3564984267e+01    0.3818533    0.2008121 -44.18   0.00170301    2.403    0.584
        47  -8.6959     76.4076    222.1339   1.1341237200e+02   1.8548645947e+01     0.302763    0.1020272 -60.47 0.0007286543    3.021    0.669
        48  -9.3917    187.8139    162.7281   7.9083867910e+01   1.1517761487e+01    0.2678623    0.1916259 -65.26 0.0007972617    2.014    0.503
        49 -11.5029     93.7907    151.5774   9.9536745166e+01   3.1828859291e+01     0.694607    0.5845447 -17.86  0.003646307    1.485    0.327
        50 -10.6053    134.1980    147.1485   8.8082339780e+01   2.5562879635e+01    0.9618851    0.2652795 -53.03  0.002588587    4.278    0.766
        51 -10.1600    133.0000    140.0012   8.6784963620e+01   2.7435360078e+01    0.5405529     0.200619 -50.87  0.001771045    2.762    0.638
        52  -9.4855    187.2207    151.6130   7.6757674627e+01   1.3807681015e+01     0.212218    0.1379702  32.20 0.0007497557    1.642    0.391
        53  -9.1808    112.9006    150.9118   9.4356972776e+01   2.8712788628e+01    0.3025464    0.2210122  79.48 0.0006843485    1.787    0.440
        54  -8.6222    109.6913    148.0154   9.4612794575e+01   2.9975891201e+01    0.2064086    0.1845083 -63.24 0.0002708479    1.097    0.089
        55  -9.7132    174.5779    149.0212   7.8910624052e+01   1.6919915756e+01    0.2723343    0.2629542  59.18 0.0009799079    1.131    0.116
        56 -10.5753    105.7044    138.0870   9.3606788210e+01   3.3063966857e+01    0.5486038     0.328207 -35.22  0.002252343    2.050    0.512
        57 -10.4485    105.9524    130.7909   9.1927153403e+01   3.4771298905e+01    0.4038101    0.3229481 -60.81  0.001130918    1.244    0.196
        58 -11.6445     93.7392    137.6302   9.6822216608e+01   3.5229698372e+01    0.2829224    0.2613055 -39.84 0.0004943499    1.127    0.113
        59 -10.4821    114.0489    129.3677   8.9355071921e+01   3.3612237952e+01     0.422696      0.35585 -67.25  0.001166993    1.246    0.197
        60  -9.9191    136.1428    129.6678   8.3539045190e+01   2.9152860823e+01    0.4683688    0.1968393 -53.34  0.001555372    2.678    0.627
        61  -8.2603     98.2715    129.7176   9.3850698089e+01   3.6386671492e+01    0.1453737    0.1163265  82.67  0.000207215    1.497    0.332
        62  -9.2617    160.8491    128.0696   7.7061285127e+01   2.4234980098e+01    0.2497602    0.2221759 -77.05  0.001245384    1.293    0.227
        63 -10.3764    101.1967    124.9434   9.1930633139e+01   3.7025347372e+01    0.3138519    0.2511695 -22.90 0.0006356417    1.465    0.317
        64 -10.7737    119.9895    122.4251   8.6050730718e+01   3.4089484465e+01    0.5263477     0.344426  -9.20  0.001933948    2.759    0.638
        65  -9.6115    135.0000    120.8117   8.1629045428e+01   3.1389825761e+01    0.4315857   0.08839705 -45.97   0.00103487    4.786    0.791
        66  -9.3396    109.3182    118.3661   8.8025826911e+01   3.7100756625e+01    0.2556977    0.2216915 -42.36 0.0002748578    1.121    0.108
        67 -10.0204    231.4342    113.7037   5.9605077417e+01   1.1778743050e+01    0.2714862    0.2463816  -8.68 0.0008472179    1.142    0.124
        68  -9.0329    167.7725    112.5210   7.1487593368e+01   2.5939021679e+01    0.2947497     0.204519 -74.19  0.001178304    2.194    0.544
        69 -10.0510    134.7110    104.6766   7.7416573427e+01   3.5009713622e+01    0.5861605    0.1568924 -44.66   0.00162083    3.672    0.728
        70 -11.6181    118.3975    109.7499   8.3233971516e+01   3.7316844920e+01    0.6649135      0.57317  87.17  0.002932172    1.391    0.281
        71  -9.5698    205.4239    110.1830   6.3216275527e+01   1.7902189504e+01    0.3164521    0.2147708  40.29  0.001045973    1.619    0.382
        72  -9.8235     63.3613     99.9531   9.7687747875e+01   4.8940152634e+01    0.3003033    0.2051006  16.05  0.001482268    1.783    0.439
        73  -9.3196     59.3958    220.2814   1.1668820528e+02   2.1166842117e+01     0.307864    0.1852156  27.28  0.001688059    2.064    0.516
        74  -8.4217    156.2611     82.3403   6.5694008836e+01   3.4561375108e+01    0.1542897    0.1218777   3.22 0.0004657432    1.589    0.371
        75  -9.5976     65.3640     70.2332   8.8747860780e+01   5.5342996105e+01    0.2373604    0.1897635  24.79 0.0005618157    1.327    0.246
        76 -10.2552     72.6523    245.4653   1.1628898615e+02   1.4595953438e+01    0.3598641    0.1638175  60.62  0.001821215    2.233    0.552
        77 -12.4864    180.4386     51.8584   5.2007561653e+01   3.3694904561e+01    0.7150213    0.6585956  55.43 0.0008090274    1.107    0.097
        78  -8.0390     84.2443    245.6608   1.1412112260e+02   1.3000226706e+01    0.1177832   0.07460313  68.09            0    1.559    0.358
        79 -19.4587     12.1842    146.8295   1.2047555052e+02   4.2641029895e+01     19.20386     4.519374 -76.97   0.06496655    4.011    0.751
        80  -9.5879    168.1418    232.9795   9.6000094582e+01   2.4133474346e+00    0.2627385    0.1580606  43.37 0.0008671419    1.515    0.340
