#   1 NUMBER                 Running object number                                     
#   2 MAG_AUTO               Kron-like elliptical aperture magnitude                    [mag]
#   3 X_IMAGE                Object position along x                                    [pixel]
#   4 Y_IMAGE                Object position along y                                    [pixel]
#   5 X_WORLD                Barycenter position along world x axis                     [deg]
#   6 Y_WORLD                Barycenter position along world y axis                     [deg]
#   7 A_WORLD                Profile RMS along major axis (world units)                 [deg]
#   8 B_WORLD                Profile RMS along minor axis (world units)                 [deg]
#   9 THETA_WORLD            Position angle (CCW/world-x)                               [deg]
#  10 FWHM_WORLD             FWHM assuming a gaussian core                              [deg]
#  11 ELONGATION             A_IMAGE/B_IMAGE                                           
#  12 ELLIPTICITY            1 - B_IMAGE/A_IMAGE                                       
         1 -13.4707    195.0159     29.8252   6.7436745166e+01   3.2161453310e+01     1.349005     1.296785  86.07   0.00721368    1.102    0.093
         2 -13.6603    210.7983     11.1155   6.0777571993e+01   3.0294610417e+01     1.301765    0.9696213  37.85  0.007263492    1.722    0.419
         3 -11.4586      1.9464     13.3294   1.2024794695e+02   7.2466021420e+01    0.6183886   0.08769814 -53.62  0.002069937    5.747    0.826
         4 -15.1835      9.3746    150.2819   1.4346419818e+02   4.3152233703e+01      6.19291     1.972559 -85.92   0.02434589    3.517    0.716
         5 -12.4544    247.3641    247.3053   1.0682000779e+02  -1.0517273908e+01    0.6979231    0.3933492  30.73  0.004497059    1.402    0.287
         6 -10.9584    124.1466    249.8272   1.2930385723e+02   8.2738440539e+00    0.4345666     0.111738  37.97  0.001591816    3.622    0.724
         7  -9.8441     66.7967    250.0493   1.3974098867e+02   1.6627490426e+01    0.1905305    0.1221057  51.84 0.0003782299    1.181    0.153
         8 -10.0258     47.0017    249.7127   1.4315304593e+02   1.9216543917e+01    0.1561681      0.10702  58.35 0.0006419851    1.076    0.070
         9 -12.0031     35.4538    243.9599   1.4477921088e+02   2.1590028781e+01    0.4413314    0.3499199  78.14  0.003210287    1.207    0.172
        10 -11.3158     29.5073    249.9850   1.4610739821e+02   2.1227056277e+01    0.5326996    0.1699758  34.96  0.002588793    3.383    0.704
        11 -10.0552     29.9931    246.4855   1.4584202738e+02   2.1774595247e+01      0.20457    0.1429616  75.60 0.0006952824    1.131    0.116
        12 -13.2537      3.2495    246.1585   1.5017617952e+02   2.4644758781e+01     1.433586     1.007256  68.99   0.01192768    1.076    0.070
        13 -14.4780      9.1064    207.4576   1.4740971168e+02   3.1178941943e+01     8.866982          nan  39.95  0.006597253    5.697    0.824
        14 -14.5123     40.4743    223.2781   1.4257358725e+02   2.4772658360e+01     2.691385      1.42233  31.83  0.008368948    2.254    0.556
        15 -10.6385     22.0121    237.1793   1.4669756297e+02   2.4294273899e+01    0.2660166     0.183338 -58.87  0.001903908    2.042    0.510
        16 -11.4060    234.3098    238.3548   1.0760951146e+02  -7.6908930171e+00    0.3287507    0.1950941 -52.50  0.001628602    3.797    0.737
        17 -10.3977    185.7170    238.5967   1.1635002473e+02  -1.0297097846e-01    0.1820786    0.1568684 -85.09 0.0004618234    1.787    0.441
        18  -9.8546     82.0075    249.2609   1.3696928384e+02   1.4674164734e+01    0.1718815    0.1187977  52.42  0.001088405    1.101    0.091
        19 -10.8837     50.6884    234.9414   1.4152052963e+02   2.1363028659e+01    0.2272825    0.1759088 -63.84  0.001490023    1.657    0.397
        20 -10.2058    105.7645    246.5806   1.3237630619e+02   1.1633864009e+01    0.1738159   0.08495912  49.40  0.000427608    1.596    0.373
        21 -10.1894    228.8223    228.5322   1.0697154082e+02  -5.7094305425e+00    0.2673233    0.1852673 -56.29   0.00138891    2.837    0.647
        22 -10.4000    136.2072    231.4000   1.2483254694e+02   9.2656221833e+00    0.1901136    0.0957646  48.48  0.000953395    1.668    0.401
        23  -9.3739    155.3268    227.6711   1.2058351175e+02   6.6271831796e+00     0.128256   0.09040331  64.53 -0.0003623258    1.704    0.413
        24 -10.4649    198.8149    246.6061   1.1511913711e+02  -3.2505890852e+00    0.1759519   0.09156818  45.04 0.0009566627    1.735    0.424
        25  -8.6945    152.6063    212.7897   1.1895344370e+02   9.5542399505e+00    0.1514346    0.1281179 -73.22 0.0002705587    1.463    0.316
        26 -11.5018     61.3331    197.4866   1.3624488423e+02   2.7279586492e+01    0.2763903    0.2345478 -54.91 0.0005184261    1.503    0.335
        27 -10.8316     19.9533    242.7836   1.4732539336e+02   2.3522606086e+01     0.240284     0.167451  84.09 0.0008852337    1.226    0.185
        28  -9.6045    192.0125    193.0337   1.0765723292e+02   5.6068834265e+00    0.3242606    0.1758973 -62.11  0.001143273    4.387    0.772
        29 -11.8300     67.4555    189.3931   1.3405573367e+02   2.8148681958e+01     0.262434    0.2359971 -68.73 0.0005053891    1.294    0.227
        30 -10.9290     77.5533    176.8400   1.3022288889e+02   2.9416706166e+01    0.2395916    0.2135379 -85.45 0.0004615663    1.116    0.104
        31 -13.1834     64.3498    174.7134   1.3303233118e+02   3.1762416787e+01    0.4798425    0.2804034 -45.53  0.001846586    2.274    0.560
        32  -9.0478     97.6633    172.9396   1.2492046305e+02   2.7104380991e+01     0.218228    0.1692416 -45.80  0.001184116    1.520    0.342
        33 -11.7706     85.0930    167.4074   1.2709414840e+02   3.0360207345e+01    0.6249639    0.5656018  78.35  0.003825374    1.036    0.035
        34  -9.9462     98.1162    151.7267   1.2125990227e+02   3.1764409256e+01    0.2992714    0.2507558  48.10 0.0008016566    1.165    0.142
        35  -9.1370    100.9306    147.6886   1.1979251380e+02   3.2193056662e+01    0.2081746    0.1948136 -21.45 0.0004604335    1.276    0.217
        36 -12.0757     86.3599    150.9290   1.2413641644e+02   3.3899472830e+01     0.281866    0.2567342 -43.09 0.0006895682    1.268    0.212
        37 -12.3898     67.5773    143.6889   1.2785181210e+02   3.8393046845e+01    0.7140489     0.444494  64.11  0.002853904    1.816    0.449
        38  -8.5194    192.2260    144.0030   9.7584081513e+01   1.4114485137e+01    0.1832587    0.1220572 -38.03  0.000380208    1.537    0.349
        39  -9.6156    109.6768    136.8687   1.1535409242e+02   3.3060570173e+01    0.3723077    0.2465264 -26.16  0.001566337    2.290    0.563
        40 -11.5572     56.0935    129.3585   1.2863885855e+02   4.3269923649e+01    0.8842819    0.2955217 -69.59  0.002989399    3.608    0.723
        41 -10.4642     96.6986    134.2439   1.1827353177e+02   3.6016235860e+01     0.243945    0.2293021 -26.76 0.0003380192    1.216    0.178
        42 -12.7049     34.5825    231.0958   1.4416109926e+02   2.4000264412e+01    0.2718324    0.2224692  89.18 0.0007285062    1.288    0.224
        43  -8.9904    106.6819    123.8429   1.1330275784e+02   3.6578765366e+01    0.1957319    0.1787565 -67.27 0.0003836512    1.085    0.079
        44 -10.2497    168.0539    113.0341   9.5251320265e+01   2.5514229891e+01    0.3605688    0.2899666 -82.29 0.0009919317    1.553    0.356
        45  -9.2165    203.4810    111.5140   8.7680899703e+01   1.7452913381e+01    0.1473906    0.1444452  -6.66 8.261921e-05    1.017    0.017
        46  -9.7107    157.9671     76.7344   8.7478693825e+01   3.4780951573e+01    0.2249421     0.201888  58.98 0.0005464039    1.084    0.078
        47  -9.9262     43.7384     67.9100   1.1937657709e+02   5.8616267753e+01    0.2412678    0.1784282  43.30 0.0006761338    1.614    0.381
        48  -8.8929     32.4968     62.4865   1.2222385479e+02   6.0901640025e+01    0.1227872    0.1068124 -46.05 0.0005649846    1.067    0.063
        49 -10.0762     15.8550     55.7420   1.2717312418e+02   6.3652681321e+01    0.1878565    0.1531479  46.18  0.001282321    1.588    0.370
        50 -10.6249    138.6923    249.7065   1.2659072804e+02   5.9869787535e+00    0.2107293    0.1650024  32.01  0.001297678    1.263    0.209
        51 -10.9565     99.1518    247.5181   1.3369009036e+02   1.2475598927e+01    0.3135178    0.2505963  -1.13  0.001968309    2.278    0.561
