#   1 NUMBER                 Running object number                                     
#   2 MAG_AUTO               Kron-like elliptical aperture magnitude                    [mag]
#   3 X_IMAGE                Object position along x                                    [pixel]
#   4 Y_IMAGE                Object position along y                                    [pixel]
#   5 X_WORLD                Barycenter position along world x axis                     [deg]
#   6 Y_WORLD                Barycenter position along world y axis                     [deg]
#   7 A_WORLD                Profile RMS along major axis (world units)                 [deg]
#   8 B_WORLD                Profile RMS along minor axis (world units)                 [deg]
#   9 THETA_WORLD            Position angle (CCW/world-x)                               [deg]
#  10 FWHM_WORLD             FWHM assuming a gaussian core                              [deg]
#  11 ELONGATION             A_IMAGE/B_IMAGE                                           
#  12 ELLIPTICITY            1 - B_IMAGE/A_IMAGE                                       
         1 -11.0537     18.9276     27.7577   8.1096094585e+01   7.0293941806e+01     1.158058    0.3283945 -58.31  0.002798182    3.077    0.675
         2 -11.3440      5.8965     35.0146   9.0666537501e+01   6.9662304583e+01    0.6730837    0.3871165 -73.22   0.00378195    1.611    0.379
         3 -10.7105     74.1848     26.1938   5.4775759568e+01   6.2614262525e+01    0.7733992     0.455691 -16.40  0.003422147    2.037    0.509
         4 -12.4617    105.1140     20.8364   4.2656265428e+01   5.6601346261e+01    0.3825304    0.3006561 -23.92 0.0004028565    1.225    0.184
         5  -9.7071     43.3954     10.9704   5.9433068144e+01   7.0453841656e+01    0.2934369    0.1947803  19.35 0.0009795018    1.708    0.414
         6  -9.7824     31.0683     12.4480   6.6774555485e+01   7.1961188072e+01    0.3419218    0.2591491  54.37  0.001198567    2.000    0.500
         7  -8.4595     34.7265      9.7127   6.3136286509e+01   7.1934466094e+01    0.1851726    0.1383113 -17.16 0.0001724833    1.207    0.172
         8 -10.2238     27.6484     31.1483   7.7839732373e+01   6.8743975116e+01    0.5699996    0.4046935 -13.88  0.001777711    1.630    0.386
         9  -9.4379     36.2791     27.0356   7.1622435728e+01   6.8592280124e+01     1.001301     0.508944 -35.58  0.004466596    1.862    0.463
        10 -10.1936     35.0121     18.2104   6.7851373818e+01   7.0424335939e+01    0.4457608    0.2799014   7.42  0.001359269    2.135    0.532
        11  -9.9275     42.7065     15.5612   6.2458121290e+01   6.9811992418e+01    0.4612001    0.2336025  27.68  0.002138752    2.479    0.597
        12 -10.5145     50.2268     22.1646   6.2486780370e+01   6.7529213279e+01    0.3839079    0.2105875 -31.39 0.0009016851    1.701    0.412
        13  -9.3391    124.9825     30.1727   4.1992469360e+01   5.0451278484e+01    0.3234773    0.2142795 -19.98  0.001217762    1.539    0.350
        14 -10.0664    220.1275     20.8134   2.4940577174e+01   2.6793203582e+01    0.3716578    0.3483954   7.40   0.00153239    1.185    0.156
        15 -11.0484     86.1741     22.2581   4.8747807365e+01   6.0741323827e+01    0.4388139    0.3194998  73.47 0.0004307262    1.874    0.466
        16  -9.9880    131.3689     22.1632   3.7320882417e+01   4.9843456175e+01    0.5007769      0.27006 -17.24  0.002043032    1.980    0.495
        17  -9.9076    144.2689     17.4741   3.3083744574e+01   4.6978529971e+01    0.5235528    0.2149485 -19.81  0.001889789    2.535    0.605
        18 -10.8484    145.6157     12.8031   3.1027776965e+01   4.7109571447e+01    0.7110094    0.4070601  59.98  0.002461742    1.668    0.401
        19 -10.5754    151.1236     17.6869   3.2064505933e+01   4.5122125331e+01    0.5192372    0.3568999 -76.79 0.0008108875    1.746    0.427
        20 -10.0398     69.8113     11.6139   4.8640836621e+01   6.5627883480e+01    0.3056474    0.2603158  28.42  0.001035541    1.167    0.143
        21 -11.1103     68.1732     16.9031   5.2178400802e+01   6.5214934551e+01    0.8112013    0.4616755  60.82  0.003659527    2.440    0.590
        22 -11.8184     61.8063     17.4661   5.4970479344e+01   6.6329713791e+01    0.5619468    0.3912409   3.75  0.001770049    1.663    0.399
        23 -10.9543    165.3500     19.0256   3.0471606933e+01   4.1157114090e+01    0.6188418    0.3626294  24.97  0.002030782    2.241    0.554
        24 -10.1122      7.0452      9.8775   8.0242040854e+01   7.4908213875e+01    0.2631024    0.2160466 -49.39 0.0007436058    1.166    0.143
        25 -10.5662     14.8832     11.4147   7.5884121875e+01   7.3946641745e+01    0.3841327    0.2397583  29.29  0.001318053    1.915    0.478
        26 -10.9147      5.2122     15.1782   8.3970681698e+01   7.3976663183e+01     0.604302    0.3211069 -72.97  0.003028497    2.442    0.591
        27 -10.4702      9.9227     14.7747   8.0754624518e+01   7.3714857027e+01    0.2768294    0.1891465 -22.07  0.001058362    1.481    0.325
        28  -9.4790    195.2463     15.7972   2.5822966024e+01   3.3576303177e+01    0.2673348    0.2437274 -47.27 0.0009712415    1.029    0.028
        29 -10.9613    182.1908     18.4633   2.8122602705e+01   3.6721767390e+01    0.3412772    0.2803581  40.88 0.0008183564    1.309    0.236
        30  -9.9727    184.7193     12.8674   2.5988202262e+01   3.6626853394e+01    0.4251192    0.2902778 -58.45  0.001926828    1.512    0.338
        31 -10.8065    175.4163     12.6268   2.6950784227e+01   3.9122008105e+01    0.7859757     0.467453  76.44  0.003547993    1.732    0.423
        32 -12.0838    178.0699      3.3033   2.3497875610e+01   3.9281590397e+01    0.4539812    0.3792093  62.83   0.00126637    1.201    0.168
        33  -9.5227    225.6791     16.3993   2.3225503597e+01   2.5913774413e+01    0.3728292    0.1705269 -29.17  0.001402184    1.872    0.466
        34 -10.6111    230.3423     14.5008   2.2335888013e+01   2.4999993003e+01    0.4333768    0.2556847 -82.52  0.001336178    1.926    0.481
        35  -9.6779    117.1930     14.9409   3.7117494238e+01   5.4325835217e+01    0.3355356    0.2294568   6.62 0.0008640614    1.656    0.396
        36  -9.7640    243.5264     14.1725   2.1290666013e+01   2.2002229176e+01     0.384714    0.1735667  43.80  0.001591823    3.093    0.677
        37  -9.5604    210.1973     13.9718   2.3842777148e+01   2.9949294120e+01    0.3253477    0.2166019 -33.44  0.001007234    1.357    0.263
        38 -10.4247    212.8760      9.5946   2.2333239873e+01   2.9711284012e+01    0.4167463    0.2898085 -63.64 0.0006695741    1.433    0.302
        39 -10.3574    209.0444      4.5095   2.1152251145e+01   3.1144826549e+01    0.4068384    0.3460096  32.23  0.001580593    1.357    0.263
        40  -9.4669    206.3445      2.2682   2.0699416666e+01   3.2025793515e+01    0.2681291    0.2329344  62.86 0.0005979874    1.226    0.185
        41  -9.5506     91.5985      8.5953   4.0179773583e+01   6.1256341102e+01    0.4449922    0.2177761  45.37  0.001714092    1.976    0.494
        42  -8.7918     87.4862      6.2210   4.0045009199e+01   6.2460024784e+01    0.2150528    0.1827131  64.37 0.0007030643    1.318    0.241
        43  -9.3031     89.9701     13.6468   4.3248902566e+01   6.1044897440e+01    0.4158069    0.2092266  62.04  0.001756935    2.253    0.556
        44  -9.3362     84.9148     14.2396   4.5054959748e+01   6.2102554030e+01     0.346102    0.1789107  28.02  0.001191137    2.525    0.604
        45 -11.0774    133.0231     12.6467   3.3045840944e+01   5.0473546651e+01     0.256973    0.2498986 -55.39 0.0002798369    1.073    0.068
        46  -9.0390    129.1149      8.3973   3.1929482559e+01   5.1924269315e+01    0.4248621    0.1985641 -13.04    0.0016498    2.351    0.575
        47  -9.8654     97.9048      5.6374   3.7043904806e+01   6.0075886851e+01    0.4761765    0.1990485 -18.75  0.001867258    2.406    0.584
        48 -10.2385     97.0238     12.8116   4.0888013522e+01   5.9511236124e+01    0.3007515    0.2588571  37.64 0.0005013017    1.132    0.117
        49  -9.0928    100.6821     10.7091   3.8911816261e+01   5.8877165968e+01    0.2265462    0.1857921  24.08 0.0005298083    1.191    0.160
        50  -9.7809     51.0458     12.1480   5.6535840071e+01   6.9031310329e+01    0.3154565    0.2433933  18.79  0.001856284    1.332    0.249
        51 -10.1918     50.9909      8.5825   5.4411721863e+01   6.9565299885e+01    0.4407728    0.3012949  48.72  0.002214534    1.718    0.418
        52 -10.1820    218.5579     11.2860   2.2361270023e+01   2.8146725550e+01    0.3107565    0.2716428 -70.54  0.001116019    1.119    0.106
        53  -9.6228    191.4333      9.2657   2.4137576132e+01   3.5213384665e+01    0.4746115    0.2217939 -21.72  0.001965479    2.082    0.520
        54 -11.0142    195.5522      3.5030   2.1948888362e+01   3.4673453498e+01    0.7593449     0.376054  56.97  0.003325116    2.046    0.511
        55 -10.2852     76.8067     11.8540   4.6357762676e+01   6.4155020380e+01    0.4337663    0.3865857  62.74 0.0008247503    1.338    0.252
        56 -11.5135     79.4418      4.3432   4.1331484942e+01   6.4465352507e+01    0.3373145     0.270759  26.06  0.000420918    1.177    0.150
        57 -11.0054     73.5318      5.5227   4.3868299605e+01   6.5610358950e+01    0.4277342    0.2888625 -48.28  0.002029687    1.855    0.461
        58 -11.1762     74.6949      2.3446   4.1641377188e+01   6.5710292960e+01    0.3836803    0.2647627  69.35  0.001198143    1.823    0.452
        59  -9.8678     24.2958     11.4452   7.0092143909e+01   7.2962231227e+01    0.3427339    0.1847454  17.52  0.001742194    2.420    0.587
        60 -11.5385     24.3444      6.6467   6.7183924811e+01   7.3796454018e+01    0.3510528    0.2449952  49.03            0    2.136    0.532
        61  -9.6545    165.7588      9.2212   2.6910090084e+01   4.2040863103e+01    0.4029593     0.220175 -32.73  0.001489058    1.739    0.425
        62  -9.6479    170.4828      6.4996   2.5395844505e+01   4.1024114757e+01    0.4165436    0.2038847  52.11 0.0008717683    2.039    0.510
        63  -9.7613    120.1666      9.9859   3.4281147842e+01   5.4093724355e+01    0.2502338    0.2009529  51.65 0.0003196497    1.206    0.171
        64  -9.5387    230.6456      7.4169   2.0391446213e+01   2.5621051999e+01    0.3468851    0.2001175   3.90  0.001488828    2.409    0.585
        65  -9.3614    199.8421      9.3855   2.3388949737e+01   3.3024701341e+01    0.2555538    0.1704852  65.67  0.001275698    1.525    0.344
        66  -9.5235      1.3550      8.4023   8.3449070598e+01   7.5599174844e+01    0.2133781   0.08972486 -57.98 0.0004874545    1.925    0.481
        67  -9.5331    103.2035      1.3224   3.3656988208e+01   5.9189594744e+01    0.2487856    0.1378341  69.10   0.00110848    1.921    0.479
        68 -10.4690    107.4991      7.0211   3.5524687772e+01   5.7593601747e+01    0.3639698    0.2286998  59.21 0.0003424708    1.556    0.357
        69  -8.7584    224.1550      6.0166   2.0461349067e+01   2.7295220959e+01    0.3458787   0.08933865 -21.31  0.001132715    3.628    0.724
        70 -11.7788    156.0560      3.5878   2.6036853824e+01   4.5162696355e+01    0.3953107    0.2934406  38.74  0.000354274    1.409    0.290
        71 -11.8853    159.9122      1.7565   2.4898439449e+01   4.4279356565e+01     0.603789     0.475066 -82.78  0.001919166    1.315    0.240
        72  -9.2389     62.6596      6.2970   4.8183007598e+01   6.7726601374e+01     0.319458    0.2317632  69.82  0.001693527    1.990    0.497
        73  -9.9456     38.5851      4.9894   5.8099916154e+01   7.2107682164e+01     0.325792    0.2564283 -48.18  0.001458523    1.581    0.367
        74  -9.9452     14.9691      4.0721   7.1559614731e+01   7.5286141094e+01    0.3179106    0.2437074 -58.07  0.001503017    1.613    0.380
        75  -8.9702     18.3976      1.8396   6.7827296058e+01   7.5300391044e+01    0.1718222     0.144683 -17.09 0.0005060243    1.111    0.100
        76  -9.7330    125.2217      3.4880   3.0466246947e+01   5.3393998648e+01    0.5415802    0.2490612  22.46  0.001899329    3.124    0.680
        77 -10.5661    217.7703      3.2512   2.0140402530e+01   2.9097976811e+01    0.3792411    0.2648206  30.81  0.001131468    1.792    0.442
        78 -10.2541    107.0559      2.1115   3.3236036034e+01   5.8163771323e+01    0.6056935    0.2815935  25.65  0.002256859    2.812    0.644
        79 -10.9763    249.7694      1.7793   1.7752072225e+01   2.1805105501e+01    0.2455297    0.2095554  -0.63  0.000210957    1.363    0.266
        80 -10.1416    238.0466      3.2610   1.8807573975e+01   2.4293485331e+01    0.2928941    0.2392592  58.02  0.001266402    1.408    0.290
        81  -9.6851    234.0739      2.7774   1.8925252836e+01   2.5253541124e+01    0.2299752    0.2031049 -71.80 0.0005683379    1.120    0.107
        82  -8.8845    185.6853      1.4520   2.2164537577e+01   3.7426929366e+01    0.2075554    0.1675995  57.66  0.001126149    1.273    0.214
        83 -10.8917    115.6472      1.9691   3.1483269411e+01   5.6003171724e+01     0.287607    0.2452213  39.23 0.0003232087    1.115    0.103
        84  -9.3632    119.6267      1.7943   3.0680274551e+01   5.4994309766e+01    0.2800905     0.232207 -17.56  0.001043979    1.213    0.176
        85 -10.1645     30.7086      2.7753   6.0902607415e+01   7.3592603727e+01    0.2814501    0.1689153 -45.08  0.001292042    1.786    0.440
        86 -11.2888     91.4212      1.9686   3.6725406713e+01   6.1972920830e+01    0.3104995    0.2436403 -81.87  0.000723434    1.677    0.404
        87  -8.5472    145.2328      2.3896   2.6971037072e+01   4.8176251438e+01    0.2008821     0.134177 -89.61 0.0004907229    1.650    0.394
        88 -10.2579    135.2762      1.6105   2.8062872924e+01   5.0901732703e+01    0.3071782    0.1890305  77.33   0.00103104    1.692    0.409
        89  -8.6504     50.0466      1.8216   5.0519158545e+01   7.0640179672e+01    0.1819794    0.1278432 -39.65 0.0006835412    1.561    0.360
        90  -8.6641     43.4871      1.5062   5.3327191581e+01   7.1812536191e+01    0.2191093    0.1060057  34.10  0.001032698    2.277    0.561
        91  -9.4528      4.8904      1.4620   7.7087235024e+01   7.6676784200e+01    0.2631598    0.1145549  18.55 0.0009823131    2.843    0.648
        92  -8.4488    104.7606    119.2179   7.6087650414e+01   3.7449962064e+01    0.2254516    0.1173006  31.72 0.0008877413    2.451    0.592
        93  -9.7868    201.3594    249.4919   7.8007184030e+01   4.7997037728e-01    0.2069537    0.1423379  23.59 0.0006443521    1.132    0.116
        94 -10.6060    116.0144    248.4809   9.1832686944e+01   1.2241296278e+01    0.2392295    0.1973028  62.72   0.00164487    1.230    0.187
        95  -9.2395     38.4324    118.8101   9.4509792427e+01   4.7092313662e+01    0.2082232    0.1940974  17.15  0.001046242    1.396    0.284
        96  -9.9804      3.3998    116.6674   1.0420379047e+02   5.0589708091e+01    0.3001108    0.1906908 -78.90  0.001888638    1.243    0.196
        97  -9.4400     70.8990    116.6083   8.4845027838e+01   4.3572881603e+01    0.2837986    0.1815649  59.27   0.00122252    1.708    0.415
        98  -8.5302     54.4848    117.4335   8.9693091157e+01   4.5580469105e+01    0.1321685    0.1160336 -75.97 0.0001340049    1.074    0.069
        99  -8.2165    104.3033    115.2713   7.5326996884e+01   3.8411606208e+01    0.1363213    0.1155689 -10.42 0.0001578786    1.534    0.348
       100 -10.0544     46.6186    114.0686   9.1442157563e+01   4.7323359261e+01    0.2834815    0.2109819 -59.23 0.0004089696    1.286    0.223
       101  -8.7528    129.5583    113.5776   6.8451011138e+01   3.3878791077e+01    0.1454752    0.1418761 -85.56 2.240941e-05    1.020    0.020
       102  -9.0175     52.3776    111.7588   8.9362969408e+01   4.7194241137e+01    0.3229154    0.1215777 -73.26  0.001172793    3.037    0.671
       103  -9.2122    231.7236    109.9846   4.7484048759e+01   1.2636311586e+01    0.2281349     0.146669 -71.61 0.0009002399    3.483    0.713
       104  -8.9452     91.6342    107.4034   7.7002129328e+01   4.2440438221e+01    0.4032409     0.153798 -41.76  0.001317884    3.412    0.707
       105  -8.5378    138.9879    108.0406   6.4767896258e+01   3.3041208721e+01    0.1745621    0.1735236  58.46            0    1.019    0.019
       106  -9.3054     37.3660    105.8165   9.2936864299e+01   5.0315519261e+01    0.3287942    0.1452007 -61.13  0.001006454    1.894    0.472
       107  -9.2558     40.0490    102.7531   9.1608846380e+01   5.0773783790e+01    0.2424605    0.1617628 -61.97 0.0006059984    1.309    0.236
       108 -10.0545     43.8290     99.6550   8.9875627198e+01   5.1110575604e+01    0.3284523    0.2081574  43.41  0.001067574    1.707    0.414
       109  -9.1596     39.0390     99.0000   9.1293886581e+01   5.1788985530e+01    0.2659489    0.1939595  22.42  0.000975279    1.733    0.423
       110  -9.0304     29.5989    102.6390   9.4871781129e+01   5.1844953238e+01    0.2014339    0.1485141  89.23  0.001203444    1.214    0.176
       111 -10.1605     30.1001    107.0034   9.5342714999e+01   5.0746709197e+01    0.3083573    0.2275748 -28.42  0.001790945    1.875    0.467
       112  -8.6863     33.6231    103.1553   9.3688109137e+01   5.1334973735e+01    0.2528225    0.1430582 -55.51 0.0009801642    1.637    0.389
       113  -9.6702    132.2757    104.0342   6.5341947574e+01   3.5291988120e+01    0.2700087    0.2159123  57.81 0.0005759063    1.323    0.244
       114  -9.5049    105.9715    100.0236   7.1160787591e+01   4.1497676926e+01    0.3723813     0.249711 -15.32  0.001492211    2.597    0.615
       115  -9.6432    100.4982    102.9875   7.3440595061e+01   4.1865110137e+01     0.327124     0.244645  28.91  0.001062195    1.589    0.371
       116  -9.4279    100.4660     99.5160   7.2568993947e+01   4.2652081062e+01    0.2662564    0.2127277 -46.01   0.00080865    1.224    0.183
       117 -10.1782     70.8803    102.6696   8.2030773167e+01   4.6873223297e+01    0.3927867    0.1478811 -57.99  0.001500518    2.393    0.582
       118  -8.7277    127.2564    101.9790   6.6046192675e+01   3.6780963432e+01    0.2078173    0.1913796 -48.12 0.0002423075    1.059    0.056
       119 -10.3256     56.8620    100.9452   8.5996705229e+01   4.9228373717e+01    0.4159837    0.2469368 -65.17  0.002065679    1.497    0.332
       120  -8.6255    177.0050    101.3114   5.4689450445e+01   2.5827594534e+01    0.1998625    0.1885989  35.34 0.0003314469    1.083    0.077
       121 -11.6787    117.5532     98.1071   6.7512204064e+01   3.9617071883e+01    0.3467007    0.2956116   7.58 0.0001216319    1.438    0.305
       122 -10.1128     79.4036    100.9900   7.9079085445e+01   4.5959590637e+01    0.3992048    0.2691351  56.76  0.001955562    1.655    0.396
       123  -9.6775     80.6442     95.3584   7.7350460069e+01   4.7076403578e+01    0.3427728    0.2942421  56.93  0.001403146    1.235    0.191
       124  -9.6762     95.0174    100.0574   7.4260728261e+01   4.3525968480e+01     0.214703    0.1998723 -61.22   0.00032756    1.027    0.026
       125  -8.6303     16.5901     99.2071   9.8509897081e+01   5.3775365356e+01    0.1832635   0.08956019 -64.06 0.0009410724    1.662    0.398
       126  -9.4515     18.2037     90.9864   9.6872674378e+01   5.5630891237e+01    0.2259014    0.1855384  -3.79 0.0008018911    1.653    0.395
       127  -9.7365     12.9041     94.7952   9.9138905266e+01   5.5107095616e+01    0.3005712    0.2251892  52.83  0.001935197    1.437    0.304
       128  -9.5249      2.2624     92.4364   1.0233004496e+02   5.6358631951e+01    0.3772915     0.154928  56.48  0.001773061    2.729    0.634
       129 -10.5943      2.5898     86.6493   1.0158602129e+02   5.7717668090e+01    0.9304072    0.1443704 -72.30  0.003125744    4.035    0.752
       130 -10.0874      9.0711     98.0459   1.0075541855e+02   5.4594853848e+01    0.3717217    0.2353813  51.44 0.0007673839    1.662    0.398
       131  -7.6936      3.9748     98.0000   1.0235726970e+02   5.4934785074e+01    0.1969406    0.1635206  40.06  0.001101207    1.439    0.305
       132  -9.4240    140.8732     96.8242   6.1291741119e+01   3.4878650861e+01    0.2337212     0.211602  87.77 0.0002392874    1.229    0.186
       133  -9.7079    139.7197     93.3775   6.0590323510e+01   3.5820756718e+01    0.3253653     0.223717 -50.44 0.0008583729    1.493    0.330
       134 -10.3716    125.5218     97.0065   6.5133585391e+01   3.8187759981e+01    0.3164972    0.2382102  49.87  0.001528634    1.373    0.271
       135  -8.2374    154.6793     96.2983   5.7975585545e+01   3.1855823469e+01    0.1532529    0.1216771 -77.27 0.0005086685    1.620    0.383
       136  -9.2775     86.1286     96.1450   7.5885726762e+01   4.5978791293e+01    0.2138525    0.1941285 -35.00 0.0003739115    1.199    0.166
       137 -10.1982     31.7184     93.9856   9.2828367415e+01   5.3739155848e+01    0.3545872    0.2244868 -81.28 0.0008525947    1.435    0.303
       138  -9.6571     33.6809     90.6967   9.1599560908e+01   5.4347058915e+01    0.2785327    0.1761401 -40.51  0.001429806    1.831    0.454
       139  -9.7230    133.5661     92.4488   6.1820281928e+01   3.7379605726e+01    0.4587482    0.2475257  31.81  0.001677567    2.591    0.614
       140  -9.6085     39.7575     88.6683   8.9150041830e+01   5.4217006061e+01    0.3391295     0.253285 -40.42  0.001942718    1.490    0.329
       141 -10.4346     46.9616     91.9404   8.7375840665e+01   5.2619869695e+01    0.3307281    0.2189274 -69.45 0.0007059554    1.327    0.247
       142  -8.9671     44.3384     88.3099   8.7512980455e+01   5.3799623434e+01    0.2383298     0.175742 -33.93 0.0008074797    1.630    0.386
       143  -9.1349    104.9553     90.6129   6.8893455848e+01   4.3773527477e+01    0.2712626    0.2165786 -51.29  0.001209662    1.190    0.160
       144  -9.9016    110.0410     85.9543   6.6111885889e+01   4.3765092835e+01      0.59105    0.3857613  18.02  0.002356503    2.497    0.599
       145  -9.1983     71.0123     91.0277   7.9292591607e+01   4.9610501403e+01    0.2296054    0.1659549  84.85  0.001125512    1.712    0.416
       146  -9.3567     52.5243     90.9057   8.5306384495e+01   5.2197391151e+01    0.2125696    0.1202336 -64.24 0.0009053244    1.556    0.357
       147 -10.0904    118.1952     83.5825   6.3159971479e+01   4.2555602231e+01    0.4886611    0.2784244  55.18  0.001424224    1.978    0.494
       148 -10.9620    123.9103     87.2142   6.2738891341e+01   4.0568856987e+01    0.4998778    0.3942485  50.51  0.001025656    1.320    0.243
       149 -10.3092    130.1739     84.6007   6.0347342489e+01   3.9716383005e+01    0.4646341    0.3246765   6.36  0.001894006    2.264    0.558
       150  -8.8252     84.5487     78.2136   7.1439939969e+01   5.0347775521e+01    0.2129556    0.1649336 -19.22 0.0003535112    1.625    0.385
       151 -10.1087     88.6710     73.8511   6.8778060243e+01   5.0569685532e+01    0.5105481    0.3848768 -30.17  0.001441319    1.444    0.307
       152 -10.5090     94.2743     71.1935   6.6158026847e+01   5.0081494562e+01    0.6952457    0.3145152 -49.80   0.00188791    2.150    0.535
       153 -10.6488     86.8566     67.4025   6.7258858218e+01   5.2305231689e+01    0.5189857    0.3743561  50.74  0.001245508    1.544    0.352
       154 -10.4728     86.0501     88.8062   7.3989824972e+01   4.7681094506e+01    0.4213435    0.3128454 -31.54 0.0009724713    1.564    0.361
       155  -9.7434     90.8664     83.6156   7.1051756293e+01   4.8000047786e+01    0.3365729    0.1928061 -43.26 0.0001788293    1.693    0.409
       156  -9.2890     86.9755     83.6748   7.2272953661e+01   4.8687124563e+01    0.2506331    0.2409421  43.61 0.0003790098    1.134    0.118
       157  -9.1705     75.2545     65.9664   7.0682896789e+01   5.4681575974e+01    0.2901029    0.2002781 -44.36 0.0008317591    1.321    0.243
       158  -9.9218     81.5994     62.4612   6.7314061755e+01   5.4327652816e+01    0.3917136     0.254459  26.96  0.001372969    1.959    0.489
       159  -9.7643     77.3113     61.9923   6.8621974679e+01   5.5191877105e+01     0.307426    0.2348152 -27.17 0.0006807953    1.414    0.293
       160 -11.0601     26.1215     86.7236   9.3493394532e+01   5.6011286019e+01       0.6302    0.3884539 -46.49  0.003431896    1.674    0.403
       161  -9.8629     20.4625     82.3215   9.4739027274e+01   5.7548177519e+01    0.3307521    0.2174041  63.35  0.001393304    1.696    0.410
       162 -10.1916     57.3479     87.1588   8.2844508657e+01   5.2475229955e+01    0.4587753    0.2683725  70.98  0.001362926    2.652    0.623
       163  -8.9107     14.3836     87.9147   9.7728883424e+01   5.6656377625e+01    0.3599342    0.1237649 -56.19  0.001589891    2.398    0.583
       164  -9.7677      6.7220     88.9792   1.0046581306e+02   5.6914552461e+01    0.1848323    0.1547014  70.37 0.0003624618    1.233    0.189
       165 -10.6128    155.2089     85.1763   5.4637397830e+01   3.3805778613e+01    0.2903918    0.2804454  -7.91 0.0002639654    1.035    0.034
       166 -11.1867    154.7211     79.4010   5.2992721459e+01   3.4974753836e+01    0.6159983    0.3451441  50.61  0.001645891    1.827    0.453
       167  -9.7202    149.9456     80.3657   5.4342135320e+01   3.5943533348e+01    0.2941238    0.2206992 -44.22 0.0005482766    1.310    0.237
       168 -10.1587     65.0860     74.7866   7.6959067069e+01   5.4304373394e+01    0.4540054    0.4111781  32.72  0.002673495    1.257    0.204
       169 -11.4992     80.7367     83.4858   7.4190048760e+01   4.9809755479e+01     0.443777    0.3433992   8.12 0.0005395781    1.781    0.438
       170 -11.7942     71.7430     80.3607   7.6256882428e+01   5.1994755791e+01    0.8897271    0.6639708 -25.19  0.003196626    1.678    0.404
       171 -10.2666    105.8125     81.9748   6.6117010000e+01   4.5479602062e+01    0.3488336    0.2328642 -43.13 0.0002927895    1.428    0.300
       172 -11.4349     45.1225     68.7425   8.2588751066e+01   5.8390124995e+01    0.3591894    0.2133534 -57.14 0.0002634942    1.417    0.294
       173 -10.8225     51.1267     82.9834   8.3989828109e+01   5.4275377904e+01      0.44117    0.3338485   1.10  0.001682037    1.852    0.460
       174 -10.9591     40.1307     81.4424   8.7521720959e+01   5.5923938374e+01    0.6905339    0.2935204  28.17  0.002424173    2.826    0.646
       175 -11.1143     54.6173     61.2504   7.6721840249e+01   5.8907993876e+01    0.6089922    0.4069674  81.34 0.0008983696    2.490    0.598
       176 -11.8508     56.2781     56.7581   7.4593166391e+01   5.9682016686e+01    0.5171936     0.363233  82.41 0.0002740053    2.283    0.562
       177 -12.9193     53.0566     75.1854   8.1355912822e+01   5.5886255594e+01    0.3181625    0.2818371 -52.11 0.0005375236    1.077    0.072
       178 -11.3482     51.3897     68.6109   8.0171417353e+01   5.7645039098e+01    0.6178946    0.4440838 -80.44  0.003020384    1.601    0.375
       179 -10.4703    167.6042     78.1677   4.9935366977e+01   3.2066290879e+01    0.3239815    0.2755539 -63.47 0.0004986233    1.314    0.239
       180 -10.3893    169.8085     73.3843   4.8038927278e+01   3.2334644650e+01    0.3366356    0.2822333 -22.44  0.001184579    1.179    0.152
       181 -10.3720    165.2700     70.5049   4.8030186598e+01   3.3940415419e+01    0.3642888    0.3117349 -45.78 0.0006416081    1.164    0.141
       182  -9.8846    136.2004     77.4441   5.6632346610e+01   3.9740677206e+01    0.3410361    0.2410683 -57.24  0.001061059    1.601    0.375
       183 -11.4334    176.5361     74.9456   4.7237654963e+01   3.0419531024e+01    0.5516706    0.4725436  69.71 0.0009624286    1.291    0.225
       184  -9.8871    111.3305     76.6849   6.2897017373e+01   4.5453112179e+01    0.3206767    0.3128445  33.58  0.001070507    1.082    0.076
       185  -9.7895     97.6508     88.5909   7.0435381182e+01   4.5627342258e+01    0.2878337    0.2500269  78.14  0.001000978    1.274    0.215
       186  -8.5175    215.6396     75.7574   4.1035470282e+01   2.0943513623e+01    0.2024947    0.1207885 -36.41 0.0002538874    1.523    0.343
       187  -9.3443    126.4605     75.6031   5.8476932265e+01   4.2343351513e+01    0.2897144    0.1466654 -28.39 0.0005930933    2.457    0.593
       188  -8.7315     37.4505     75.7812   8.7236545487e+01   5.7570893195e+01    0.1901226    0.1006317 -53.07 0.0006985906    1.617    0.382
       189  -9.7307     28.9809     74.9668   9.0226153260e+01   5.8597478828e+01    0.3286325    0.2011535 -46.83  0.001769191    1.577    0.366
       190  -8.8480     19.7098     74.2604   9.3588157298e+01   5.9551936321e+01    0.4604137    0.2791997 -87.54  0.002468374    1.659    0.397
       191  -9.4879     38.3521     47.1242   7.8763400115e+01   6.4130555400e+01    0.3835748    0.2378262 -18.52  0.001850302    2.265    0.558
       192 -11.3071     52.0552     38.7910   6.9509758061e+01   6.4109425975e+01    0.6979628    0.3993145   7.01 0.0006100304    3.546    0.718
       193  -9.5889     22.2196     66.6928   9.1088244362e+01   6.1166602359e+01     1.567855    0.4565382 -73.48  0.004983977    4.302    0.768
       194 -10.3742     29.4439     68.1610   8.8545383858e+01   6.0185616171e+01    0.4498271    0.3929602 -65.76  0.001826659    1.063    0.059
       195 -10.1382     28.2687     63.0133   8.7783480559e+01   6.1516558734e+01    0.5345902    0.2976375 -27.75  0.001392322    2.498    0.600
       196  -8.8848     32.0151     47.6270   8.1779318773e+01   6.4710158040e+01    0.3055159    0.2310781  85.04  0.001618514    1.742    0.426
       197 -10.9194     44.5980     54.4972   7.8562277643e+01   6.1739891566e+01    0.7409493    0.3228109  30.89  0.003217418    2.724    0.633
       198 -10.7632     45.3105     47.8507   7.5975362480e+01   6.3125343317e+01     1.316724    0.6953368  -1.58  0.003862327    6.589    0.848
       199 -12.2994     24.9394     56.3062   8.7471614807e+01   6.3391400425e+01    0.3759826    0.3206418 -85.63 0.0008302479    1.237    0.192
       200 -10.6882     29.3606     52.1095   8.4363707773e+01   6.3956566662e+01    0.5619972    0.2407348  30.32  0.001944479    2.713    0.631
       201 -11.1771    145.4136     74.2094   5.3432255695e+01   3.8161335243e+01    0.4800493    0.3782154 -21.82  0.000402554    1.333    0.250
       202  -9.0789    100.1127     75.0762   6.5636523508e+01   4.8102244226e+01     0.213564    0.1926631 -17.63  0.001135193    1.195    0.163
       203  -9.3652    121.7617     78.1070   6.0504895921e+01   4.2899362130e+01    0.3846804    0.2594724  84.49  0.001508661    2.478    0.596
       204 -11.7071    158.0771     70.3323   4.9433026286e+01   3.5754096383e+01    0.5265355    0.4393721 -39.93  0.001061398    1.160    0.138
       205 -11.3799      9.1950     51.3272   9.3233176372e+01   6.5728919346e+01    0.6067525    0.5493236   9.63   0.00324937    1.392    0.282
       206 -12.2697      2.4309     66.2252   9.8921518255e+01   6.2595862670e+01    0.4759301    0.2247686 -75.37 0.0003034885    1.667    0.400
       207 -11.0017      3.4646     60.3405   9.7532518093e+01   6.3936655837e+01    0.4502189    0.2193164 -45.00  0.002377499    1.978    0.495
       208  -8.6599    218.8216     69.8192   3.8952520346e+01   2.1045822032e+01    0.1905359    0.1585423 -51.70 0.0003038719    1.258    0.205
       209 -10.2939    173.5448     68.8851   4.5936495583e+01   3.2145929317e+01    0.2780701    0.2640612 -43.62 0.0003522844    1.053    0.050
       210  -9.6540    102.7236     69.7693   6.3116960837e+01   4.8687618073e+01    0.4012915     0.295949 -16.04  0.001751932    1.720    0.419
       211  -8.9226     36.7512     69.1300   8.5918092190e+01   5.9232769875e+01    0.3474033     0.158253 -73.60  0.001407978    2.560    0.609
       212  -8.7903     64.3138     69.0353   7.5531908299e+01   5.5742074869e+01    0.1974772    0.1741239 -55.70 0.0005142305    1.022    0.022
       213  -9.7529    140.9240     68.4570   5.2588112418e+01   4.0292510562e+01    0.2304446     0.155819  55.57 0.0006000189    1.551    0.355
       214  -9.3975    120.0321     67.4835   5.7462331267e+01   4.5389105874e+01    0.3072249    0.2268021 -37.12  0.000753324    1.298    0.230
       215 -10.6921    141.1606     83.8923   5.7445914633e+01   3.7346829658e+01    0.6309445     0.335871  53.97  0.001549511    1.999    0.500
       216  -9.1715    191.5695     66.5137   4.2078511121e+01   2.8036756492e+01    0.2201897    0.1753889   9.42 2.585409e-05    1.432    0.302
       217 -10.3586    193.7877     60.6659   3.9968718866e+01   2.8349477720e+01    0.4710643    0.2582258 -32.84  0.001089845    1.667    0.400
       218  -9.5057    143.7540     65.7721   5.1042560751e+01   4.0082607650e+01    0.2172004    0.1780353 -62.03  0.000709031    1.362    0.266
       219 -10.7068    134.7596     64.3929   5.2670599282e+01   4.2516894705e+01    0.3972362    0.3337302  34.68 0.0008968628    1.268    0.211
       220 -10.1687    126.7101     57.1318   5.2082651881e+01   4.5752595866e+01    0.5428917    0.2205414  63.10  0.001649556    3.637    0.725
       221  -8.0559    205.7183     65.7441   3.9666893459e+01   2.4702218107e+01    0.1414695    0.1102956  19.79 0.0002006331    1.472    0.321
       222  -9.6803     14.8094     64.8638   9.3698707728e+01   6.2165126229e+01    0.4069638    0.2175397 -18.41  0.001943762    2.919    0.657
       223  -9.0968     16.1812     59.8213   9.2071729151e+01   6.3264637735e+01    0.2469244    0.1480329 -80.10 0.0007920771    1.605    0.377
       224  -9.9700    175.3173     62.3872   4.3574460261e+01   3.2729891522e+01    0.4470755    0.2564211 -19.46   0.00175803    1.952    0.488
       225  -8.8982    228.9255     62.3240   3.5586987537e+01   1.9747446872e+01    0.1807667    0.1753149 -22.29 0.0003056622    1.094    0.086
       226 -10.5356    153.8281     60.7347   4.7166378030e+01   3.8435997313e+01    0.5539848    0.2985184  46.09  0.002184989    1.949    0.487
       227  -9.3384    136.4889     56.4615   4.9485050436e+01   4.3489465100e+01    0.3759601     0.196743 -23.86 0.0009758763    2.202    0.546
       228  -8.3413    102.2654     62.6532   6.0791227899e+01   5.0231405369e+01    0.1517569    0.1157708 -67.89 0.0003031355    1.610    0.379
       229  -9.8987     64.8883     61.7913   7.3009771685e+01   5.7285043062e+01    0.4034951    0.2464501  27.87  0.001892056    2.031    0.508
       230 -10.3461    161.2222     60.1769   4.5492120693e+01   3.6654986087e+01    0.3725562    0.2925137  34.89  0.001782149    1.383    0.277
       231 -11.2353    160.8416     54.5087   4.3669404146e+01   3.7647611616e+01    0.3780955    0.3105533 -35.81 0.0003630778    1.169    0.144
       232  -9.6162     71.9473     60.6401   7.0045997522e+01   5.6401225158e+01    0.3242051     0.259061  46.98  0.001060155    1.410    0.291
       233  -8.0543     75.2009     56.4204   6.7377666252e+01   5.6745355333e+01    0.2743191    0.1667477 -35.47  0.001250037    1.649    0.394
       234  -8.8379     37.4485     59.2254   8.2986487580e+01   6.1485451469e+01    0.2809812   0.09910534 -54.23  0.001142482    2.230    0.552
       235  -9.7200    143.6968     58.9119   4.8713361978e+01   4.1283625757e+01    0.3865049    0.1862121  47.13  0.001042626    2.155    0.536
       236  -8.8687     99.9456     59.4978   6.0351729235e+01   5.1345449603e+01    0.2216647    0.1511156  49.31 0.0007141918    1.577    0.366
       237  -9.1398    181.4487     56.7472   4.0735172642e+01   3.2027509968e+01    0.3586988    0.1825832 -56.16  0.001264183    2.707    0.631
       238  -8.6278    111.7752     56.8072   5.5912488165e+01   4.9288283548e+01    0.1908502    0.1725668 -75.72 0.0002407323    1.250    0.200
       239  -9.1557    225.9326     55.8410   3.4179678294e+01   2.1272245867e+01    0.2210512    0.1881402 -37.15  0.001033149    1.071    0.066
       240  -9.0645    187.6616     56.0582   3.9515335880e+01   3.0551307033e+01    0.2322647    0.2061432 -84.10 0.0003376326    1.242    0.195
       241  -8.7016    167.4946     56.4882   4.3084676931e+01   3.5634158878e+01    0.1543383    0.1481119 -12.08 0.0002628726    1.036    0.035
       242 -10.2852    132.2390     59.9893   5.1744924775e+01   4.3914370927e+01    0.5415866     0.369394  11.42  0.001597355    2.147    0.534
       243  -9.9210     93.4638     53.8805   6.0263206714e+01   5.3789176101e+01    0.4342682    0.3271604   5.82  0.001537704    1.734    0.423
       244  -9.5018    142.8367     49.1646   4.5439154988e+01   4.3096294719e+01    0.2491873    0.2127888 -34.56 0.0002885802    1.132    0.116
       245 -10.1089    145.9191     45.9190   4.3611596694e+01   4.2810288151e+01    0.4510148    0.2481876 -30.52 0.0006181216    1.749    0.428
       246  -9.5717    144.2214     41.1019   4.2183495767e+01   4.3966549401e+01    0.2985878      0.24791  22.08  0.001129066    1.314    0.239
       247  -9.2082    106.9508     53.0300   5.5856627340e+01   5.1069335447e+01    0.3166601    0.2393685   8.05  0.001230081    1.687    0.407
       248 -10.2442    146.5610     53.0180   4.6026551506e+01   4.1535517197e+01    0.4494376    0.3157052 -70.64  0.001924927    1.904    0.475
       249  -9.9626     61.4887     51.9536   7.0844265856e+01   5.9952878910e+01    0.3239257    0.2487815 -15.53  0.001052394    1.536    0.349
       250  -9.8905     69.9837     52.4881   6.7811645906e+01   5.8465594889e+01    0.4622442    0.3208791 -13.97  0.001864061    1.950    0.487
       251 -10.3008     68.1992     48.7219   6.7030897029e+01   5.9545059287e+01    0.2667567    0.2372094 -49.36 0.0004417763    1.106    0.096
       252 -12.7369     61.9756     44.3464   6.7699864355e+01   6.1461042078e+01    0.5291193    0.3281201  40.62 0.0004851246    1.817    0.450
       253  -9.9338    193.3908     52.4888   3.7537670702e+01   2.9608177518e+01    0.2872933    0.2649083  73.03  0.001376702    1.160    0.138
       254  -8.1381     84.2619     53.3379   6.3072146832e+01   5.5717739577e+01    0.1467052    0.1101172 -14.84 0.0002918529    1.585    0.369
       255  -9.6964     86.8684     49.3051   6.0620797459e+01   5.6002935867e+01    0.4160824    0.3407377  -3.07  0.001890574    1.391    0.281
       256 -10.8496    183.4605     48.2981   3.7723760780e+01   3.2721298833e+01    0.5295651    0.3504417  36.61  0.001879852    1.742    0.426
       257  -9.7245    184.9586     43.9839   3.6113489698e+01   3.2922803575e+01    0.3090142    0.2226245  45.71 0.0005497311    1.478    0.323
       258  -9.9312    175.5890     48.7883   3.9139801374e+01   3.4686378324e+01    0.3904485    0.2967239   3.23  0.001145856    1.540    0.351
       259  -9.7740    165.8378     51.2082   4.1627675358e+01   3.6860857470e+01     0.303948    0.2186164  81.74  0.001340931    1.677    0.404
       260 -10.1908    123.1754     50.3895   5.0471231019e+01   4.7775035321e+01    0.7677833    0.4080252  67.03  0.002115215    2.549    0.608
       261 -11.0079    127.6770     48.2832   4.8561180131e+01   4.7033876916e+01    0.4286962    0.3195475 -56.40  0.001228835    1.521    0.343
       262 -10.6868    125.9802     45.0360   4.7725993264e+01   4.7980402008e+01    0.3511339    0.2680195  57.22  0.000466508    1.369    0.269
       263 -10.9948    153.7081     47.3354   4.2563314812e+01   4.0584292996e+01    0.3826114    0.3384741 -45.95 0.0005208661    1.129    0.114
       264  -9.2482    136.0366     49.1910   4.6946834979e+01   4.4810224163e+01    0.4142282    0.2477066  72.08  0.001419905    2.173    0.540
       265 -10.4475    115.1016     46.5985   5.1096615933e+01   5.0342947860e+01    0.5683499    0.3391584 -28.10  0.001604498    1.689    0.408
       266  -9.1113    196.8434     49.1372   3.6012523053e+01   2.9195578739e+01    0.3577394    0.2148029  74.71  0.001231233    1.962    0.490
       267  -9.0339    202.1023     47.1046   3.4675964830e+01   2.8146105902e+01    0.2611165    0.1990012   7.37 0.0007574697    1.536    0.349
       268  -8.8784     97.7804     48.0023   5.6610151137e+01   5.3997109663e+01    0.2412977    0.1681855  -5.39 0.0006581476    1.934    0.483
       269  -8.7493    150.5450    249.4968   8.6188308369e+01   7.4300129953e+00    0.1062955   0.07855229  37.65 0.0001007499    1.024    0.024
       270  -9.6363     20.6092     19.2390   7.6379096861e+01   7.1879688482e+01    0.2681738    0.2266387  87.79 0.0007566473    1.738    0.425
       271  -9.4132     14.9470     18.0617   7.9179075657e+01   7.2639439573e+01    0.3294596    0.1651239 -22.89   0.00102165    2.645    0.622
       272 -10.4048     23.4736     47.4377   8.5637282147e+01   6.5566839200e+01    0.4129695    0.3744026 -34.77  0.001900878    1.178    0.151
       273  -8.1383     27.7231     42.9141   8.2202513056e+01   6.6193841153e+01    0.4273772    0.3035685  87.01   0.00208199    1.982    0.496
       274 -10.1068     16.6277     46.7441   8.8637917298e+01   6.6282369274e+01    0.2687256    0.2049596 -33.66  0.000804647    1.352    0.260
       275 -10.7449     14.3399     40.1870   8.7855213969e+01   6.7943472469e+01    0.6401067    0.4187385  81.59  0.003319505    2.145    0.534
       276  -8.4419     57.0303    249.0294   1.0165823150e+02   1.9477044357e+01    0.1141251   0.07959969  56.87            0    1.010    0.010
       277 -10.4710      9.5726     31.5324   8.7611276139e+01   7.0204653255e+01    0.2966334    0.2154078  32.50   0.00104641    1.727    0.421
       278  -9.8145    164.7290     46.1769   4.0117089759e+01   3.7886220533e+01    0.3544278    0.3082504  42.18  0.001166801    1.195    0.163
       279 -10.7877     80.2614     43.5601   6.0527636455e+01   5.8386976699e+01    0.4916385    0.4776249  36.86  0.002906117    1.145    0.127
       280  -8.9651     86.8262     43.1621   5.8119495546e+01   5.7166842272e+01    0.2090526     0.190007 -48.00 0.0003975834    1.144    0.126
       281  -9.1633     52.0625     46.4990   7.2604050305e+01   6.2508855800e+01    0.2413027    0.1700641 -60.14  0.000647261    1.462    0.316
       282  -9.4644    244.3197     44.9974   2.9274889277e+01   1.8464150401e+01    0.3745688       0.1709  41.32  0.001511939    2.980    0.664
       283  -9.4659      8.5765     62.3267   9.5764709884e+01   6.3176089245e+01    0.2540822     0.227721 -68.32  0.001486808    1.146    0.128
       284  -9.9971    179.3074     44.0807   3.7001193902e+01   3.4375622609e+01     0.373093     0.203707  81.09  0.001092566    2.480    0.597
       285  -9.5816    107.4922     43.9730   5.2125873216e+01   5.2556812756e+01    0.2804008    0.2132126  39.78 0.0006489504    1.379    0.275
       286  -9.9746    103.1590     39.6307   5.1558993385e+01   5.4274782745e+01     0.675334    0.2213247 -35.45  0.002242206    2.827    0.646
       287 -10.7810    227.8720     39.6063   2.9472858024e+01   2.2829191751e+01    0.5497188    0.4426491   2.49  0.003021563    1.387    0.279
       288  -9.9012    222.6679     40.7807   3.0352973902e+01   2.3917129819e+01    0.2542658    0.2393835 -29.15 0.0003809431    1.056    0.053
       289 -10.0695     92.8096     42.0617   5.5713986934e+01   5.6126833837e+01    0.5573594     0.392017  70.37  0.002568443    1.973    0.493
       290 -10.8146     95.9174     35.6369   5.1976741643e+01   5.6551696659e+01    0.5374959    0.3505124  29.84  0.001722654    1.799    0.444
       291  -9.1582     67.7402     27.0051   5.7594336611e+01   6.3705214909e+01    0.2190902    0.1853137 -15.63 0.0006661299    1.089    0.082
       292 -10.4819     87.0651     34.0065   5.4037693479e+01   5.8722663088e+01    0.5084705    0.3533672 -17.87  0.002464555    1.526    0.345
       293  -9.6105     30.7188    247.5845   1.0582823368e+02   2.2530895991e+01    0.1742591   0.08099755  67.85  0.001205646    1.766    0.434
       294 -10.7950     79.8923     31.5619   5.5331190787e+01   6.0600746425e+01     0.481207    0.4042355  26.62  0.001473976    1.241    0.194
       295  -9.0592     71.7549     42.4000   6.3115864277e+01   6.0186145165e+01    0.2642045    0.1837586  19.38  0.001279764    1.820    0.451
       296 -10.4229     73.3556     36.8533   6.0105984429e+01   6.0936234755e+01    0.5300602    0.4472388 -20.09  0.002144842    1.124    0.110
       297  -9.3463     33.9899     42.0701   7.8955390507e+01   6.5731790930e+01    0.2749747     0.205111  -1.59  0.001591175    1.651    0.394
       298  -9.7061    203.3499     39.9214   3.2347758646e+01   2.8752130370e+01    0.4034261    0.2638312  -0.69  0.001662728    1.897    0.473
       299  -9.6670    126.9652     39.8488   4.5459964234e+01   4.8549813463e+01    0.4766968    0.2616284  72.34  0.001795699    2.497    0.599
       300  -9.2827    121.0523     39.4242   4.6707533684e+01   5.0078267137e+01    0.2707577    0.1995749 -46.34 0.0005042667    1.410    0.291
       301 -11.8685     40.1495     39.5001   7.5120808528e+01   6.5567641193e+01    0.2348504    0.1913928 -44.19 0.0002980735    1.030    0.029
       302  -9.9196    159.0531     39.0867   3.8643539946e+01   4.0372376438e+01    0.4649035    0.2284237  64.69  0.001031652    2.136    0.532
       303  -9.0725    164.7159     36.5817   3.6793572956e+01   3.9214320984e+01    0.4094777    0.1512982  64.09  0.001384111    2.766    0.638
       304 -11.1995    115.8673     34.1910   4.5837931174e+01   5.2140459243e+01    0.8406625    0.5118748  36.48  0.001663779    1.837    0.456
       305  -8.4970    163.2992    246.6647   8.3781887645e+01   5.9972249905e+00    0.1001296   0.07125539  57.19 0.0002174171    1.654    0.396
       306 -12.4259    107.8450     29.0377   4.5673230630e+01   5.4827927502e+01    0.4978158    0.3728931  -8.15  0.002448398    1.419    0.295
       307  -9.2273    110.8314     23.8298   4.2586548973e+01   5.4826139504e+01     0.239242    0.1887794  37.33 0.0005333301    1.275    0.216
       308 -10.4090    178.6827     37.0666   3.4782174306e+01   3.5466588080e+01    0.4305574    0.2854708  37.74  0.001539129    1.714    0.417
       309  -9.5626    137.9225     37.1761   4.1991307003e+01   4.6161877115e+01     0.522379    0.2303762  44.43 0.0009992437    2.466    0.594
       310  -9.2146    242.1032     34.6313   2.6759293514e+01   2.0147299976e+01    0.1963699     0.171401  12.32 0.0006177449    1.308    0.236
       311  -8.5885    149.2648     38.4131   4.0194137881e+01   4.3037822514e+01    0.2903998    0.1411791  57.01  0.001121268    2.025    0.506
       312  -9.8914    131.0986     35.5113   4.2801295051e+01   4.8149226865e+01    0.4818885    0.3161813 -45.43  0.001106858    1.592    0.372
       313  -9.2557    133.4355     31.5031   4.0701782621e+01   4.8110092305e+01    0.2908555    0.2281706 -33.40 0.0006723582    1.244    0.196
       314  -9.2931    134.3239     28.2990   3.9233835071e+01   4.8306314039e+01    0.2490227    0.2312944  44.31 0.0007208158    1.079    0.073
       315 -10.1644     61.6185     32.3262   6.2596971994e+01   6.3849619032e+01    0.5712778    0.2876503 -30.81  0.002460261    2.069    0.517
       316  -8.8872      1.3895    244.2078   1.1031219089e+02   2.5854211423e+01    0.1251673   0.05987266  73.98 0.0004844343    1.605    0.377
       317  -9.2676     55.0574     31.6725   6.5045270617e+01   6.5043663213e+01    0.2524227    0.1694001 -34.42 0.0005870865    1.327    0.247
       318 -10.6731     46.9434     32.8573   6.9190572111e+01   6.6028496044e+01     0.792832    0.4497524  48.07  0.003824791    2.325    0.570
       319  -8.8998    244.8052    242.1249   7.0432727370e+01  -4.5252760777e+00    0.1457393    0.1073721  23.12 0.0006305791    1.195    0.163
       320  -8.9783    247.0005    239.0081   6.9669622425e+01  -4.5421902673e+00    0.1534626    0.1151734  22.83  0.001251938    1.229    0.186
       321  -8.6974    145.7141    242.3310   8.6235913522e+01   8.9731696319e+00     0.102696   0.07084063  59.35 0.0003047107    1.617    0.381
       322  -9.0029     94.0601    118.9637   7.8883907205e+01   3.9383062154e+01    0.2121619    0.2033377 -53.17 0.0007236322    1.130    0.115
       323  -8.4285    228.3689    234.2955   7.1788956573e+01  -1.7043761176e+00    0.1131371   0.06172562  17.30 0.0007028978    1.726    0.421
       324  -8.7392    222.1933    233.4076   7.2615829867e+01  -7.8644885645e-01    0.1440015    0.0825132  41.85 0.0006283998    1.649    0.393
       325 -11.1111     48.4304     26.8954   6.5706987296e+01   6.6952780833e+01    0.4084063    0.3049263  50.84 0.0003936894    1.739    0.425
       326  -8.9848     31.9887    232.3232   1.0496570101e+02   2.4786477139e+01    0.1416419   0.09452621  54.31 0.0003846244    1.110    0.099
       327 -10.1863    227.1301     33.0458   2.7726857632e+01   2.3767026227e+01    0.2199007     0.210474 -68.35 0.0002570698    1.106    0.096
       328 -10.5011    234.1052     30.3527   2.6333119694e+01   2.2442231086e+01    0.4879309    0.2443465  45.45  0.001625986    2.453    0.592
       329  -8.7262    145.5257     34.2973   3.9369654328e+01   4.4584811833e+01    0.3641766    0.2021774  55.98  0.001515784    1.776    0.437
       330 -10.8681    145.7339     29.1002   3.7350198070e+01   4.5213410161e+01    0.5858444    0.3797901  50.55 0.0006185325    1.539    0.350
       331 -10.6422    152.9505     31.9209   3.7117665883e+01   4.2941446810e+01    0.2923359    0.2429356 -56.38    0.0014732    1.270    0.212
       332  -8.9307    159.6834     31.8865   3.5956657275e+01   4.1158314608e+01    0.2680199    0.2022553  54.81  0.001092987    1.334    0.250
       333  -9.9733    248.1706     30.4620   2.5153739304e+01   1.9268317312e+01    0.2763445    0.1929163 -34.03 0.0009482151    1.200    0.167
       334  -9.8976    186.8274    230.7136   7.7934782356e+01   4.4789539383e+00    0.1830487    0.1116207  25.68 0.0009748277    1.454    0.312
       335  -8.6263    190.0611     28.5078   3.0446529561e+01   3.3535081549e+01     0.215353    0.1460781  71.69 0.0005273027    1.542    0.351
       336  -9.2632    222.4223     26.9065   2.6457992914e+01   2.5579169628e+01    0.3070825    0.2359019 -83.74  0.001666262    1.412    0.292
       337  -8.3355      3.4611    230.3927   1.0961696871e+02   2.7855058317e+01   0.09722067   0.06414779  62.06 0.0001153322    1.021    0.021
       338  -9.5419    217.3504     17.3226   2.4188331364e+01   2.7835846856e+01    0.2782174    0.2044529  29.67 0.0009003304    1.659    0.397
       339  -9.6457    212.6678     26.3403   2.7248835466e+01   2.8024953812e+01    0.3081609    0.2148733  42.78 0.0009462452    1.641    0.391
       340  -9.3785    204.7030     24.8640   2.7633091028e+01   3.0184604846e+01    0.4075158    0.1919933  41.88  0.001567586    2.685    0.628
       341  -9.2569    204.7728     20.8179   2.6401654802e+01   3.0607358607e+01     0.270479    0.1960482 -38.45  0.001106423    1.261    0.207
       342  -8.1402    166.2890     26.3601   3.2946122336e+01   4.0075159066e+01    0.1581135    0.1108237  25.33 5.752788e-05    1.689    0.408
       343  -8.9219    161.1513     26.5163   3.3782445852e+01   4.1429628725e+01    0.2226831    0.1475342  66.01  0.001011022    1.528    0.345
       344  -9.3363    101.0577     26.1087   4.6181641036e+01   5.6845430234e+01      0.21757    0.2003207  10.38 0.0004727799    1.050    0.047
       345  -8.5663     82.8744     25.8253   5.1573126131e+01   6.0912618862e+01    0.1761827    0.1611067 -54.83            0    1.270    0.213
       346  -8.4505    207.4709    226.5063   7.3969348073e+01   1.9662800543e+00     0.111821   0.08343337  23.20 0.0001198083    1.019    0.018
       347  -9.1811     80.3914     21.2703   5.0135825963e+01   6.2114835002e+01    0.4669636    0.1518688 -33.64  0.001662029    2.786    0.641
       348 -10.3458      1.9954     25.1035   8.9764009729e+01   7.2071887185e+01    0.2366522    0.1281206 -56.15 0.0004731212    1.363    0.266
       349  -8.9803    162.4816    225.6045   8.1410821894e+01   8.6747448284e+00    0.2575379    0.1664246  69.99  0.001400659    2.884    0.653
       350  -9.8142    232.7042     23.5609   2.4612031996e+01   2.3507766128e+01    0.4427561    0.2267732 -83.21  0.001137238    2.567    0.610
       351  -9.8996    174.1934     22.9701   3.0651159980e+01   3.8355581921e+01    0.4923826    0.3365436  76.85  0.001608562    1.542    0.352
       352  -8.9705    223.9738    225.0085   7.1123379962e+01  -2.1172038047e-01    0.1670402    0.1219645  21.00 0.0005741222    1.014    0.014
       353  -8.8487    132.1685    225.1621   8.6712188366e+01   1.3204606203e+01    0.1491628    0.1129364  58.88 0.0004044728    1.310    0.236
       354 -10.5446    153.6215     22.8836   3.3635643444e+01   4.3870944510e+01    0.2906241    0.2654734 -21.37 0.0003368004    1.087    0.080
       355  -9.4984     89.3570    220.6656   9.4041109577e+01   1.9888884821e+01    0.1976205    0.1694103  42.32 0.0008602085    1.254    0.203
       356  -9.9786     71.9748     14.9796   4.9734871113e+01   6.4737137326e+01    0.3346115    0.2376913  69.03  0.001689766    1.978    0.495
       357  -8.1514    243.6768    219.6718   6.7283025449e+01  -2.4022995878e+00    0.1147101   0.06393896  12.99  0.000250067    1.694    0.410
       358  -8.5305    117.7393    212.0138   8.7880198871e+01   1.7295507281e+01    0.1565857    0.1332507  53.09  0.000504879    1.059    0.056
       359 -11.1345     62.0865     22.6335   5.7618612770e+01   6.5458272021e+01    0.2817338    0.2373061  -6.90 0.0008232581    1.127    0.113
       360  -8.0437    209.2812    211.3397   7.1420524068e+01   3.3648774271e+00    0.1163096   0.07411957  11.05 0.0004259279    1.626    0.385
       361  -8.9044     93.9904     29.9461   4.9998285257e+01   5.7882650862e+01    0.2335091    0.1668437  18.70 0.0006771818    1.641    0.391
       362 -10.0706     26.1905     22.6423   7.4853034459e+01   7.0631317226e+01     0.261796    0.1552667 -45.23 0.0004320245    1.364    0.267
       363  -8.9283    188.3120     21.5342   2.8410804145e+01   3.4778702223e+01     0.243255    0.1708598   9.36 0.0006461891    1.736    0.424
       364  -9.1061    242.7482    210.0771   6.5901927308e+01  -1.3580067059e+00    0.1531805    0.1279465   5.73  0.000584522    1.251    0.200
       365  -8.5309    116.8928     22.4825   4.0543688946e+01   5.3502169240e+01    0.2011287    0.1435716  56.37 0.0002835373    1.407    0.289
       366  -8.2196    230.6877    209.6613   6.7702276776e+01   3.9426130432e-01    0.1187511   0.06984132  11.94 0.0007046005    1.693    0.409
       367  -8.6342    194.9926    209.2406   7.3499939774e+01   5.7871096767e+00    0.1588169   0.08159313  39.07 0.0007301204    1.613    0.380
       368  -8.6306     21.0262    203.9781   1.0557545832e+02   3.0768678222e+01    0.1292218   0.09233318  67.65 0.0005152714    1.010    0.010
       369  -8.7299    221.5055    198.5742   6.7353537287e+01   2.9620919770e+00    0.1185464   0.09164803  17.28 9.861847e-05    1.021    0.021
       370  -9.1682    193.2605     20.0430   2.7373553557e+01   3.3647671895e+01    0.2185979    0.1926898  48.42 0.0003489462    1.212    0.175
       371  -8.4645     96.1590    195.7648   9.0246603950e+01   2.3186940839e+01    0.1446982    0.1349162  32.90 0.0004214317    1.295    0.228
       372  -8.8430      6.6103    194.8460   1.0786564691e+02   3.3794033117e+01    0.1547176    0.1396966 -19.27  0.001257719    1.897    0.473
       373  -9.6578      9.1190    179.3329   1.0669938313e+02   3.6565446423e+01    0.2210088    0.1188695  80.36 0.0009076789    1.494    0.330
       374  -9.5101      5.9848    174.8970   1.0712854959e+02   3.7718851233e+01     0.169543    0.1177746  70.45 0.0004263601    1.063    0.059
       375  -9.7761     18.3236    174.4668   1.0454405062e+02   3.6713659011e+01    0.2076551    0.1670626 -40.32  0.001469583    1.930    0.482
       376  -8.7084    199.5092     18.9406   2.6364318300e+01   3.2149896704e+01    0.2168735    0.1361204 -22.61 0.0005080649    1.544    0.352
       377  -9.8613    237.7816     17.2803   2.2520044779e+01   2.2990929578e+01    0.2534561    0.2014534  10.86   0.00109697    1.512    0.339
       378  -9.4690     15.0388    165.2481   1.0469883290e+02   3.8911044763e+01    0.1580761    0.1333163 -88.51 0.0002027563    1.233    0.189
       379 -10.1678     11.4187    166.7982   1.0557320080e+02   3.8906572297e+01    0.1919324    0.1618441 -66.50  0.001365002    1.469    0.319
       380 -10.2522      7.5018    166.3621   1.0639076730e+02   3.9329886082e+01      0.21126    0.1630635  52.06  0.000768122    1.281    0.219
       381 -12.6622     41.0325    161.9777   9.8632474253e+01   3.7021877942e+01    0.6514617    0.2705476  59.71 0.0009188412    2.430    0.588
       382  -9.7277      8.1058    161.8707   1.0602060905e+02   4.0214213361e+01    0.1701439    0.1140613  71.98 0.0003172522    1.146    0.127
       383  -8.5874    206.4841     13.4505   2.4020375764e+01   3.0935430745e+01    0.2367495    0.1293865 -85.34 0.0006669826    2.147    0.534
       384 -10.7765      1.9691    158.3845   1.0718689600e+02   4.1438990268e+01    0.4229787    0.1449259 -74.32  0.002159467    2.405    0.584
       385  -9.1922      9.6967    157.8124   1.0543807977e+02   4.0938259686e+01     0.217104    0.1029616  45.72  0.001272542    1.843    0.458
       386 -12.0270     30.2374    154.6985   1.0049822791e+02   3.9727671032e+01    0.6560977      0.32419  62.83   0.00332837    1.891    0.471
       387  -9.4987    249.0065    153.9853   5.4679188810e+01   3.7987732364e+00    0.1981955    0.1554447  -0.85 0.0005769865    1.040    0.038
       388 -10.9768     20.2187    150.7474   1.0254272984e+02   4.1547052329e+01    0.4849996    0.1983335 -63.63  0.002473656    2.283    0.562
       389 -10.4497     15.9827    142.7465   1.0295529579e+02   4.3687925485e+01     0.298138    0.1808342  22.38  0.001554235    2.157    0.536
       390  -9.5956     12.6810    145.6296   1.0396596733e+02   4.3327368355e+01    0.2254206    0.1202075 -74.55 0.0007500635    1.590    0.371
       391  -8.8266    200.8720     13.1787   2.4457076649e+01   3.2390619321e+01    0.1923894    0.1636706  26.74 0.0005877063    1.337    0.252
       392 -10.0465     11.4689    151.4972   1.0464554306e+02   4.2145740992e+01    0.2502182    0.1580582 -78.56  0.001237448    1.357    0.263
       393  -9.8861     14.5096    150.4844   1.0386837650e+02   4.2108529728e+01    0.2015274    0.1618098  71.62 0.0006290851    1.101    0.092
       394  -9.9749     24.6819    162.9469   1.0241530619e+02   3.8501297142e+01    0.1955599    0.1376579  57.65 0.0003470097    1.226    0.184
       395  -9.6985      3.9722    145.4298   1.0602732541e+02   4.4062965983e+01    0.2267078    0.1600788 -53.22   0.00151671    1.765    0.433
       396  -8.7311     62.2810    145.0105   9.1654895992e+01   3.8201280164e+01    0.1793808    0.1452172 -80.34 0.0006188671    1.125    0.111
       397  -8.3386     55.4812    145.4940   9.3417240014e+01   3.8954488833e+01    0.1280632    0.1080414  82.88 0.0006169968    1.007    0.007
       398  -9.7440    240.7209    144.3181   5.3917827801e+01   6.3832402305e+00    0.1827257     0.136934   1.48 0.0005563684    1.202    0.168
       399  -9.5488     38.1922    143.0992   9.7473960979e+01   4.1480678798e+01    0.1885369    0.1592156  60.14 0.0002957683    1.178    0.151
       400 -10.7672      9.0578    147.6483   1.0496282395e+02   4.3180971161e+01    0.3048507    0.1814827 -67.99  0.001908732    1.592    0.372
       401  -9.6412      1.9390    139.7386   1.0617615595e+02   4.5463664309e+01    0.2698125    0.1334293  74.58  0.001530979    1.715    0.417
       402 -10.3948     41.3093    137.6138   9.6077357527e+01   4.2392070525e+01    0.3081386     0.195452 -74.30  0.001769738    1.380    0.275
       403  -9.1271    230.7054    137.0181   5.3897424618e+01   9.1285846357e+00      0.19002    0.1553367 -10.37 0.0006004174    1.073    0.068
       404  -9.0334    235.9813    136.5541   5.2968276323e+01   8.2264421911e+00    0.1853465    0.1220966  40.91 0.0005349554    1.550    0.355
       405  -8.8493     82.9087    136.0505   8.5060667942e+01   3.7306578407e+01    0.2042643    0.1666008  81.00 0.0003863107    1.189    0.159
       406  -9.0201     58.4629    135.5295   9.1339519696e+01   4.0844510973e+01    0.1816726    0.1608778 -17.46 1.949822e-05    1.575    0.365
       407 -10.0807     60.7632    131.3262   9.0121215774e+01   4.1518507188e+01    0.3163612    0.2775222  23.67  0.001710049    1.435    0.303
       408  -9.0027    249.0000    134.0076   5.0455459281e+01   6.2342243103e+00    0.2103615   0.06428344 -28.85 0.0005084135    2.908    0.656
       409 -11.0296      7.4325    133.1846   1.0438054753e+02   4.6521701598e+01    0.5035711    0.2596742  17.37  0.002749213    2.750    0.636
       410  -9.3395     12.4607    127.6455   1.0264461815e+02   4.7396131688e+01    0.3190926    0.1259516 -67.49   0.00158375    2.083    0.520
       411  -8.2135     23.3285    133.3252   1.0029771524e+02   4.5172137495e+01     0.118211   0.08277342 -50.66 0.0007050065    1.699    0.412
       412  -8.9761     42.6006    130.1024   9.4831438821e+01   4.3985668414e+01    0.2114738    0.1558501  57.94 0.0005676853    1.306    0.234
       413 -10.4072     18.6069    126.6358   1.0091475836e+02   4.7127514991e+01    0.3271994    0.1742261 -58.65   0.00179585    1.839    0.456
       414  -9.8660     56.1313    127.1492   9.0749307409e+01   4.3082562687e+01    0.2779159    0.1697256 -75.06  0.001005933    1.515    0.340
       415  -9.6029     38.9553    123.8625   9.5031834278e+01   4.5841896292e+01    0.3073914    0.2471339 -34.38  0.001880461    1.667    0.400
       416  -9.4603     34.0319    126.9880   9.6773243774e+01   4.5617192671e+01    0.2683656    0.1517447 -89.33  0.001407916    1.666    0.400
       417  -8.9037     32.6341    123.2320   9.6711330810e+01   4.6637834852e+01    0.2428199    0.1310441 -86.17 0.0006701459    1.732    0.423
       418 -10.9373     50.4480    126.3255   9.2187717296e+01   4.3969814027e+01    0.2993445    0.2185861  57.65  0.000404773    1.342    0.255
       419  -9.0513    241.4164    124.2433   4.9387690599e+01   8.8476954223e+00    0.1924643    0.1087386 -35.59 0.0009555306    1.693    0.409
       420 -12.0714     61.9101    121.1267   8.8192084860e+01   4.3752153060e+01    0.3221975    0.2424373 -56.34 0.0003033016    1.320    0.242
       421 -10.9229      7.8677    122.3019   1.0343205518e+02   4.8974676856e+01    0.3418178    0.2101144 -57.73  0.002071205    1.672    0.402
       422  -8.6628     84.4369    122.0734   8.2123187704e+01   4.0250963636e+01    0.2129388    0.1281321 -58.18 0.0007229385    1.574    0.365
       423  -9.4031    236.9643    121.4868   4.9418015267e+01   1.0047192444e+01    0.1959156    0.1298189  45.93  0.001043308    1.622    0.383
       424 -10.5370     44.9951    119.5802   9.2743563069e+01   4.6194429710e+01    0.3257994    0.2347654  47.54   0.00107875    1.433    0.302
       425 -10.1020     28.0047    115.0017   9.7022138752e+01   4.9029182233e+01    0.3672015    0.1570272 -66.49  0.001087656    1.913    0.477
       426  -9.0070     29.2581    120.5777   9.7339283353e+01   4.7590397799e+01    0.2486635    0.1624617 -66.99 0.0006369408    1.347    0.258
       427  -9.1343     32.6893    117.7116   9.6010511992e+01   4.7937509903e+01    0.1852558    0.1723456 -62.47 0.0002100478    1.263    0.208
       428  -9.5724     33.8890    114.3308   9.5217892275e+01   4.8623864883e+01    0.2278957    0.1712497 -69.95 0.0005187144    1.166    0.143
       429 -11.6283     21.6255    119.1180   9.9325228278e+01   4.8625365913e+01    0.4989091    0.3225722  62.11  0.001065324    1.487    0.328
       430  -9.9332     15.8527    107.3557   9.9710062201e+01   5.1883647998e+01    0.3784517    0.2496413 -85.36  0.001953882    1.239    0.193
       431 -10.9162     21.1881    110.0841   9.8429600282e+01   5.0802819360e+01    0.4802556    0.3338162 -72.18  0.001558464    1.198    0.165
       432  -8.8188     20.1844    104.1800   9.8011908474e+01   5.2297502654e+01     0.194081    0.1668056  70.29 0.0005036306    1.186    0.157
       433  -9.7349     11.2555    116.5859   1.0199633700e+02   5.0053631408e+01    0.4854077    0.1979553  83.32  0.001701697    2.579    0.612
       434  -9.5938     13.9032    113.3690   1.0092777790e+02   5.0608970822e+01    0.2766995     0.191501 -80.67  0.001293684    1.151    0.131
       435  -9.1669      7.0121    111.2964   1.0272087072e+02   5.1597576241e+01    0.2247065    0.1565499  70.85 0.0006751984    1.297    0.229
       436  -9.6280      3.1049    108.9922   1.0365054838e+02   5.2397304629e+01    0.2507965     0.200483  48.37  0.001271873    1.386    0.278
       437  -9.9661    221.6535    119.2886   5.1284402028e+01   1.3336913262e+01    0.3419051    0.2352122  31.58 0.0008408287    1.503    0.335
