#   1 NUMBER                 Running object number                                     
#   2 MAG_AUTO               Kron-like elliptical aperture magnitude                    [mag]
#   3 X_IMAGE                Object position along x                                    [pixel]
#   4 Y_IMAGE                Object position along y                                    [pixel]
#   5 X_WORLD                Barycenter position along world x axis                     [deg]
#   6 Y_WORLD                Barycenter position along world y axis                     [deg]
#   7 A_WORLD                Profile RMS along major axis (world units)                 [deg]
#   8 B_WORLD                Profile RMS along minor axis (world units)                 [deg]
#   9 THETA_WORLD            Position angle (CCW/world-x)                               [deg]
#  10 FWHM_WORLD             FWHM assuming a gaussian core                              [deg]
#  11 ELONGATION             A_IMAGE/B_IMAGE                                           
#  12 ELLIPTICITY            1 - B_IMAGE/A_IMAGE                                       
         1 -15.0969      6.6699     71.7626   1.3157514541e+02   5.9641258884e+01     1.207325    0.6548862 -63.90  0.003260338    1.412    0.292
         2 -13.2421      9.0519      3.0923   1.1223175573e+02   7.4310411344e+01    0.5388277    0.4370423  37.74  0.001860158    1.776    0.437
         3 -14.9853      8.1161     29.4161   1.2250190934e+02   6.9074265480e+01     1.048158    0.8655754   2.25  0.007478582    1.412    0.292
         4 -15.2404     14.6817     19.2020   1.1555077668e+02   7.0831994184e+01     1.238196    0.7202516 -32.69  0.003974834    1.469    0.319
         5 -13.8721     24.9903     14.0850   1.0744942933e+02   7.1024917002e+01     0.631142    0.4146034  11.35  0.001932249    1.617    0.382
         6 -14.4244    122.3779     37.0330   7.8088022804e+01   5.0280724574e+01     1.020074    0.5084333  34.78  0.002818996    2.294    0.564
         7 -14.4228    166.9534     30.5244   6.5914657186e+01   3.9774549258e+01     1.377654    0.6570527  63.56  0.002972088    2.071    0.517
         8 -13.7453    190.1390     27.2136   6.1194788892e+01   3.4075804009e+01     1.065966    0.4710343 -47.57  0.003172989    2.619    0.618
         9 -12.2596    194.9204     23.7189   5.9477868463e+01   3.3224791771e+01    0.4958943    0.3400928 -24.91  0.001810308    1.471    0.320
        10 -12.6520    214.8518     20.9570   5.6301050045e+01   2.8481782990e+01    0.5043153    0.3551625   3.49  0.002065475    1.726    0.420
        11 -13.3193    218.7426     15.1306   5.4292668606e+01   2.8122957233e+01    0.6589202     0.410181   6.42  0.003084969    2.170    0.539
        12 -12.3511    215.2518     10.1291   5.3262777754e+01   2.9467391043e+01    0.4103022    0.3386928 -30.70  0.001334896    1.200    0.167
        13 -11.9296     46.9758     20.2521   9.8562396921e+01   6.7444451933e+01     0.432114    0.2744838 -28.80  0.001665711    1.387    0.279
        14 -12.1934     38.8678     14.4313   9.9892847483e+01   6.9489822459e+01     0.503953    0.2928329  22.35  0.002736605    1.828    0.453
        15 -11.9176     47.2183     14.5879   9.5660968546e+01   6.8378912994e+01    0.2661133    0.2107756 -26.42 0.0003075725    1.134    0.118
        16 -14.0699     42.5572      4.6682   9.2710964107e+01   7.0593659049e+01    0.7967266    0.5367698 -14.65  0.002667267    1.322    0.244
        17 -15.3616    100.0395     13.1467   7.4186800641e+01   5.8692642907e+01     1.186951     0.685306  51.33  0.002532657    1.644    0.392
        18 -11.9389    186.4946     14.2736   5.7659943016e+01   3.6398014333e+01    0.2592569    0.2026137 -20.83 0.0008190119    1.333    0.250
        19 -11.1362    201.9494     11.3355   5.4957842780e+01   3.2686839427e+01    0.1948832    0.1734403  68.39 0.0005558337    1.098    0.089
        20 -11.0574    153.6677      8.1183   6.0282272552e+01   4.5694378422e+01    0.2294308     0.190203  73.97 0.0003368099    1.202    0.168
        21 -11.5714    229.8216      4.8453   5.0581818533e+01   2.6452002070e+01     0.240453    0.2217209 -40.12  0.000490007    1.076    0.071
        22 -11.6523    232.9264      1.6750   4.9534258222e+01   2.6014326502e+01    0.2934246    0.2319625  72.47 0.0009423743    1.277    0.217
        23 -10.4303     67.5735      4.1350   8.0781935414e+01   6.6548460320e+01    0.1916137    0.1138721  -9.97 0.0009438051    1.724    0.420
        24 -10.9060    192.8191      3.2117   5.3530657594e+01   3.5777057646e+01    0.2312848    0.1742336 -38.68 0.0007109844    1.338    0.253
        25 -10.3567     82.9147      1.3275   7.3659768601e+01   6.3778725525e+01    0.2416816    0.1234925  54.39  0.001104648    1.952    0.488
        26 -10.4022     78.9944      2.0000   7.5342226068e+01   6.4533368219e+01     0.309448   0.08265856  49.59   0.00108872    3.196    0.687
        27  -9.9034     62.4734      1.4887   8.1395115124e+01   6.7812425692e+01    0.1898951    0.1095104  33.16 0.0009684486    1.630    0.386
        28 -10.6005     59.4573      1.4888   8.2692588136e+01   6.8352132058e+01    0.2374011    0.1129381  39.77 0.0008232972    2.006    0.501
        29 -10.5070     33.1529      1.3058   9.5976837310e+01   7.2342334416e+01    0.1506391    0.1044976  32.93 0.0003523839    1.656    0.396
        30 -10.0822    123.9985    206.0153   1.1814651708e+02   1.7330579651e+01    0.1385941    0.1135551  42.31 -0.007547014    1.003    0.003
        31 -11.7797    209.2563    249.4742   1.0789926892e+02  -1.1077178537e+00    0.2636814    0.1566792  25.37  0.001785341    1.243    0.195
        32 -12.7558     56.7897    246.2957   1.3433319776e+02   1.9602900464e+01    0.7615009    0.3252046  27.78  0.004083643    3.033    0.670
        33 -11.1492     41.1679    249.9091   1.3711012709e+02   2.0718269380e+01    0.1552437    0.1184106  87.13   0.00135018    1.375    0.273
        34 -13.5871     28.4413    246.2786   1.3901862245e+02   2.2535122667e+01    0.4386179    0.2775609  68.01  0.002776054    1.238    0.192
        35 -14.2715      8.2070    246.1458   1.4221268444e+02   2.4411842423e+01    0.6345599    0.3838739  51.02  0.003616652    1.187    0.157
        36 -10.7199    212.5665    200.2549   9.9861674435e+01   3.9553302492e+00    0.2097941    0.1091156 -18.81  0.001043377    2.321    0.569
        37 -13.1292     39.3960    195.4220   1.3444825007e+02   3.0103541620e+01    0.4239802    0.3032856  57.97  0.002862317    1.128    0.114
        38 -14.0737     13.5615    158.5955   1.3756536665e+02   3.9748074634e+01     1.771669    0.9323084 -33.86  0.008857379    3.662    0.727
        39 -13.9376     30.1827    168.6526   1.3454085592e+02   3.6269880981e+01    0.5660408    0.3688196 -46.65  0.001508578    2.029    0.507
        40 -14.9621      8.3175    183.6079   1.3996937240e+02   3.5150644387e+01     1.002433    0.7576439  62.77  0.007915623    1.091    0.083
        41 -14.4457     15.8107    175.7423   1.3806642008e+02   3.6083874293e+01      1.16005    0.3747196  50.89  0.005594904    2.543    0.607
        42 -12.5864    163.8710    195.3601   1.0847635567e+02   1.2675878127e+01    0.2984111    0.2313526  83.37  0.001654701    2.179    0.541
        43 -12.9214    201.1776    191.8877   1.0053764860e+02   6.9104388078e+00    0.6025909    0.3736628   2.17   0.00245229    1.948    0.487
        44 -10.2812    107.4055    192.8265   1.1997909474e+02   2.2101445953e+01    0.1582634    0.1146431 -45.68 0.0009446287    1.682    0.405
        45 -11.0613     81.0126    193.3681   1.2567588420e+02   2.5671387220e+01    0.2744603   0.09856863  35.92  0.001243217    2.450    0.592
        46 -10.2737     58.3081    195.6675   1.3063172958e+02   2.8017811172e+01    0.1221881    0.0688822  63.12 0.0007041047    1.668    0.401
        47 -12.4830    217.0469    187.5024   9.6786846740e+01   4.8516787701e+00    0.4789264     0.108789  41.53  0.001632415    3.888    0.743
        48 -11.8074     99.4454    186.8897   1.2097052785e+02   2.4360670220e+01    0.2959902    0.2015831  12.59  0.001569483    2.150    0.535
        49 -11.4680    235.3226    186.6607   9.3366618115e+01   1.9937459697e+00    0.1042541    0.1031636  52.92 0.0007050759    1.720    0.419
        50 -11.4033    109.0103    183.9826   1.1849234658e+02   2.3494895846e+01    0.1936771    0.1552997  -0.90  0.001137892    1.695    0.410
        51 -12.4380    198.4904    182.2923   9.9334407423e+01   8.7046217507e+00    0.4304652    0.3452823  35.33  0.002318243    1.215    0.177
        52 -12.1531    194.9844    177.7366   9.9177168387e+01   9.9778831273e+00    0.3107159    0.2547215 -27.66  0.001842553    1.348    0.258
        53 -11.1741    123.3478    182.7069   1.1514587878e+02   2.1500133711e+01    0.2897609    0.1940924  64.29   0.00152601    1.822    0.451
        54 -12.1096     49.0808    181.4711   1.3140990548e+02   3.1790628260e+01    0.3522246    0.2218436 -55.44  0.002168231    1.850    0.459
        55 -10.3616    100.9891    175.9884   1.1922151040e+02   2.6230241103e+01    0.1447176    0.1282973  53.48 -0.007547014    1.003    0.003
        56 -12.7748    123.3890    166.6395   1.1265704054e+02   2.4523863405e+01     0.543924    0.3248304  87.54  0.002003677    4.011    0.751
        57 -12.6110    234.5707    160.5651   8.8400634062e+01   5.4062643280e+00     1.013929    0.2349062  37.97  0.003234864    4.383    0.772
        58 -13.5288     75.7351    155.4581   1.2247244234e+02   3.4013829812e+01      0.85708    0.4910087  50.55   0.00316048    1.696    0.411
        59 -12.2598     84.8653    154.1358   1.2002081287e+02   3.3055500989e+01    0.4900937    0.3268709 -44.49   0.00261933    1.746    0.427
        60 -13.3951     22.5314    181.1715   1.3698392803e+02   3.4442278965e+01    0.5049348    0.3342242 -78.39  0.002168996    1.407    0.289
        61 -12.8320    112.4811    156.9496   1.1364994403e+02   2.8257354407e+01    0.4968203    0.2959431  58.36  0.002309845    1.993    0.498
        62 -12.3811    207.2765    154.9778   9.2249772618e+01   1.1123694075e+01    0.6938112    0.2948166  40.56  0.002913441    2.173    0.540
        63 -12.0794    103.3710    149.9060   1.1472307332e+02   3.1190265164e+01    0.3647288    0.2859675 -12.10  0.001946006    1.734    0.423
        64 -11.6602     55.3248    156.1227   1.2756930197e+02   3.6359688619e+01    0.3647054    0.2575473 -13.82  0.001990939    2.346    0.574
        65 -11.6982     38.1285    145.8637   1.3074465760e+02   4.0383741402e+01     0.211719    0.1573869 -82.55 0.0007133294    1.191    0.160
        66 -11.1163     44.5428    145.2314   1.2906588003e+02   3.9893562696e+01    0.1953909    0.1610173  40.52 0.0003624353    1.277    0.217
        67 -12.1560    151.7290    142.4368   1.0144297511e+02   2.4070865808e+01    0.2904307    0.1326352  45.86  0.001140401    2.135    0.532
        68 -11.0775     88.3397    141.3138   1.1715740522e+02   3.5345168648e+01     0.134029    0.1051521 -19.67 0.0007047097    1.699    0.411
        69 -12.8224     43.7561    138.6029   1.2853866949e+02   4.1450900209e+01    0.6265188    0.3243222 -34.56  0.002752562    3.311    0.698
        70 -13.1174     16.6852    196.2921   1.3893015066e+02   3.2068754022e+01    0.7977977    0.2172969 -69.88  0.003951464    3.298    0.697
        71 -11.5377    246.7405    134.5107   8.0777046193e+01   6.6984256847e+00    0.2793524    0.2680945 -16.15  0.001588412    1.361    0.265
        72 -11.8578     60.7601    133.9229   1.2340566165e+02   4.0661631969e+01    0.2599386    0.1708763  41.31 0.0005160348    1.521    0.343
        73  -9.9040     11.2736    134.3109   1.3648909051e+02   4.5116491254e+01     0.109811   0.07437883 -55.72 0.0002524779    1.553    0.356
        74 -12.8923    136.3123    133.1888   1.0318539198e+02   2.8882244673e+01    0.6823407    0.2758116  42.02  0.002540066    2.355    0.575
        75 -13.0972    110.7782    132.1328   1.0954179378e+02   3.3776290355e+01    0.6152815    0.3766305  27.13  0.002788931    1.869    0.465
        76 -11.8880    222.2622    128.4173   8.3552205561e+01   1.2184628009e+01    0.2783856     0.229473 -33.59  0.001562404    1.314    0.239
        77 -14.8753    106.7136    122.9726   1.0874938701e+02   3.6476598923e+01     1.906139    0.9994904  32.08  0.008026985    2.066    0.516
        78 -14.1109    121.0826    102.3099   9.9850670675e+01   3.8309720189e+01     1.244076    0.4049309  41.12  0.003995746    3.083    0.676
        79 -15.6955     87.7795    114.2817   1.1230542348e+02   4.1518254406e+01     2.242486     1.410563 -22.83  0.006677452    2.488    0.598
        80 -13.2240    136.9094     96.5977   9.3999047158e+01   3.6214481035e+01    0.5312793      0.41257 -30.46  0.002572885    1.313    0.239
        81 -11.8914     60.7590    125.1369   1.2211013708e+02   4.2675754519e+01    0.4054203    0.2838371 -20.39  0.001880391    2.066    0.516
        82 -11.4967     25.3274    127.1829   1.3221772722e+02   4.5680902842e+01    0.2270216    0.1958226 -72.33 0.0008393015    1.128    0.114
        83 -12.7747     28.8409    122.5366   1.3077067503e+02   4.6457680034e+01    0.4845076      0.25335 -63.55  0.002630175    1.652    0.395
        84 -11.0661    184.8144    124.1960   8.9847315021e+01   2.0603752348e+01    0.3024143    0.2224835  42.84  0.000629728    1.329    0.248
        85 -12.8894    180.3859    121.0715   9.0031340459e+01   2.2094555824e+01    0.5513355     0.353976  38.06  0.001637374    1.502    0.334
        86 -13.2139     97.3713     91.6954   1.0404639634e+02   4.5051392383e+01    0.6577884    0.3775682 -20.35  0.002344478    3.167    0.684
        87 -15.2990    107.2182    106.1102   1.0476476871e+02   4.0110656663e+01     1.546277       1.0023 -24.73  0.006674301    2.068    0.517
        88 -12.1329      3.5984    119.9167   1.3742059977e+02   4.8782334130e+01    0.4244901    0.1756028  20.32  0.001981714    2.900    0.655
        89 -11.7980      8.6029    116.1473   1.3576741732e+02   4.9339735325e+01    0.2511234    0.1593528  77.08 0.0006674256    1.456    0.313
        90 -12.6006    197.0701    116.8703   8.5533285682e+01   1.9207528207e+01    0.4702761    0.2421586  31.15   0.00183927    2.268    0.559
        91 -14.9737     16.6811    109.5111   1.3284546383e+02   5.0349517764e+01     1.835897    0.8733255 -86.34   0.00333322    1.996    0.499
        92 -13.7730      2.5299     97.1308   1.3585266853e+02   5.3990937701e+01    0.8248664    0.3079666 -78.41  0.003329638    2.161    0.537
        93 -13.9436     20.6039     96.7123   1.3015525046e+02   5.3060173520e+01    0.8462347     0.494927 -76.37   0.00428239    1.462    0.316
        94 -14.6073     29.2065     92.3717   1.2673275446e+02   5.3458825150e+01     1.045853     0.796225  66.08  0.006462987    1.444    0.308
        95 -10.8087    194.7547    113.5903   8.5175854956e+01   2.0250860931e+01    0.2053991     0.143693  56.18 0.0009536815    1.646    0.392
        96 -12.6852    120.8508    111.5587   1.0225043517e+02   3.6383184797e+01    0.5046589    0.3796647 -82.14   0.00188924    1.900    0.474
        97 -10.9549     42.0696    113.5076   1.2582001777e+02   4.7381085247e+01    0.2183146    0.1311549  18.13  0.001141969    2.075    0.518
        98 -12.7110     46.5323    109.9059   1.2393529749e+02   4.7787334827e+01    0.4539908    0.3864264  66.38  0.002866924    1.214    0.177
        99 -13.1908     32.6434    110.9666   1.2828792978e+02   4.8820048414e+01    0.4100816    0.2622103  70.75   0.00228128    1.708    0.414
       100 -11.3780    222.6358    109.1506   7.8871839062e+01   1.4957200918e+01    0.2858457    0.2010977  35.47   0.00141407    1.415    0.293
       101 -12.6222     62.0395    109.8683   1.1918107803e+02   4.6078126196e+01    0.6119055     0.362411  78.13  0.002676536    2.533    0.605
       102 -13.1229     62.4378     99.7225   1.1711334812e+02   4.8410117098e+01    0.6575372    0.4332902  76.23  0.003146713    2.093    0.522
       103 -13.8667     49.2897     98.3810   1.2112078568e+02   5.0219455064e+01     0.756857     0.602722   1.98  0.003288172    1.544    0.352
       104 -11.5916     42.9838     91.0007   1.2186144695e+02   5.2592485209e+01    0.3819143    0.1721163 -70.05  0.001221411    2.167    0.538
       105 -11.2524    161.5007     97.4876   8.8123663767e+01   3.0558999955e+01    0.2982925    0.1341617  37.93  0.001039695    2.433    0.589
       106 -10.5271     76.0146     95.6789   1.1184384744e+02   4.7548508371e+01     0.185847    0.1779145  21.56 0.0004090769    1.114    0.102
       107 -13.0076     89.6941     87.9031   1.0546772348e+02   4.7204441161e+01    0.5105211    0.2766325  45.21  0.002191591    2.016    0.504
       108 -14.1365    188.2642     84.3488   7.8655527910e+01   2.6552102267e+01     1.117531    0.7332063  48.56  0.001891933    1.516    0.341
       109 -13.5259    177.5291     76.9710   7.8683472534e+01   3.0342869886e+01    0.6698346    0.3287078  51.60  0.002594737    2.013    0.503
       110 -14.1905    160.9608     80.8256   8.3443856870e+01   3.3698219703e+01     1.800012    0.6440816  36.78  0.002024623    4.166    0.760
       111 -13.3133    136.0629    103.5134   9.6101281779e+01   3.4997431595e+01    0.7037282    0.4055572  46.24   0.00224677    1.739    0.425
       112 -12.2344    242.2459     83.9444   6.9526301470e+01   1.4396266071e+01      0.47968    0.3172413  59.37  0.002092849    1.757    0.431
       113 -12.9152    238.2716     80.2606   6.9165709716e+01   1.5730313763e+01    0.4510419    0.2983117  51.17  0.001987271    1.615    0.381
       114 -12.3478     98.4816     84.0631   1.0159023565e+02   4.6528041845e+01    0.2691874    0.2064959  56.65 0.0006286207    1.541    0.351
       115 -13.4781    217.2672     79.7297   7.2206537292e+01   2.0454746024e+01    0.7407007    0.5517802  17.35  0.003331878    1.488    0.328
       116 -12.2936    210.1618     77.4845   7.2766763173e+01   2.2423982925e+01    0.4136574    0.3276617 -48.47  0.001817069    1.388    0.279
       117 -14.3103     39.2535     67.8109   1.1835792459e+02   5.8360940480e+01     2.705771    0.6280181  20.47  0.007779422    6.719    0.851
       118 -14.0865     77.1303     73.6168   1.0571818611e+02   5.2390125676e+01     1.087028    0.6711473   1.78  0.004450509    2.677    0.626
       119 -15.0801     87.5406     65.7601   9.9635273977e+01   5.2376934027e+01     1.476772     1.006049   8.97  0.005057943    1.937    0.484
       120 -13.5456     56.5209     78.7854   1.1449747047e+02   5.4010934854e+01    0.6442339    0.4346317 -24.45  0.003117651    1.772    0.436
       121 -14.1734     60.8180     75.7783   1.1218186623e+02   5.4179095343e+01    0.7177132    0.6684194 -40.48 0.0007651351    1.042    0.041
       122 -12.4915    113.8979     80.6525   9.5831629260e+01   4.4294477938e+01    0.3829091     0.357414  38.93  0.001195796    1.111    0.100
       123 -13.1212     90.8693     80.3583   1.0298664897e+02   4.8674906693e+01     0.497312     0.377476   6.95  0.001737755    1.594    0.373
       124 -11.8078     47.3578     81.7093   1.1847043800e+02   5.4342174391e+01     0.224379    0.1944489 -88.69  0.000622037    1.245    0.197
       125 -13.1547    136.1353     79.9134   8.9322404527e+01   3.9663152633e+01     0.684438    0.3708012  42.48  0.001717648    1.836    0.455
       126 -11.8132    129.0491     77.5350   9.0508116291e+01   4.1704882346e+01    0.3021915    0.2638493  62.21 0.0006949988    1.308    0.235
       127 -12.7826    235.3472    247.9585   1.0334769098e+02  -4.4794921268e+00    0.4015949    0.2382876  29.75  0.002817379    1.245    0.197
       128 -13.9747      5.5060     63.8833   1.3086564129e+02   6.1502723312e+01     0.659076    0.4591963 -11.63   0.00426135    1.743    0.426
       129 -11.7125     41.8871     77.1892   1.1948153117e+02   5.5940252094e+01    0.3016601    0.2403117 -56.54 0.0009539884    1.078    0.072
       130 -13.6001    198.3459     70.8258   7.2929688994e+01   2.6223058510e+01    0.9932473    0.5377688  36.19  0.003010673    2.129    0.530
       131 -12.6505    164.6489     70.8219   7.9562347665e+01   3.4517277906e+01     0.501107    0.3244528  28.75 0.0009816882    1.785    0.440
       132 -14.5622     79.3789     61.4660   1.0112699072e+02   5.4653083874e+01     1.199102    0.8689526 -11.34   0.00593493    1.631    0.387
       133 -12.9933    135.5975     66.5998   8.5213359968e+01   4.2261276310e+01    0.5659783    0.4328262  17.38  0.001693922    1.460    0.315
       134 -13.2455     51.4998     69.4956   1.1403151797e+02   5.6723167636e+01    0.8313801    0.5639157  77.50  0.003990899    2.333    0.571
       135 -13.5158    178.1633     58.1643   7.2846155679e+01   3.3123399369e+01    0.6702277    0.6165019  73.73  0.001932181    1.186    0.157
       136 -11.7661     38.8221     60.4062   1.1669114394e+02   6.0091485336e+01    0.3034124    0.2554678  78.50  0.001796223    1.485    0.327
       137 -12.1343     24.5287     60.0459   1.2249809322e+02   6.1334055950e+01    0.3007325    0.1976217 -58.62  0.001019685    1.233    0.189
       138 -13.2627     63.3768     57.5420   1.0591068149e+02   5.7895824210e+01    0.4514951    0.3364756 -66.32  0.002374909    1.616    0.381
       139 -12.0348    135.8149     50.2335   7.9515694869e+01   4.4996671260e+01    0.4303227    0.2450228  34.16  0.001446845    1.956    0.489
       140 -15.0531    119.3392     55.0419   8.5717993859e+01   4.8058249642e+01     1.195855    0.5495915  41.04  0.001983667    2.220    0.550
       141 -14.2616    102.2048     50.7936   8.9412752668e+01   5.2519900284e+01    0.8516359    0.4654918  48.33   0.00154905    1.941    0.485
       142 -10.1806     30.4903     58.4882   1.1965933745e+02   6.1245318146e+01    0.1295006    0.1060956 -49.62 -3.966916e-05    1.015    0.015
       143 -12.1764    248.5281     52.9485   6.0991067678e+01   1.7018620655e+01    0.7518962    0.3353093 -25.28  0.003274658    2.072    0.517
       144 -11.0353    231.9875     55.7347   6.3691986278e+01   2.0334581592e+01    0.1885571    0.1857425  55.46 0.0006497339    1.097    0.088
       145 -13.3103     66.0085     50.4198   1.0244642438e+02   5.9017590608e+01    0.5314535    0.4240881  26.34    0.0025701    1.330    0.248
       146 -11.0479     86.0333     50.1930   9.4727334090e+01   5.5771759356e+01    0.3396526    0.1965055 -35.48   0.00140553    1.656    0.396
       147 -11.3575      6.5247     50.7853   1.2821511225e+02   6.4439663355e+01    0.2780695    0.1649552 -50.09   0.00138214    1.350    0.259
       148 -10.4652     22.9378     49.8820   1.2078471067e+02   6.3743282754e+01    0.1551587    0.1404587 -89.38 0.0005642707    1.302    0.232
       149 -13.0996    154.4288     46.7430   7.3925403071e+01   4.0871014730e+01    0.6571734    0.3137175  51.04  0.002002759    1.973    0.493
       150 -12.9596    158.7268     43.5608   7.1928792760e+01   4.0221966989e+01    0.7292984    0.3321801  58.56  0.002732907    2.167    0.538
       151 -12.7940    198.7132     37.4285   6.3077881636e+01   3.0672076822e+01    0.4737838    0.3709108 -79.46  0.001444076    1.477    0.323
       152 -14.0640    217.8075     42.1405   6.1844559374e+01   2.5356640907e+01     1.069463    0.5060434  58.50  0.004136584    2.095    0.523
       153 -13.1128    205.3186     40.3170   6.2996062770e+01   2.8652965546e+01    0.5945573    0.4033195  87.99  0.002106888    1.819    0.450
       154 -12.8782      9.0189     42.8836   1.2545334293e+02   6.6098247494e+01    0.8366877     0.481846  42.60  0.004727267    2.312    0.567
       155 -13.8590    170.6219    242.3089   1.1372275361e+02   5.1645817947e+00     1.005325    0.5279289  31.05  0.006032932    1.517    0.341
       156 -13.7424    237.2683    230.5143   1.0045458340e+02  -3.0874134786e+00    0.6376781    0.5135038   6.45  0.004895614    1.271    0.213
       157 -12.4756    147.5243    238.8768   1.1750441873e+02   8.9430366467e+00    0.2907142    0.2273736  54.49  0.001171208    1.374    0.272
       158 -12.3777    105.9783    246.7321   1.2580626622e+02   1.3592558485e+01    0.4986717    0.2517182  60.00  0.002899869    2.242    0.554
       159 -10.9055    169.1763     43.2019   6.9753983839e+01   3.7562394576e+01    0.2077343    0.1811477 -72.83 0.0006490523    1.323    0.244
       160 -12.0605    134.0470     40.8561   7.6533690353e+01   4.6875064965e+01    0.5086893    0.3607103  41.24  0.001635677    1.356    0.262
       161 -12.6100    131.7988     33.4220   7.4268986641e+01   4.8493631038e+01    0.5785512    0.3815542  14.20  0.002509777    1.845    0.458
       162 -13.7076    111.6312     40.8783   8.2649886123e+01   5.2184513831e+01    0.8858032    0.6122385  28.20    0.0022956    1.512    0.338
       163 -12.3772     24.8877    217.0702   1.3838149766e+02   2.7615840197e+01    0.5633062    0.2686605  58.14  0.003724469    1.628    0.386
       164 -12.1291     70.3577     36.6457   9.5382319592e+01   6.1027192136e+01    0.3721848    0.2689779  11.27  0.001375422    1.494    0.331
       165 -12.1966    245.3468     36.7070   5.7272198135e+01   1.9609552190e+01      0.45671    0.2082451 -34.93  0.001950103    1.889    0.471
       166 -12.4689    241.0094     36.2305   5.7594766678e+01   2.0629682956e+01    0.4691341    0.3195253  58.73  0.002545661    1.557    0.358
       167 -10.8529     45.2779     36.6597   1.0634671769e+02   6.4543063740e+01    0.1855033    0.1323718 -23.27 0.0004007541    1.332    0.249
       168 -11.6957     46.9922     32.6151   1.0396432887e+02   6.5142561414e+01    0.4710503    0.2421152 -18.58  0.001919643    2.934    0.659
       169 -13.5806     20.3127    224.5220   1.3950223969e+02   2.6776911342e+01    0.3939794    0.3370911  65.22    0.0016556    1.258    0.205
       170 -12.6660    152.4319     31.3825   6.8940418901e+01   4.3482418830e+01    0.4489129    0.3301596  -3.46  0.001202166    1.503    0.335
       171 -14.0066    146.4978     30.7130   6.9916098119e+01   4.5110377488e+01     1.130466    0.5660446  57.80  0.003748269    1.896    0.473
       172 -12.7370     26.3079     31.9851   1.1388389244e+02   6.7369862826e+01    0.5603999    0.4441448  50.80  0.003509714    1.772    0.436
       173 -12.5594     33.7389     32.6816   1.1040316452e+02   6.6570839153e+01     0.385859    0.2867981  52.30  0.002088806    1.986    0.497
       174 -10.8606    211.1210     33.3538   6.0227838531e+01   2.8037977265e+01    0.1890851    0.1736689  80.13 0.0003820037    1.116    0.104
       175 -13.6600     23.9829    230.7651   1.3913116162e+02   2.5407529722e+01    0.2930861    0.2417987 -63.41  0.001966893    1.687    0.407
       176 -13.4659     26.6478    226.2514   1.3848424299e+02   2.5897630537e+01      0.40083    0.2715969  88.49  0.002305988    1.384    0.277
       177 -11.9909    216.7695     28.9772   5.8317096530e+01   2.7143323127e+01    0.2378615    0.2033323  73.91 0.0005978083    1.198    0.165
       178 -12.9951     56.1489     27.5447   9.7567716102e+01   6.4875277577e+01    0.4443289    0.2977814  36.22   0.00139179    1.643    0.392
       179 -12.8800     75.8095     37.4384   9.3540939481e+01   5.9963079495e+01    0.3413757    0.2655597  30.76 0.0008224244    1.311    0.237
       180 -10.4743     97.7774     27.3937   8.1343478076e+01   5.7314193825e+01    0.2098188    0.1242764  38.02 0.0009481152    1.643    0.391
       181 -12.2928    223.2166     21.6286   5.5603989857e+01   2.6373007254e+01    0.2991326    0.2651143  52.43 0.0007692387    1.188    0.159
       182 -11.6193    250.2349    237.9214   9.9463671130e+01  -5.5197644445e+00    0.2058947    0.1139875 -24.93  0.001372661    1.970    0.492
       183 -12.7988     52.2978    213.7507   1.3315128051e+02   2.5407178234e+01    0.4882869    0.1709028  56.08  0.002414234    2.669    0.625
       184 -12.7048     57.3197    204.2626   1.3150474846e+02   2.6539958950e+01    0.4344068    0.2369548  78.01  0.002550913    1.976    0.494
       185 -13.2767     66.5996    223.4011   1.3113430867e+02   2.2129367161e+01    0.7199679    0.4473404  32.55  0.004791715    1.602    0.376
       186 -12.0548    248.8465    224.6747   9.7628860510e+01  -4.1017888254e+00    0.2520835    0.2199896  26.58  0.001927229    1.661    0.398
       187 -13.4578     96.8369    238.1204   1.2671941894e+02   1.6041057126e+01    0.8104404    0.3258106  40.39  0.001239709    1.849    0.459
       188 -13.2817     97.4015    216.7262   1.2466929700e+02   1.9353164623e+01    0.6040751    0.4422792  -0.06  0.003635868    2.303    0.566
       189 -10.8095     35.6264     21.2103   1.0479759100e+02   6.8634079551e+01    0.1855745   0.09510966 -38.32  0.000537447    1.638    0.390
       190 -11.2546     13.5957    206.2171   1.3994074912e+02   3.0531567047e+01    0.1930645    0.1323961  88.35 0.0009437668    1.291    0.225
       191 -10.7064     70.9549     16.9640   8.6153261912e+01   6.4192413298e+01    0.1989356    0.1743753   4.98 0.0004217456    1.072    0.068
       192 -12.5868      4.5233    214.0060   1.4183403213e+02   2.9928263154e+01    0.2721725    0.1502311  59.01  0.001483049    1.323    0.244
       193 -13.5484      9.1841    210.9284   1.4091388402e+02   3.0075199829e+01    0.6388116    0.2956986  45.21   0.00379315    1.660    0.398
       194 -10.9989    185.4838    213.9822   1.0711868428e+02   6.5004463487e+00    0.1403901    0.1108789 -76.21 0.0008099642    2.507    0.601
       195 -13.8090     91.2403    231.3148   1.2717240632e+02   1.7808898767e+01    0.5520188    0.3351736  66.74  0.003548526    1.754    0.430
       196 -11.6261    246.8997    210.7587   9.5663373321e+01  -2.4400860115e+00    0.2907687    0.1290883 -10.81  0.001352205    3.012    0.668
       197 -10.7420    136.6975    211.0315   1.1621452666e+02   1.4587610036e+01    0.1615011    0.1479136  36.89 0.0007791294    1.132    0.117
       198 -11.9701    139.2753     21.5140   6.7974533612e+01   4.8096869646e+01     0.319213    0.2612208  55.37 0.0005211894    1.170    0.145
       199 -11.2089     39.2131    210.8579   1.3543851211e+02   2.7302099281e+01    0.2732587   0.09883424  35.03  0.001473737    2.389    0.581
       200 -11.6839    228.8289    210.6084   9.8707954524e+01   2.1341220515e-01     0.263796    0.1806041  44.18  0.001634622    1.758    0.431
       201 -11.0239    172.7591    209.4378   1.0887053553e+02   9.1420244370e+00    0.2552942   0.09873072  42.17   0.00115326    2.177    0.541
       202 -13.7917     63.0153    214.9544   1.3119417703e+02   2.3985709143e+01    0.6622414    0.4167584  63.90  0.004459888    1.403    0.287
       203 -10.9015    149.9917    206.9905   1.1301006466e+02   1.3140830656e+01    0.1980357    0.1572476  31.82 0.0009354223    1.056    0.053
