#   1 NUMBER                 Running object number                                     
#   2 MAG_AUTO               Kron-like elliptical aperture magnitude                    [mag]
#   3 X_IMAGE                Object position along x                                    [pixel]
#   4 Y_IMAGE                Object position along y                                    [pixel]
#   5 X_WORLD                Barycenter position along world x axis                     [deg]
#   6 Y_WORLD                Barycenter position along world y axis                     [deg]
#   7 A_WORLD                Profile RMS along major axis (world units)                 [deg]
#   8 B_WORLD                Profile RMS along minor axis (world units)                 [deg]
#   9 THETA_WORLD            Position angle (CCW/world-x)                               [deg]
#  10 FWHM_WORLD             FWHM assuming a gaussian core                              [deg]
#  11 ELONGATION             A_IMAGE/B_IMAGE                                           
#  12 ELLIPTICITY            1 - B_IMAGE/A_IMAGE                                       
         1 -13.5962    243.8837     53.2116   6.4352509066e+01   1.8906343980e+01     2.614985     0.852602 -54.11   0.00954031    3.311    0.698
         2 -13.1412    235.7370     26.3227   5.9589405458e+01   2.4378071675e+01     1.230872    0.5982074 -51.48  0.006340084    1.820    0.451
         3 -13.0882    245.6031     11.0746   5.5724410238e+01   2.4123352207e+01     1.497698    0.9270706 -50.21  0.009333028    1.435    0.303
         4 -12.1528    247.5254     32.6444   5.9780549536e+01   2.1022785534e+01     1.330984    0.5228332 -37.45  0.006141196    2.481    0.597
         5 -12.3614      4.8948     24.1264   1.1544456723e+02   6.9292459617e+01    0.7048796     0.257213 -33.42  0.003744169    2.307    0.566
         6 -12.8376     13.4018     21.9427   1.1068342081e+02   6.8954860136e+01    0.7766632    0.2823677 -32.26  0.003963924    2.470    0.595
         7 -11.3444    222.2669     20.6683   5.9690468122e+01   2.8064485765e+01    0.5640641    0.2245776 -56.50  0.002459298    2.590    0.614
         8 -11.7565     17.3145      8.0001   1.0297808579e+02   7.0438764938e+01    0.3705781    0.2043119 -30.46 0.0009652516    1.576    0.366
         9  -9.0314    155.2269      9.9497   6.5087182699e+01   4.4891044178e+01    0.1524886    0.1063799 -29.21  0.000878891    1.666    0.400
        10  -8.8328    189.0000      4.9663   5.9566638630e+01   3.7429315402e+01    0.1774251   0.07081582 -28.94  0.000560603    2.898    0.655
        11  -9.1081    143.5769      3.7372   6.5067472497e+01   4.8147233920e+01    0.2800778    0.1172409 -27.10  0.001320126    2.715    0.632
        12 -10.6928    116.1264      3.9254   6.9861024286e+01   5.4295147383e+01    0.3102823    0.1991096  32.21  0.001666156    1.584    0.369
        13 -10.5073    159.2159      2.7705   6.2570947074e+01   4.4598894427e+01    0.3502244    0.2103422 -80.64  0.001832633    1.924    0.480
        14  -8.5388     64.2398      4.4609   8.3050880270e+01   6.4400282084e+01    0.1478448    0.1034844  55.54 0.0009359828    1.692    0.409
        15  -9.5084     50.9223      3.7534   8.7219739186e+01   6.6606756061e+01    0.1718747    0.1299144   2.95 0.0003041377    1.130    0.115
        16  -9.6606    204.7959      2.3173   5.7382008344e+01   3.4048937415e+01    0.2410014    0.1931206 -62.79  0.001612239    1.203    0.169
        17  -9.1955    152.1584      2.2232   6.3383980247e+01   4.6288380754e+01    0.2380804    0.1377091 -57.50  0.001241695    2.094    0.523
        18  -9.4184    121.5124      2.0109   6.8222492223e+01   5.3265628893e+01    0.1565432    0.1219429 -10.25 0.0003919206    1.507    0.337
        19  -9.8416    108.3748      1.9504   7.0745691652e+01   5.6111318956e+01    0.1995252    0.1506293  67.02 0.0006372174    1.303    0.232
        20  -9.2121      5.2990      1.3177   1.0570391934e+02   7.2360701770e+01      0.10696   0.05862989 -10.65 0.0002391682    1.615    0.381
        21  -8.7751    212.5078    211.5789   1.0350749618e+02  -3.2732157673e+00    0.2336466     0.125305 -51.81  0.001029696    2.385    0.581
        22  -9.1045    210.5115    250.5607   1.1069862102e+02  -9.1225327278e+00    0.1239107    0.1024034  18.24 0.0008074059    1.008    0.008
        23  -9.5799    168.0509    249.9637   1.1877610889e+02  -2.1737812563e+00    0.1941157    0.1636033  34.15  0.000339717    1.035    0.034
        24  -9.4155    230.6337    198.7951   9.7609437112e+01  -4.1638567658e+00    0.1892717    0.1183365 -46.24 0.0009477635    1.712    0.416
        25  -9.6123    246.9244    194.1212   9.3755307522e+01  -6.0484175884e+00    0.3210735    0.2575262 -78.70  0.001727887    2.156    0.536
        26 -10.0871    243.9430    188.6415   9.3196833130e+01  -4.6494648521e+00    0.3173344    0.2799531  87.33   0.00132632    1.674    0.403
        27 -10.1340    242.4433    182.7192   9.2274632062e+01  -3.3860968588e+00    0.4118149    0.2930734 -61.31  0.001800008    1.993    0.498
        28  -9.0031    224.4012    193.2169   9.7674939160e+01  -2.1257484490e+00    0.1940112    0.1236153 -48.54 0.0009493629    1.717    0.418
        29  -8.6940    185.4669    193.4704   1.0549377190e+02   5.0162245082e+00    0.1446299    0.1356777   7.08 0.0008083763    1.056    0.053
        30  -9.4374    237.0563    188.0588   9.4308901420e+01  -3.4007037945e+00    0.2022994    0.1687187 -70.52  0.001131923    1.704    0.413
        31  -8.9593    230.2277    187.8053   9.5504695687e+01  -2.1839239125e+00    0.2109496    0.1525534 -80.33 0.0009430604    2.738    0.635
        32  -9.1986    249.1425    185.9952   9.1763144939e+01  -5.0512191851e+00    0.3452688    0.1490957 -48.35   0.00140647    2.709    0.631
        33  -8.5402    215.3359    187.6443   9.8290373832e+01   5.0556308474e-01    0.1393368    0.1137154 -82.80 0.0007042547    1.801    0.445
        34  -8.5324    203.6673    184.3225   9.9916279029e+01   3.3161934916e+00     0.141945    0.1165716 -88.67 0.0007050125    1.703    0.413
        35  -9.8200    183.6562    183.1462   1.0381082976e+02   7.4525349220e+00    0.3294883    0.1825969 -55.64  0.001340426    2.140    0.533
        36  -9.3090    210.9104    183.1702   9.8242037893e+01   2.1649619319e+00    0.2143493    0.2007295 -75.47   0.00105948    1.270    0.213
        37  -9.2504    235.6569    181.3443   9.3205799623e+01  -1.9842208815e+00    0.2035111    0.1671098 -73.48  0.001105481    1.741    0.426
        38  -9.1365    246.7838    176.9752   9.0355647774e+01  -3.1219502741e+00    0.2165482    0.1481368 -59.88  0.001073912    2.023    0.506
        39  -8.6082    205.3142    177.6502   9.8207750627e+01   4.2960948284e+00    0.1450817    0.1167617 -81.43 0.0002858101    1.725    0.420
        40  -9.0760    223.4218    173.2946   9.3792085185e+01   1.6848319901e+00    0.2599136    0.1653152 -47.00  0.001245273    1.573    0.364
        41  -8.7606    227.9713    172.0196   9.2681356598e+01   1.0801950803e+00    0.2158894    0.1750993 -75.55  0.001128367    1.703    0.413
        42  -9.6766    250.5665    158.8369   8.5988738602e+01  -5.8541894790e-01    0.4647214    0.1472962 -42.09  0.001698053    2.769    0.639
        43 -10.3938    245.8286    168.9322   8.8873432676e+01  -1.5506601131e+00    0.4704055    0.2061535 -46.42  0.001960701    2.267    0.559
        44 -10.1679    246.8478    163.0473   8.7482336517e+01  -6.8351831276e-01    0.4101351    0.3227216  86.92  0.001892154    1.953    0.488
        45 -10.7808    245.7089    158.5632   8.6737984319e+01   3.2075295064e-01    0.7009313    0.4201805 -63.16  0.002980158    2.670    0.625
        46  -8.9596    237.4906    170.0733   9.0558775203e+01  -2.8911351372e-01    0.2155659    0.1248271 -40.67  0.001023885    1.573    0.364
        47  -9.3483    218.8223    169.1082   9.3776409559e+01   3.3446830074e+00    0.2205135    0.1976914 -68.56 0.0009455368    1.302    0.232
        48  -9.2729    240.2001    164.2046   8.8859522040e+01   2.8812478145e-01    0.2582404     0.208735 -74.09  0.001164033    1.680    0.405
        49 -11.0344    237.9952    158.9124   8.8127086433e+01   1.6549473854e+00    0.4600014     0.279151 -47.22  0.001887915    1.589    0.371
        50 -10.0165    212.8781    162.8864   9.3580073636e+01   5.7073820866e+00    0.4783531    0.2054394 -45.15  0.001826965    2.245    0.555
        51 -10.8680    205.2943    160.5801   9.4560294013e+01   7.6876339672e+00     1.024933    0.3587683 -52.21  0.003009989    3.953    0.747
        52 -10.1858    205.5092    154.9444   9.3275391656e+01   8.7787664420e+00    0.4481307    0.3048972 -53.71  0.001709217    1.546    0.353
        53  -9.2084    221.3863    162.0377   9.1783321434e+01   4.2055033034e+00    0.2451369    0.2066759 -85.65 0.0009677847    1.543    0.352
        54  -9.0584    199.3770    165.2122   9.6756420068e+01   7.9550003175e+00    0.2171988    0.1356553 -51.57 0.0006789871    1.679    0.405
        55  -9.3872    233.3314    154.3123   8.7958822458e+01   3.3796103832e+00    0.2727044    0.1973701 -72.90  0.001093672    2.000    0.500
        56 -11.5847    240.8110    124.1280   8.0144557828e+01   7.5489282089e+00     1.003269    0.3343198 -41.72  0.003623084    2.619    0.618
        57 -10.5481    244.0951    149.1634   8.5022438216e+01   2.3176413207e+00    0.5691007    0.3684615 -65.59  0.002602196    2.226    0.551
        58  -9.3716    250.4263    140.6926   8.2201307105e+01   2.6896431240e+00    0.2699254    0.1721587 -43.94 0.0008965521    1.372    0.271
        59  -9.9581    247.6354    112.7458   7.6636219672e+01   8.2586916478e+00      0.42645    0.2612424 -68.32  0.001936084    2.147    0.534
        60 -11.8055    240.9093    104.8246   7.5889173844e+01   1.1033229778e+01     1.195054    0.3654671 -45.85  0.004151718    2.908    0.656
        61  -9.6368    248.7549    135.6478   8.1390572097e+01   3.9113392988e+00    0.3891934    0.2075197 -47.42  0.001137807    1.711    0.415
        62 -10.1333    247.9755    130.0213   8.0307355442e+01   5.0785750977e+00    0.4370417    0.2758239 -57.48  0.001433971    1.709    0.415
        63 -11.2731    245.6101    142.8438   8.3427543810e+01   3.1902185599e+00      1.33268    0.5522318 -57.19  0.003898381    4.975    0.799
        64  -9.5797    249.0707    124.3079   7.8914134002e+01   5.9023032918e+00    0.2907475    0.2103148 -44.95 0.0008693961    1.196    0.164
        65 -10.4429    247.7170    119.0762   7.7990938321e+01   7.1072480841e+00    0.5473756     0.253898 -49.25  0.001919298    2.013    0.503
        66  -8.8301    221.5758    152.7585   8.9733422222e+01   5.9573501700e+00    0.2102998    0.1291595 -50.18 0.0006407489    1.640    0.390
        67  -8.9868    196.8363    150.1436   9.3932426198e+01   1.1576181928e+01    0.2351005    0.2077397 -65.71 0.0007869558    1.198    0.165
        68 -10.1557    235.1257    147.4112   8.6158459341e+01   4.3294197668e+00    0.4239681    0.3042047 -57.65  0.001717528    1.527    0.345
        69  -8.6699    172.4543    149.5354   9.8972493269e+01   1.6965771558e+01    0.1560603    0.1496902 -73.49 0.0002824188    1.043    0.042
        70 -10.2972    223.5045    146.7077   8.8050735492e+01   6.7432240324e+00    0.3617313    0.2741796 -61.33  0.001369417    1.478    0.323
        71  -9.9655    223.9330    140.6841   8.6637645515e+01   7.8206863731e+00    0.3350303    0.2519186 -34.71  0.000967117    1.273    0.214
        72  -9.6378    155.5025    143.5048   1.0144755940e+02   2.2009291906e+01     0.303065    0.1466731 -57.09  0.001038713    2.476    0.596
        73  -8.3565    214.3033    142.6610   8.8836495450e+01   9.4139522932e+00    0.1516799    0.1145736 -72.71 0.0004888901    1.672    0.402
        74  -9.4242    238.4127    140.5564   8.4116406335e+01   4.9764834352e+00     0.265467     0.243439 -79.46  0.001126307    1.219    0.180
        75 -10.0579    234.8601    135.7484   8.3659108698e+01   6.5692782217e+00    0.4332524    0.2608164 -52.63  0.001436274    1.680    0.405
        76  -8.7970    229.7485    141.1575   8.5720441903e+01   6.5610289027e+00    0.2386674    0.1665542 -54.05 0.0007962432    1.458    0.314
        77  -9.8278    219.0036    138.5423   8.7043210768e+01   9.2483975828e+00    0.2967048    0.1985825 -55.17  0.001380086    1.562    0.360
        78  -8.7017    208.4669    137.9705   8.8868618846e+01   1.1579312550e+01    0.2238144    0.1217884 -60.87 0.0008097264    2.590    0.614
        79  -9.2756    224.9926    133.9698   8.4949385730e+01   8.8984532275e+00    0.2774555    0.2005147 -41.31  0.001019486    1.265    0.210
        80 -11.3649    221.6964    128.8703   8.4373746729e+01   1.0566649697e+01     1.008726    0.2439851 -43.33  0.002940303    3.727    0.732
        81  -8.6811    206.3127    131.6597   8.7819215630e+01   1.3310613210e+01    0.1570652    0.1162916 -74.27 0.0003707608    1.698    0.411
        82  -8.9243    233.6093    129.3867   8.2463260617e+01   8.0138672665e+00    0.2888511    0.1212453 -45.09  0.001121354    2.154    0.536
        83  -8.6728    200.2906    126.6492   8.7794014457e+01   1.5645896344e+01    0.1586587    0.1164346 -72.33 0.0003268899    1.671    0.401
        84  -8.3598    227.3248    125.6595   8.2679723650e+01   1.0005159379e+01    0.1521593    0.1085246 -70.79 0.0007051163    1.729    0.421
        85  -9.3475    179.8542    125.1569   9.1567677689e+01   2.0572070012e+01    0.2512339    0.2126271 -75.57  0.001050355    1.284    0.221
        86  -9.7687    242.1381    134.2405   8.2136792531e+01   5.4268735629e+00    0.4194897    0.2266681 -47.94  0.001331494    1.714    0.416
        87 -10.1449    230.5739    111.5638   7.8965624036e+01   1.1967309125e+01     0.501053     0.178378 -41.05  0.001447816    2.522    0.604
        88  -8.8295     36.9727    113.5359   1.2733857723e+02   4.9193936900e+01    0.1659857    0.1321829  20.37 0.0003837977    1.507    0.337
        89 -10.1633    248.7856    107.3453   7.5306355264e+01   8.9898414342e+00    0.3742661    0.1798607 -55.96  0.001360998    2.301    0.565
        90  -9.2783    222.2176    104.2334   7.8626794987e+01   1.5123323595e+01    0.2461347   0.09686819 -48.38 0.0008844018    2.457    0.593
        91 -10.6184    249.0511     99.0958   7.3494627244e+01   1.0382055850e+01    0.4543794    0.1826906 -51.20  0.001789144    2.432    0.589
        92 -10.3680    248.0426     92.7610   7.2268856653e+01   1.1679569918e+01     0.476036    0.2292673 -62.00  0.001873406    2.748    0.636
        93 -10.4973    224.9534     99.7371   7.7154763828e+01   1.5346048922e+01    0.2715578    0.1656327 -53.83 0.0008211827    1.581    0.368
        94  -9.8205    216.9777     99.9558   7.8480729396e+01   1.7075017575e+01    0.2443652    0.1670255 -70.15  0.001129403    1.699    0.411
        95  -9.3019    235.6105     95.9496   7.4692832835e+01   1.3719752750e+01    0.2828526    0.1496726 -52.33  0.001117024    1.796    0.443
        96  -9.1471    241.9999     93.4545   7.3237904864e+01   1.2808397491e+01    0.2777099    0.1659916 -53.90  0.001028159    1.546    0.353
        97  -9.4143    188.4996     93.4736   8.1887342578e+01   2.4884346675e+01    0.3143176    0.1441398 -41.23   0.00119331    2.113    0.527
        98 -10.1929    225.0148     93.3099   7.5666681445e+01   1.6487761333e+01    0.2022415    0.1819969 -80.55  0.001154886    1.075    0.069
        99  -9.9229    217.9912     90.3026   7.6050345366e+01   1.8594080259e+01    0.2056756     0.184537 -84.76 0.0007439943    1.078    0.072
       100  -9.4667      3.8461     89.0009   1.3310071602e+02   5.7243901976e+01    0.2444144    0.1053839 -16.30  0.001075074    3.753    0.734
       101 -10.4200    229.6589     71.0969   6.9948170631e+01   1.9239700276e+01    0.6677761    0.2272389 -55.75  0.002050611    4.208    0.762
       102 -10.2814    248.3197     80.6774   6.9646093396e+01   1.3656362353e+01    0.5209067    0.3043842 -79.48  0.002377042    2.283    0.562
       103  -9.0013    222.4681     71.0552   7.0911743319e+01   2.0862636622e+01    0.2144477      0.12742 -42.44  0.001026346    1.579    0.367
       104 -10.3080    223.8549     67.1924   6.9837682439e+01   2.1172075144e+01    0.3128008    0.2112482 -59.97    0.0016182    1.395    0.283
       105 -10.2426    249.1551     87.8595   7.1072722395e+01   1.2285249922e+01    0.3710713    0.2162949 -33.83  0.001791517    1.809    0.447
       106  -9.8733    246.4822     84.5385   7.0705368695e+01   1.3394971428e+01    0.2396102    0.1863222 -46.09 0.0008891661    1.175    0.149
       107 -12.1509    242.7230     80.2713   7.0267916116e+01   1.4895113677e+01      1.45922    0.2554382 -45.97  0.004068545    4.866    0.794
       108 -10.1726    239.3687     81.1773   7.0902396215e+01   1.5457484373e+01    0.3727278    0.1660637 -49.47  0.001062579    2.035    0.509
       109 -11.3930    235.6854     78.2625   7.0747376212e+01   1.6737408888e+01    0.8515927    0.2662593 -49.13  0.002966795    3.093    0.677
       110 -11.7359    239.3709     77.1500   7.0020219094e+01   1.6125958733e+01    0.9294356    0.1716051 -43.18  0.002771028    4.234    0.764
       111  -8.8542    226.0000     88.0284   7.4306060807e+01   1.7200258872e+01    0.2350568   0.07522777 -39.30 0.0007968699    2.904    0.656
       112  -8.7627    175.6686     88.1856   8.2995208536e+01   2.8939643709e+01    0.2420982    0.1811434 -59.14  0.001076991    1.389    0.280
       113 -10.0302     16.6793     93.8956   1.2985209533e+02   5.5360637590e+01    0.2090365    0.1140254 -49.50 0.0006572868    1.451    0.311
       114  -8.3891    206.0000     84.9939   7.6700639145e+01   2.2295017308e+01    0.2408378   0.07991278 -38.84 0.0007980294    2.912    0.657
       115  -8.9957      9.6713     84.2975   1.3024865789e+02   5.7897536258e+01    0.1083814   0.08680298  78.75 0.0006057858    1.636    0.389
       116  -8.4611    206.5179     78.5192   7.5043009695e+01   2.3300170378e+01    0.1478357    0.1303141 -73.47 0.0008097819    1.040    0.038
       117  -8.5795    183.6132     77.7729   7.8750404316e+01   2.8895277033e+01    0.2102479    0.1305516 -50.29 0.0005426629    1.617    0.382
       118  -8.9013    206.1783     74.4467   7.4107062482e+01   2.4070550113e+01    0.2429175    0.1599952 -47.46  0.001019238    1.437    0.304
       119  -8.6693    195.2403     72.9291   7.5489367971e+01   2.6923477567e+01    0.1894543    0.1177685 -42.25  0.000594889    1.573    0.364
       120  -8.3354    200.3054     72.6745   7.4600575174e+01   2.5756860135e+01    0.1528983    0.1040334 -71.31 0.0003175944    1.646    0.392
       121 -11.9549    228.1696     37.4120   6.2686334607e+01   2.4597385058e+01    0.9667315    0.3877186 -64.79   0.00348635    3.652    0.726
       122  -9.8165    225.0646    248.6616   1.0768159759e+02  -1.1046253935e+01    0.2254837    0.1912301  36.85  0.001528034    1.342    0.255
       123 -10.5226    175.5132    246.9915   1.1686594144e+02  -2.9343264508e+00    0.3168252    0.2459087 -80.02  0.001809518    1.935    0.483
       124  -8.9420    177.4517    242.7369   1.1582554217e+02  -2.5595182341e+00    0.2073377    0.1460051  -6.32 0.0008994958    1.955    0.489
       125  -8.4476    197.3215     64.6647   7.3083858411e+01   2.7777046669e+01    0.1537707    0.1020343 -71.62 0.0003519978    1.707    0.414
       126  -8.6599    158.0190     62.0419   7.9365318176e+01   3.7710154557e+01    0.2682863    0.1388835 -56.79  0.001020752    2.592    0.614
       127 -10.2044    250.1826    245.0599   1.0255821640e+02  -1.4108998836e+01     0.242078    0.1490051 -29.39  0.001025421    1.557    0.358
       128  -9.4409    217.6940     58.7501   6.8720125191e+01   2.3904349537e+01    0.2797669    0.1639707 -49.69 0.0008511974    1.585    0.369
       129 -10.8780     11.1254     57.5851   1.2341452713e+02   6.3160899122e+01    0.2629084    0.1784494  51.26  0.001326804    2.424    0.587
       130 -11.2001    230.4138     55.2094   6.6316974014e+01   2.1553773616e+01    0.5004219    0.2324811 -39.17  0.002270574    2.054    0.513
       131 -10.5392    226.5166     56.4974   6.7077010070e+01   2.2234189213e+01    0.2810358    0.2304003 -65.11  0.001666897    1.065    0.061
       132 -10.3562    224.4661     53.5131   6.6661133608e+01   2.3145725551e+01    0.2830592    0.2158033 -42.85   0.00104519    1.327    0.247
       133 -10.8296    227.0000     51.9928   6.6014315509e+01   2.2797984263e+01    0.3404738    0.1533074 -49.22   0.00151651    2.035    0.509
       134  -8.8578    192.4698     55.9482   7.1651633071e+01   3.0295762252e+01    0.2061518    0.1014518 -57.63 0.0008067001    2.435    0.589
       135  -8.1933    172.4209     50.4395   7.3469882018e+01   3.5970578017e+01    0.1415824    0.1265714 -88.88            0    1.060    0.057
       136 -10.0892    225.5033     46.0298   6.4868960463e+01   2.4000521502e+01    0.1991004    0.1194955 -43.11 0.0009319498    1.582    0.368
       137  -8.6391    169.0000     44.9853   7.2571285759e+01   3.7567512768e+01    0.2174707    0.0798542 -33.00 0.0008013276    2.935    0.659
       138  -9.3669      1.4205     44.0117   1.2353953576e+02   6.6236883085e+01    0.1675847   0.08443816 -51.38 0.0004574569    1.581    0.368
       139  -8.1126    218.3495     68.6799   7.0935461322e+01   2.2189008390e+01    0.1522092   0.09732962 -71.87 0.0006092152    1.740    0.425
       140 -10.5852      3.9497     38.4951   1.2078812256e+02   6.7041935372e+01    0.1765775    0.1536113  31.65  0.001057985    1.636    0.389
       141  -8.3445    173.3200     40.6568   7.0687054583e+01   3.7103085199e+01    0.1464854   0.09836449 -71.71 0.0003785081    1.723    0.420
       142  -9.6815     61.9342     36.0048   9.6524570908e+01   6.1204310067e+01    0.1817241    0.1498692   0.08            0    1.024    0.023
       143  -8.2469     26.7026     33.7244   1.0935407432e+02   6.5980615305e+01     0.115102   0.07112528 -14.33 0.0001844054    1.531    0.347
       144  -9.3635    132.9284     32.0659   7.5544571672e+01   4.7777654838e+01    0.1963311    0.1776351  53.00  0.000330873    1.009    0.008
       145 -10.7320     18.4220     25.2075   1.0969953018e+02   6.8040506801e+01    0.1949315    0.1644968 -55.58  0.001112604    1.882    0.469
       146  -9.8622    239.7301    240.2406   1.0358277803e+02  -1.2004882547e+01     0.194947    0.1814418  44.67 0.0009503005    1.530    0.346
       147  -8.5912    210.4454    242.0348   1.0930756058e+02  -7.8544853858e+00     0.168012     0.118953 -32.51 0.0003323403    1.493    0.330
       148  -8.5556    166.3609     28.1348   6.8404895932e+01   4.0341162064e+01    0.1886713    0.1117999 -46.19 0.0009387136    1.803    0.445
       149  -9.3851    217.5055    235.2412   1.0681350673e+02  -7.9363196287e+00    0.2412098    0.1996493  70.49  0.001414903    1.930    0.482
       150  -9.4531    118.1762     24.8767   7.6385778601e+01   5.1898546286e+01    0.1832487     0.173516 -79.81 0.0004784941    1.229    0.186
       151  -9.0156    203.4831     67.4534   7.2818615601e+01   2.5860309457e+01    0.2610297    0.1133553 -48.54  0.001022506    2.276    0.561
       152  -8.9152     73.4063     24.4789   8.8229236039e+01   6.0805235328e+01    0.1214817    0.1026798  12.63 5.059389e-05    1.026    0.025
       153 -10.2596     83.5213     19.5171   8.3253518739e+01   5.9531419710e+01    0.2744036    0.2378204 -35.99  0.000908902    1.417    0.294
       154  -8.9277    156.0123     16.9967   6.6932855649e+01   4.4021927353e+01    0.2146187    0.1445246 -70.36  0.001142343    1.748    0.428
       155  -9.9776      2.6649     16.0261   1.1338443029e+02   7.0642178295e+01    0.1486986    0.1012494 -27.03 0.0003469243    1.106    0.096
       156 -10.0896     23.2512     15.4418   1.0355270231e+02   6.8905408349e+01    0.1548375    0.1186043   5.82  0.001014727    1.160    0.138
       157  -8.1604    207.5356    231.4773   1.0806518992e+02  -5.7455441058e+00    0.1299736    0.1128943  13.52 9.077138e-05    1.010    0.010
       158  -8.8517    216.7935    228.2876   1.0573001235e+02  -6.7433380659e+00    0.1726335    0.1321519   0.59 0.0003432384    1.311    0.237
       159  -9.0936    193.5243     68.0868   7.4550881558e+01   2.8136382117e+01    0.2159103     0.138146 -40.87  0.001019737    1.556    0.357
       160  -9.7098    217.1755    223.3714   1.0477753571e+02  -6.0203799354e+00    0.3207356    0.2334649 -55.73  0.001761391    1.880    0.468
       161  -9.4996    239.8173    222.2034   1.0035542852e+02  -9.3976574115e+00    0.1831077    0.1443723  88.85 0.0009442554    2.824    0.646
       162  -9.7130    247.7824    217.9722   9.8152305882e+01  -9.9477884196e+00    0.3371397    0.2544629 -57.59  0.001936579    2.063    0.515
       163  -9.9862    217.4958    213.8540   1.0296987402e+02  -4.5067424163e+00    0.4386359    0.2898129 -61.95  0.002078455    2.499    0.600
       164  -8.9027    240.2274    216.2419   9.9181506668e+01  -8.5465959434e+00    0.1830688    0.1548113 -83.95  0.001057451    2.104    0.525
       165  -9.0040    158.9807    216.3043   1.1529690998e+02   5.4920898581e+00    0.1921804     0.163433  42.41 0.0002383469    1.086    0.079
       166  -8.8152    136.7405     24.9893   7.2594808976e+01   4.7700824587e+01    0.1676117    0.1637849  36.07 0.0002155143    1.114    0.102
       167 -10.3574    247.9209    208.7959   9.6409654221e+01  -8.5613614763e+00    0.4643821    0.2743956 -52.01  0.002286143    2.379    0.580
       168  -9.7924    240.4649    208.5342   9.7689379453e+01  -7.3696006816e+00    0.3795764    0.2171568 -53.30  0.001765075    2.569    0.611
       169  -9.1019    235.3919    204.1314   9.7768633612e+01  -5.8451727623e+00    0.1830013    0.1164407 -47.08 0.0009400433    1.762    0.432
       170 -10.2061    250.0651    200.5099   9.4449281671e+01  -7.5793544097e+00    0.3693875    0.1715098 -40.37  0.001056561    2.022    0.506
       171  -9.8756     29.6904     12.9506   9.9663104785e+01   6.8501837132e+01    0.1802371    0.1350458  17.69 0.0002453464    1.248    0.199
