#   1 NUMBER                 Running object number                                     
#   2 MAG_AUTO               Kron-like elliptical aperture magnitude                    [mag]
#   3 X_IMAGE                Object position along x                                    [pixel]
#   4 Y_IMAGE                Object position along y                                    [pixel]
#   5 X_WORLD                Barycenter position along world x axis                     [deg]
#   6 Y_WORLD                Barycenter position along world y axis                     [deg]
#   7 A_WORLD                Profile RMS along major axis (world units)                 [deg]
#   8 B_WORLD                Profile RMS along minor axis (world units)                 [deg]
#   9 THETA_WORLD            Position angle (CCW/world-x)                               [deg]
#  10 FWHM_WORLD             FWHM assuming a gaussian core                              [deg]
#  11 ELONGATION             A_IMAGE/B_IMAGE                                           
#  12 ELLIPTICITY            1 - B_IMAGE/A_IMAGE                                       
         1 -13.2213    222.3011     56.3603   1.9592438424e+01   2.2425629326e+01     1.430625     1.257319  79.73  0.007879828    1.127    0.113
         2 -12.9429    241.1161     43.4678   1.4320179136e+01   1.9924220527e+01     1.019668    0.8315911  57.09  0.006142481    1.405    0.288
         3  -8.3372     98.5106      5.5158   2.5862010896e+01   5.8938910610e+01    0.1289201    0.1118028  38.47 0.0001921403    1.050    0.048
         4  -9.4079      2.7504      3.7507   6.4889029667e+01   7.3659066455e+01    0.2208121   0.08512873 -21.44 -0.0002093126    3.165    0.684
         5 -10.2024     80.9688    244.3444   8.7114831144e+01   1.4142472014e+01    0.3544638    0.1884021 -75.93  0.001982686    2.124    0.529
         6 -15.5257     10.0038    180.2959   9.5944872071e+01   3.5697554089e+01      7.35979     3.356497  85.01   0.03843608    2.019    0.505
         7 -13.8657      6.2559    234.2000   9.9727990261e+01   2.5044539429e+01     2.116143     1.319855  19.14   0.01318721    2.956    0.662
         8 -11.5444     36.1257    169.7323   8.9255940609e+01   3.5566927032e+01    0.3302204    0.2898148 -34.01  0.001091856    1.552    0.356
         9  -7.9479    110.6987    167.3304   7.0690838944e+01   2.5457682182e+01    0.1521779     0.109649  76.53 0.0006427708    1.648    0.393
        10 -11.4385     44.4750    164.2879   8.6668946955e+01   3.5918704425e+01    0.2765319    0.2546734 -57.21 0.0003812233    1.288    0.224
        11 -10.8838    244.1392    156.5377   3.9585528030e+01   1.1984237112e+00    0.3429057    0.1653588 -47.48  0.001434387    2.448    0.591
        12 -10.5167     58.5002    155.6715   8.2049170866e+01   3.6281985505e+01    0.2525594    0.2276146 -71.27  0.000352619    1.123    0.109
        13 -12.3209     20.0176    229.6078   9.7139290484e+01   2.4521608023e+01    0.6841324    0.4693587  23.57  0.001680228    2.241    0.554
        14  -9.8512    235.5356    155.4900   4.0854513905e+01   2.9471352114e+00    0.1398151    0.1241989 -12.53 0.0001101144    1.006    0.006
        15 -11.7262     73.0787    136.1538   7.4947562865e+01   3.9046472607e+01    0.5829217    0.3255987 -58.38 0.0003754795    1.637    0.389
        16 -11.8526     67.2931    150.6272   7.9001086367e+01   3.6338520522e+01    0.5998569    0.4262554  70.43  0.001597437    1.509    0.337
        17 -12.8031     68.3590    143.7036   7.7584914208e+01   3.7872209048e+01     1.081404    0.6674114  76.72  0.003266412    2.117    0.528
        18 -12.0401     21.8210    145.4081   9.0132601068e+01   4.2636383834e+01    0.4850914    0.2606854  83.25  0.001590012    1.948    0.487
        19 -12.9226      5.6450    225.9824   9.9444752824e+01   2.6664406025e+01     0.946031    0.7670066  33.16  0.007408451    1.714    0.417
        20  -8.9662     90.2317    136.0269   7.0119404906e+01   3.6429291998e+01    0.2211785    0.2146581 -79.64  0.000341464    1.052    0.049
        21  -9.4405    241.5233    137.4882   3.5879526620e+01   4.8498479433e+00    0.1401597    0.1250231 -22.15 0.0002391021    1.006    0.006
        22 -10.2132     86.0763    139.0493   7.1872738623e+01   3.6371091298e+01    0.3139818    0.3081498 -52.66 0.0008518315    1.113    0.102
        23 -10.1859    104.2320    129.7326   6.4866527443e+01   3.5507055988e+01    0.6813486    0.3855095  48.13  0.002858818    1.859    0.462
        24 -12.8056     42.9290    151.3277   8.5456370249e+01   3.9167043212e+01    0.4869443    0.3477717 -19.46  0.001476216    2.185    0.542
        25  -8.9800    134.0000    146.6012   6.0715930623e+01   2.5767659931e+01    0.5185125   0.08807821 -49.22  0.001160086    5.972    0.833
        26 -10.0763     87.9172    124.3623   6.8319664067e+01   3.9625426002e+01    0.2781593    0.2590849  -7.02 0.0005721882    1.216    0.178
        27  -8.9621    111.7984    123.0354   6.1199479940e+01   3.5665270430e+01    0.4189419    0.2221133  16.84  0.001095243    5.479    0.817
        28 -10.2878     77.1597    202.6394   8.3650874128e+01   2.2949604797e+01    0.3046399    0.1960959 -84.09 0.0006137524    1.595    0.373
        29  -8.9844    101.2912    117.6498   6.2887253513e+01   3.8905309467e+01    0.2332802    0.2000233 -45.89 0.0004397731    1.140    0.123
        30 -10.2048     51.9713    110.9610   7.6369038474e+01   4.7895452132e+01    0.3100488    0.1611048 -68.14  0.001390353    1.912    0.477
        31 -10.0279    244.9729    110.4775   2.9240813055e+01   8.7165101683e+00    0.3009725    0.1535843 -61.47  0.001049264    3.593    0.722
        32  -9.1410    204.5570    110.7275   3.6110037250e+01   1.7452105113e+01    0.3496607    0.2170046  29.99  0.001424286    2.160    0.537
        33  -9.8946     52.9415     90.5230   7.1551703474e+01   5.2568270930e+01    0.2808578    0.1562082 -44.18 0.0009008594    1.638    0.389
        34 -10.4181    168.1096     88.4773   3.7571824585e+01   3.0394930006e+01     0.267405    0.2219419 -64.82  0.001052469    1.322    0.243
        35 -10.2526    184.4071     77.5958   3.1211569454e+01   2.8313431998e+01    0.3032596    0.2462224  -7.59 0.0007550884    1.518    0.341
        36  -9.4507    249.6049    248.7992   5.5990199891e+01  -1.2494611259e+01     0.141346   0.09937943 -32.09 0.0009548918    1.718    0.418
        37  -9.7341    240.5054    245.4959   5.7031539054e+01  -1.0878598934e+01    0.1186119   0.08877355  12.74 -5.48927e-05    1.010    0.010
        38 -10.2269     13.0818     59.7570   7.8922264467e+01   6.2855772376e+01    0.2252954     0.193945  63.83 0.0008168661    1.576    0.366
        39 -13.0175     10.0036    206.4026   9.7625139880e+01   3.0146419111e+01    0.8025333    0.6937014  37.16  0.004260588    1.550    0.355
