#   1 NUMBER                 Running object number                                     
#   2 MAG_AUTO               Kron-like elliptical aperture magnitude                    [mag]
#   3 X_IMAGE                Object position along x                                    [pixel]
#   4 Y_IMAGE                Object position along y                                    [pixel]
#   5 X_WORLD                Barycenter position along world x axis                     [deg]
#   6 Y_WORLD                Barycenter position along world y axis                     [deg]
#   7 A_WORLD                Profile RMS along major axis (world units)                 [deg]
#   8 B_WORLD                Profile RMS along minor axis (world units)                 [deg]
#   9 THETA_WORLD            Position angle (CCW/world-x)                               [deg]
#  10 FWHM_WORLD             FWHM assuming a gaussian core                              [deg]
#  11 ELONGATION             A_IMAGE/B_IMAGE                                           
#  12 ELLIPTICITY            1 - B_IMAGE/A_IMAGE                                       
         1 -11.5793    117.5948     55.0718   3.9597608613e+01   4.6709424336e+01     1.214646    0.5543829 -58.76  0.004484049    3.636    0.725
         2 -12.1756    104.6208     13.6935   3.0213577570e+01   5.4594412190e+01    0.3985705    0.3622881  16.67  0.002810438    1.424    0.298
         3 -12.1293    105.6057     20.5457   3.2101380816e+01   5.3697036615e+01    0.3216411    0.2631897 -83.00 0.0005831271    1.268    0.211
         4 -10.1418     13.2106      1.9707   5.8024234349e+01   7.3969227885e+01    0.2615997     0.147976  25.30  0.001193676    1.434    0.303
         5 -11.7852     26.3492     28.4910   6.2786941323e+01   6.8574853427e+01    0.4826284    0.3703076 -22.07  0.002050895    1.366    0.268
         6 -10.3103     12.8196      8.8935   6.1913222914e+01   7.3182627172e+01    0.4411962    0.2407776 -45.74  0.002140941    2.570    0.611
         7 -11.4148      5.9138     10.9736   6.7696872989e+01   7.3767336350e+01    0.6328093     0.366545  29.84  0.003818994    1.510    0.338
         8 -12.0920     20.4469     21.8144   6.3288458140e+01   7.0387627270e+01     0.795399    0.4409728 -16.32  0.002842153    2.332    0.571
         9 -12.0157     16.2937     13.9855   6.2196665251e+01   7.2043541806e+01    0.6900495     0.361528 -12.40  0.003288121    2.817    0.645
        10 -11.7740     22.6116     11.2274   5.7045087422e+01   7.1474057208e+01    0.5261226    0.2661774  26.46   0.00256418    1.799    0.444
        11 -10.5929    135.7440     22.3081   2.7537737410e+01   4.6768906284e+01    0.4546639    0.2912396  68.47  0.002195406    1.303    0.232
        12  -9.9613    127.3459     11.6284   2.5952984466e+01   4.9698272071e+01    0.2925775    0.1690898 -82.32  0.001607651    1.852    0.460
        13 -10.6210    126.9587     16.6335   2.7337780173e+01   4.9300226422e+01    0.3064815    0.1763705  54.11  0.001741092    1.654    0.395
        14 -11.0891    134.8926     15.1392   2.5830405543e+01   4.7691098764e+01    0.5081723    0.2309633  62.33  0.002436721    1.817    0.450
        15 -12.0678     47.6805     12.8727   4.5674470704e+01   6.6894467555e+01    0.7764776    0.2774061  50.21  0.003463262    2.243    0.554
        16 -11.7914     35.5797     17.9898   5.3334559780e+01   6.8531169260e+01    0.5184108    0.2719801 -22.66  0.002225426    2.477    0.596
        17 -11.5495     67.8340     18.9228   4.0973553994e+01   6.2176438729e+01    0.4225025    0.3174929  64.29 0.0007641531    1.301    0.231
        18 -11.8121    228.6887     15.9461   1.7638988159e+01   2.9247300335e+01    0.3088794    0.2015202 -52.30  0.001618108    1.302    0.232
        19 -11.0941    225.7328     14.0017   1.7493388749e+01   2.9948412038e+01    0.2239728     0.145374 -58.07 0.0006305461    1.198    0.165
        20 -12.5468    164.5792     18.1830   2.3063250148e+01   4.1019905252e+01    0.4408334    0.2528233  48.16  0.002505681    2.333    0.571
        21 -11.4820     85.8580     14.0498   3.4274863067e+01   5.8757658974e+01    0.4255446    0.3855026   1.38  0.001923347    1.388    0.280
        22  -9.7763     88.0264      7.6328   3.1602620687e+01   5.8858632012e+01    0.5630192    0.2028527  61.90  0.002317746    2.109    0.526
        23 -10.1598    148.0591     16.0109   2.4389015551e+01   4.4735995324e+01    0.3419742    0.1512374  50.63  0.001412363    2.651    0.623
        24 -10.2353    218.7690     12.7649   1.7704686020e+01   3.1266108073e+01    0.1971514    0.1336677 -42.44  0.001500657    1.578    0.366
        25 -11.0985    192.2641      8.9988   1.8796799751e+01   3.6461148966e+01    0.4633549    0.2937077 -14.55  0.002655898    3.266    0.694
        26 -11.5031    212.2408      9.0185   1.7463850285e+01   3.2795565340e+01    0.4248748    0.2929366 -20.67  0.002912748    2.564    0.610
        27 -10.7999    218.4446      3.7901   1.6211291841e+01   3.2238157721e+01     0.236969    0.1801861  82.18 0.0009732379    1.372    0.271
        28 -11.4433    223.7364      2.7844   1.5760464853e+01   3.1433897277e+01    0.2636256    0.1607871 -80.83 0.0003487072    1.261    0.207
        29  -9.4683    120.6471     11.8229   2.6980309407e+01   5.1172241668e+01    0.2629639     0.111389  68.13 0.0008419406    1.895    0.472
        30 -11.1711    169.9314      9.2713   2.0642447574e+01   4.0825348854e+01     0.320866    0.1514886  64.07  0.001859641    1.936    0.483
        31 -10.4306    145.3136      9.7019   2.3205561095e+01   4.5945353264e+01    0.1935302    0.1583749  73.84 0.0003846552    1.179    0.152
        32 -11.0396    244.4134      2.7922   1.4757545595e+01   2.8072535381e+01    0.2477205    0.1805415  51.84  0.001975433    2.476    0.596
        33 -11.0982    245.5297      9.4760   1.5717552812e+01   2.7219630938e+01    0.1429239    0.1050805 -84.99 0.0009252474    1.263    0.208
        34 -11.0458    247.4657      6.0306   1.5106045613e+01   2.7273037381e+01    0.2037636     0.125131 -80.11 0.0007599289    1.275    0.216
        35  -9.8573      1.2388      7.8297   6.9583270114e+01   7.4724622225e+01    0.3075508   0.09090745 -41.95  0.001371171    3.509    0.715
        36 -10.9629      2.7072      1.9442   6.5394572012e+01   7.5350398376e+01    0.3955366    0.1675721  21.13   0.00199567    2.157    0.536
        37 -10.5669    232.4923      7.4920   1.6063369018e+01   2.9503061295e+01    0.1981931    0.1132471 -72.45 0.0009101657    1.320    0.242
        38 -12.1646    233.3537      2.7227   1.5264951301e+01   2.9843197048e+01     0.332656    0.1587255 -70.50 0.0009052593    1.651    0.394
        39  -9.3683    157.4052      7.7546   2.1481719626e+01   4.3558504122e+01    0.1609972    0.1451642  23.88   0.00120117    1.695    0.410
        40 -10.7082    122.1384      5.8390   2.5128689884e+01   5.1380124846e+01    0.2946482    0.1533439 -35.69  0.001123584    2.214    0.548
        41 -10.6725    184.7842      6.2343   1.8817669394e+01   3.8171096478e+01     0.304599    0.1564694 -67.60  0.001503693    1.709    0.415
        42  -9.4594     78.0129      7.5232   3.3882061660e+01   6.1080484566e+01     0.286796    0.1430186  76.44  0.001327285    2.455    0.593
        43 -10.6145     74.3659      3.4533   3.3299812961e+01   6.2220212550e+01    0.5272362    0.2229075  62.50  0.002606033    1.869    0.465
        44  -9.7988     62.1559      6.9352   3.8051501337e+01   6.4540324876e+01    0.2369612    0.1417693  45.50  0.001381881    1.353    0.261
        45 -10.6464    176.5250      5.7248   1.9355712769e+01   3.9843788523e+01    0.3512107    0.1459078  87.24  0.001133571    2.292    0.564
        46  -9.1719    163.2894      6.3211   2.0610569299e+01   4.2470205609e+01    0.1014565   0.07783233  54.83 0.0002171223    1.603    0.376
        47 -10.8017    206.2081      2.9407   1.6770069399e+01   3.4481218858e+01    0.3140803     0.211749 -89.68  0.002434109    1.207    0.172
        48 -10.1571     41.4546      4.0694   4.4254762618e+01   6.8963850444e+01    0.2756698    0.1632659  23.85 0.0009682755    1.847    0.458
        49 -11.4382    134.0449      2.7780   2.2806652482e+01   4.9018957429e+01    0.3699186    0.2072266  78.18  0.001464866    1.436    0.303
        50  -9.3313    128.7119      1.3533   2.3081375044e+01   5.0309332656e+01    0.1599204   0.08459356  67.61 0.0006937568    1.492    0.330
        51 -10.6099    105.3001      2.2649   2.6642349210e+01   5.5442062033e+01    0.2928251    0.1994093 -83.61  0.001640356    1.496    0.331
        52 -10.7182      9.8580     29.7832   7.3304961822e+01   7.0441817965e+01    0.5860516    0.3263358   8.61  0.002635521    1.677    0.404
        53 -10.8328     22.1688      3.3059   5.3291585496e+01   7.2452762943e+01    0.2310049    0.1726971  11.22 0.0005870176    1.243    0.196
        54  -9.6726     25.9802      3.7419   5.1418380980e+01   7.1779688671e+01    0.1601334    0.1169663  32.90 0.0001945697    1.051    0.049
        55 -10.2353    154.2557      1.9350   2.0480030928e+01   4.4755785145e+01    0.4444139    0.1601104 -89.48  0.001833936    3.520    0.716
        56  -9.7816    141.5646      3.2578   2.2074589357e+01   4.7343326409e+01    0.2330575    0.1285398  75.23   0.00139809    1.441    0.306
        57 -10.6663    113.4250      2.2481   2.5378065936e+01   5.3625990960e+01    0.2588689    0.1788722  79.31 0.0008940846    1.173    0.147
        58  -9.3261     33.6749      1.8937   4.6640866356e+01   7.0618058597e+01    0.1532329    0.1284635  27.27 0.0004381676    1.137    0.121
        59  -8.7124    227.6773    140.3261   3.9134441290e+01   1.1948984137e+01    0.1153089   0.08236726 -67.39 0.0005166042    1.688    0.407
        60 -10.3237     51.1659    249.8534   9.6214043904e+01   1.2967927263e+01    0.1839404    0.1513922  -8.90  0.001081635    1.335    0.251
        61  -9.2707    217.5032    138.9200   4.0315556830e+01   1.3593660531e+01    0.1805132   0.09963394 -44.71 0.0004288912    1.488    0.328
        62 -10.2265     80.0987    138.2177   7.1935619348e+01   3.7176547377e+01    0.3832364    0.2820909  38.26 0.0009791431    1.341    0.254
        63  -9.7838     31.8632    137.6188   8.9243520776e+01   4.3740666518e+01    0.3584121    0.2380021  30.04  0.000870629    1.500    0.333
        64 -11.6330     23.4114    136.9279   9.2352099183e+01   4.4712989177e+01    0.6112834     0.432933  35.58  0.001029083    1.460    0.315
        65  -9.4211     47.3940    134.7705   8.2889195806e+01   4.2775441987e+01    0.2852867      0.15308 -68.03  0.001001742    2.057    0.514
        66 -10.1558    103.9830    131.3134   6.2864519211e+01   3.4730947425e+01     0.238267    0.2156564 -47.10  0.001237734    1.126    0.112
        67 -11.3910     10.9429    126.6314   9.5760644256e+01   4.8441647764e+01    0.6809825    0.3744994 -54.98   0.00192824    1.626    0.385
        68  -9.1280     93.4916    129.5084   6.5675392365e+01   3.7049711839e+01    0.1548087    0.1490942  13.69 0.0008105783    1.001    0.001
        69 -10.0012     26.9939    126.3264   8.9308259304e+01   4.7238159924e+01    0.4350643     0.137843 -55.82  0.001053897    2.658    0.624
        70 -10.3167      2.3462    126.0570   9.9093992627e+01   4.9111560634e+01    0.3699692    0.2255545  56.37  0.001412132    1.970    0.492
        71  -9.9302     32.8660    125.7319   8.6867074499e+01   4.6819580198e+01    0.2905153    0.1889756  71.57  0.001224182    2.152    0.535
        72 -10.8402     30.0811    132.9982   8.9187844985e+01   4.5160513505e+01    0.4529639    0.3456158 -21.79 0.0009061185    1.347    0.258
        73  -9.6759     83.3006    124.4092   6.7832131830e+01   4.0062685185e+01    0.4462811    0.2556929  -4.30  0.001367917    3.829    0.739
        74 -11.6201    104.4822    122.5385   6.0700781874e+01   3.6668692994e+01    0.4016669    0.3413183  51.64  0.001271684    1.218    0.179
        75 -10.1481     49.6169    123.2021   7.9792630542e+01   4.5522558524e+01     0.307461    0.2364341 -10.24  0.001473543    1.388    0.280
        76  -9.8454     56.2175    122.1946   7.7047861028e+01   4.4884676283e+01    0.2133268    0.1785076  52.96 0.0007080618    1.339    0.253
        77  -9.8880     48.8992    112.1808   7.7721843048e+01   4.8414073677e+01    0.5103593    0.2855535 -32.97  0.002056113    2.057    0.514
        78 -10.1438     44.8368    119.8715   8.0985600997e+01   4.6989657888e+01    0.2911328    0.2637206  77.74 0.0007506088    1.288    0.224
        79 -10.0624     43.5321    116.4938   8.0811054678e+01   4.8016659237e+01      0.27114    0.2511506  45.96 0.0007223468    1.181    0.153
        80 -10.4525      7.3848    115.5241   9.5664493257e+01   5.1606493192e+01    0.4778891    0.2081075 -49.48  0.001225965    1.998    0.500
        81 -12.3912      2.7555    111.8752   9.7105575238e+01   5.2820615067e+01    0.4927249    0.3732434 -60.68  0.001086606    1.223    0.182
        82 -11.4172      5.2076    105.6042   9.5128063447e+01   5.4301639159e+01    0.4954274    0.3544228   6.42  0.002397666    1.407    0.289
        83  -9.6650     58.0935    115.1998   7.4788044786e+01   4.6371459149e+01    0.3375434    0.2125799 -72.68  0.001396367    2.095    0.523
        84  -9.6243     37.3368    116.1199   8.3253033786e+01   4.8845443457e+01    0.2584598    0.1712613 -39.63  0.001188773    1.489    0.328
        85  -9.6981     79.0301    114.6914   6.7003275716e+01   4.3125810173e+01     0.289074    0.2259103 -39.41 0.0009201019    1.324    0.244
        86  -9.2952     67.8069    114.8651   7.1055780081e+01   4.4960398991e+01    0.2170405    0.1820005  58.15  0.001072325    1.371    0.271
        87 -11.0983     42.6025     94.0829   7.6085821738e+01   5.3629181049e+01    0.5297633    0.3936664  44.53  0.002568411    1.496    0.332
        88 -12.1776     41.4729     86.3097   7.4582726061e+01   5.5563704441e+01     1.334456    0.7241496   1.88  0.005127257    2.609    0.617
        89 -10.5886     49.1398     91.1324   7.2519392949e+01   5.3404610032e+01    0.3869563    0.3735147  20.54  0.002225643    1.124    0.110
        90 -11.7577      9.4149     97.3118   9.1851217549e+01   5.6136598981e+01    0.5854863    0.4881897  15.97  0.001591238    1.230    0.187
        91 -11.1631     26.7495     85.5157   8.1182122643e+01   5.7506533409e+01    0.9035907    0.4803085  22.23  0.003383568    1.776    0.437
        92 -12.8913     17.7043    100.4654   8.8642026461e+01   5.4737758827e+01    0.3721513    0.3352669  -6.36 0.0005105684    1.063    0.059
        93 -11.7458     21.0711     93.0401   8.5584824838e+01   5.6276396871e+01    0.9305356    0.5357935  59.32  0.002576989    2.791    0.642
        94 -11.6564     25.4256    107.2827   8.6535789756e+01   5.2341156979e+01    0.8484822    0.4944631 -35.09  0.003762842    1.722    0.419
        95 -10.6913     35.7527    103.0471   8.1170902986e+01   5.2319424414e+01    0.7476135    0.3288892   8.74  0.002553704    3.040    0.671
        96 -11.3128     21.3355    114.6408   8.9644303951e+01   5.0818239429e+01    0.5648631    0.2745618   5.18  0.002087251    2.313    0.568
        97 -11.4363     28.1741    113.0920   8.6475380363e+01   5.0592199980e+01    0.4610583    0.3229927  -0.54 0.0008058455    1.472    0.321
        98  -9.0697     86.3203    113.6674   6.4279516861e+01   4.2071231551e+01     0.156722    0.1211306  71.34 0.0007049182    1.697    0.411
        99  -9.5431     67.6716    110.7236   7.0117566438e+01   4.5978541412e+01    0.3046641    0.1866608  19.40  0.001274229    1.785    0.440
       100  -9.1631    170.4799    110.4766   4.2396577180e+01   2.6388136717e+01    0.1314669    0.1225794 -55.49 0.0008093771    1.050    0.047
       101  -9.8399    121.2590    108.8230   5.2743664614e+01   3.6374619622e+01    0.3395962    0.2363672  -7.44  0.000870802    2.386    0.581
       102  -9.9890    101.6846    109.6461   5.8425330763e+01   4.0082152235e+01    0.2389585    0.1828905  -3.33  0.001103359    1.716    0.417
       103 -11.2292     79.8299    108.3268   6.5161856261e+01   4.4466894016e+01    0.5910176    0.3285782  30.43  0.001217059    1.801    0.445
       104 -10.7548     15.6658    109.1515   9.1123444995e+01   5.2695153343e+01    0.4994968    0.2708052  19.30  0.001920731    1.823    0.451
       105 -10.0462    182.0531    104.7190   3.9220076427e+01   2.5278422875e+01     0.293881    0.2383228  10.35  0.001593101    1.846    0.458
       106  -9.5321    143.2601    106.1184   4.6845360562e+01   3.2484851358e+01     0.268006    0.1825558  78.54  0.001222342    2.053    0.513
       107  -8.9294    118.2644    105.6533   5.2756156244e+01   3.7630060716e+01    0.1461423    0.1152475 -86.37 0.0006980153    1.608    0.378
       108 -10.2346     86.4826    103.9384   6.1786867745e+01   4.4240289610e+01    0.3879641    0.2369471  45.93  0.001688793    1.636    0.389
       109 -10.0725     50.6219    101.8228   7.4608555087e+01   5.0704071335e+01    0.3344835    0.2549526 -53.05  0.001446871    1.366    0.268
       110 -10.0158     52.7579     98.2936   7.2856990321e+01   5.1228052983e+01    0.4516139    0.2100915 -52.69  0.001064392    2.183    0.542
       111  -8.8311    120.3195    101.3170   5.1147819837e+01   3.8088705530e+01    0.1454741    0.1166258   3.89  0.000418927    1.659    0.397
       112 -11.7751     68.7729     95.7512   6.5898778402e+01   4.9242542110e+01    0.4387102    0.3279161  18.12 0.0006376939    1.375    0.273
       113  -9.3264    158.9864     99.7501   4.2197630887e+01   3.0539247461e+01    0.1797639      0.16435  76.19 0.0002059937    1.086    0.079
       114  -9.4127     28.1979     99.8482   8.3792653355e+01   5.3927790662e+01    0.3100865    0.2009686 -22.22 0.0008012567    1.623    0.384
       115 -10.0559     31.5876     96.5874   8.1554446699e+01   5.4364418273e+01    0.4960366    0.3338706  69.13  0.002186314    2.306    0.566
       116 -11.5056     89.7402     88.4639   5.6590570406e+01   4.6876234299e+01    0.6623527    0.3794465 -35.96  0.001889143    2.046    0.511
       117 -10.3575     81.0345     98.0266   6.2089120045e+01   4.6549125067e+01    0.3560542    0.2080942  41.12 0.0005514641    1.622    0.383
       118 -11.3825     80.5724     93.1313   6.0933458386e+01   4.7684470058e+01    0.8844138     0.577864  38.49  0.004120333    1.432    0.302
       119 -10.4663     80.1518     84.2008   5.8590874816e+01   4.9602611674e+01    0.4410753    0.3404832  32.63  0.002040068    1.221    0.181
       120 -10.1779     76.5276     80.0118   5.8651135441e+01   5.1126143765e+01    0.3360097     0.284993 -43.06  0.001032747    1.282    0.220
       121 -10.6112     74.0412     76.9974   5.8652461018e+01   5.2186018735e+01    0.5284257    0.3671131  15.63  0.002492166    1.740    0.425
       122 -10.4494    120.4812     89.9839   4.8248891377e+01   4.0248606263e+01    0.3185855    0.1794141 -47.10  0.001248675    1.856    0.461
       123 -11.6077    125.9295     94.6971   4.8097091010e+01   3.8218758976e+01    0.2622644    0.2465631  52.88 0.0001852051    1.051    0.048
       124 -10.4498    121.6283     94.1641   4.9024215811e+01   3.9216695898e+01     0.252081    0.2468966  15.29  0.000789005    1.104    0.094
       125  -9.8473    104.8223     92.6543   5.3143244877e+01   4.2993521547e+01    0.2812679    0.2519095 -78.41  0.001536057    1.243    0.196
       126 -11.0569     98.5708     91.0953   5.4562488789e+01   4.4578388241e+01    0.3260659    0.2318487  48.98  0.001589889    1.352    0.260
       127 -11.6514      7.1116     88.7848   9.1370647288e+01   5.8380165459e+01    0.6527044    0.3950495   8.49  0.002405362    1.619    0.382
       128  -9.8065     66.4586     88.6559   6.4842185302e+01   5.1186658585e+01    0.3710364    0.2368673   4.14  0.001466491    2.263    0.558
       129  -8.7753    199.4897     88.4516   3.3426661933e+01   2.4830990918e+01    0.1210338    0.1019061 -64.93 0.0002671477    1.007    0.007
       130  -9.8874    104.3290     87.3040   5.1855941375e+01   4.4137568630e+01    0.2509843    0.2177959  20.35 0.0007492799    1.270    0.213
       131 -10.8105    113.3881     83.1173   4.8265864784e+01   4.3017754842e+01    0.3104374    0.2885287  65.79  0.001136888    1.034    0.033
       132 -10.5835    143.2488     84.5087   4.1755832648e+01   3.6435820794e+01    0.2365104    0.2219849 -85.63 0.0003306947    1.028    0.028
       133  -9.2596    133.6832     85.0778   4.3911400286e+01   3.8352035461e+01    0.2336905    0.1455914 -84.64 0.0008351953    2.768    0.639
       134  -9.9299    120.4924     85.2455   4.7025578300e+01   4.1121394349e+01    0.3606929    0.1810233  41.28  0.001498872    2.103    0.524
       135  -9.9439     67.1713     81.7304   6.2599487591e+01   5.2508780089e+01    0.3452596    0.2604668   1.58  0.001703278    1.559    0.359
       136  -9.4330     46.8192     75.9424   6.9296033487e+01   5.7054931708e+01    0.2961566    0.2258914 -16.23  0.001166401    1.382    0.277
       137 -11.6271     53.2506     74.9318   6.6200828356e+01   5.6261343117e+01    0.6387831    0.3619052 -53.81  0.001241058    2.049    0.512
       138  -9.6956     60.4072     82.7709   6.5549572553e+01   5.3465191140e+01    0.2947678    0.2174808 -27.72  0.001257571    1.485    0.326
       139 -11.1479     58.6704     77.7199   6.4777113890e+01   5.4800506342e+01    0.5159409    0.3234964  14.35  0.002014036    1.909    0.476
       140  -8.8843      1.2369     80.3070   9.2668059076e+01   6.0747706480e+01     0.392144    0.1105778 -67.36 0.0008521691    3.454    0.710
       141 -11.0137      1.9930     71.7897   9.0543669664e+01   6.2678331555e+01    0.3973638    0.1958186 -54.94  0.001752672    1.803    0.446
       142  -9.3385    103.4709     80.0125   5.0107284064e+01   4.5682862753e+01    0.2029818    0.1434641 -44.86 0.0003996268    1.527    0.345
       143  -9.8685     88.9234     73.6994   5.2641139789e+01   4.9860225707e+01    0.2789871    0.2348567 -40.05 0.0004467853    1.306    0.234
       144  -9.4365     92.2912     71.6777   5.1003339743e+01   4.9525589883e+01    0.2183195    0.1989423  74.66  0.000862841    1.185    0.156
       145 -10.3400     88.6745     78.0315   5.3983338695e+01   4.9113228212e+01    0.5510354    0.2959676  56.48  0.002255535    2.181    0.541
       146 -10.3136     93.8081     76.5749   5.1964193201e+01   4.8330396755e+01    0.4943329    0.2657305  46.88  0.002124535    1.709    0.415
       147  -9.5426     15.1316     67.4951   8.2455542243e+01   6.2673856759e+01    0.5437573     0.221413   9.96  0.002135845    2.656    0.623
       148 -11.6276     13.4186     74.1506   8.5048657819e+01   6.1350752978e+01    0.4955021    0.4172639 -67.92  0.002433481    1.406    0.289
       149  -9.6589      9.0000     74.9276   8.7534024402e+01   6.1513356191e+01    0.2284381    0.1563786 -61.26 0.0002828485    1.524    0.344
       150  -9.4096    233.4585     77.5263   2.7614345120e+01   2.0819593963e+01    0.1100337    0.0842955 -60.15  1.57603e-05    1.005    0.005
       151 -10.7217    186.9136     72.5109   3.1912903735e+01   2.9577957578e+01    0.4247395    0.2684113 -51.02  0.002499012    1.421    0.296
       152  -9.7638    103.5444     74.9182   4.8666294267e+01   4.6582147862e+01    0.3587846    0.2127365  63.05  0.001573085    1.981    0.495
       153  -9.1896     80.9473     73.7805   5.5274380769e+01   5.1455237954e+01    0.2014234    0.1760825  36.43 0.0007028374    1.038    0.036
       154  -9.5445     66.0117     74.5276   6.0906461289e+01   5.4152725107e+01    0.2198975    0.1309259  38.55 0.0003733829    1.529    0.346
       155  -9.7778     24.9438     73.6541   7.9020256793e+01   6.0370536342e+01     0.288471    0.1656381 -39.13  0.001374911    1.690    0.408
       156 -10.3041    153.6232     72.7767   3.7024797397e+01   3.6196825628e+01    0.3596338    0.1623619  48.45  0.001576335    2.376    0.579
       157 -11.8009     40.6337     70.0344   7.0346117138e+01   5.9175137173e+01    0.4353699    0.3511661 -54.10  0.001656474    1.446    0.308
       158 -11.2246     34.9320     71.9098   7.3609832914e+01   5.9560843512e+01    0.7763864    0.2447527  29.12  0.002771826    2.844    0.648
       159  -9.7440     19.4637     71.9089   8.1346411549e+01   6.1310966238e+01    0.2578228     0.165341  -9.75 0.0006717588    1.570    0.363
       160  -8.9553    161.6812     71.2895   3.5331325011e+01   3.4757576685e+01    0.1315913   0.09105213 -79.26 0.0003955792    1.598    0.374
       161 -11.3683    123.0068     68.8503   4.2125906016e+01   4.3397904930e+01    0.4977168    0.2602423  49.28  0.001726037    1.800    0.444
       162 -10.5779     79.1691     68.0221   5.4131379140e+01   5.2853864895e+01    0.4849853    0.3552825  69.93  0.002385149    1.812    0.448
       163  -9.0259    208.5122     68.5463   2.8554801854e+01   2.6210300417e+01    0.1146585   0.09356195 -67.28 0.0001434465    1.025    0.024
       164 -10.2869    219.0863     66.8746   2.7152886000e+01   2.4629038321e+01     0.353819    0.1507367  71.41  0.001823647    2.817    0.645
       165 -12.8172      4.5790     61.7889   8.6786932019e+01   6.4730512275e+01    0.8459213    0.4215996 -28.52 0.0009970821    1.916    0.478
       166 -11.1479      9.5516     62.5014   8.4176193292e+01   6.4214528781e+01    0.4909791    0.2700873 -31.53  0.001512173    1.709    0.415
       167  -9.4510    112.2656     75.4168   4.6480519723e+01   4.4628207182e+01    0.1949921    0.1270858  60.92 0.0006354435    1.562    0.360
       168  -9.2342     96.3452     65.2747   4.7915938645e+01   4.9767466667e+01    0.2311166    0.1603891  37.82 0.0005987232    1.435    0.303
       169 -10.7940     91.8362     62.5666   4.8421904115e+01   5.1173190663e+01    0.4235558    0.2454417  57.76 0.0008817938    1.762    0.432
       170  -9.3014     52.1719     65.6573   6.3784295000e+01   5.8259373608e+01    0.2045632    0.1192954  26.08  0.000796021    1.665    0.399
       171  -8.6172     21.2520     65.2992   7.8594216232e+01   6.2550705867e+01    0.1368822   0.09008665 -22.81 0.0004177185    1.496    0.332
       172  -9.5598    200.8792     64.6020   2.8648510261e+01   2.8129291222e+01    0.2643797    0.1074608  67.04  0.001286954    2.669    0.625
       173 -10.4180    158.2669     63.1492   3.4021810562e+01   3.6692922995e+01    0.4121224    0.1887791  49.60  0.001585092    2.387    0.581
       174 -10.5509     59.2848     63.5847   6.0134879331e+01   5.7421785799e+01     0.399391    0.3018899  45.98  0.001298869    1.330    0.248
       175 -10.2842     65.2751     61.7018   5.7154976536e+01   5.6663439937e+01    0.2755871    0.2426662  51.42  0.001599627    1.214    0.176
       176  -9.7556    106.0236     63.4977   4.4756079358e+01   4.7968662508e+01    0.2251213    0.1247831  51.60  0.001042196    1.619    0.383
       177  -9.1370     51.0417     56.6403   6.1295357500e+01   6.0101029760e+01    0.5383607    0.2899162  54.42  0.002202854    2.742    0.635
       178 -11.0536     40.6274     56.9213   6.6148193546e+01   6.1722541488e+01    0.3809977    0.2032024  38.40 0.0009343426    1.764    0.433
       179 -10.3032     50.4922     61.4745   6.3155606679e+01   5.9320419261e+01    0.3612401    0.2202568  39.07  0.001505923    1.513    0.339
       180 -11.4184     43.1663     62.1811   6.6695929529e+01   6.0352188130e+01    0.2828825    0.2496569  -9.97 0.0004638409    1.113    0.101
       181 -10.6658     46.1560     59.1583   6.4323398354e+01   6.0452102672e+01    0.2988262    0.2693395  44.29 0.0009371519    1.276    0.216
       182 -10.4763    234.0144     61.7156   2.4880152349e+01   2.2891674111e+01    0.2376543    0.0898485 -58.72  0.001185385    2.659    0.624
       183  -9.7469    113.9335     61.1654   4.2133160296e+01   4.6602929161e+01    0.2574577    0.1854209 -48.68  0.001219909    1.516    0.340
       184 -12.5466     74.2774     50.9828   5.0329674993e+01   5.6668469711e+01    0.8670588     0.385062 -48.02  0.001828592    2.879    0.653
       185 -11.4640     72.5305     47.4772   4.9744206239e+01   5.7555487731e+01    0.2541098    0.2312557  63.65 0.0007153667    1.209    0.173
       186  -9.9553    125.0518     56.6889   3.8439217649e+01   4.4821563468e+01    0.3144756    0.2149752 -26.45  0.001645245    1.923    0.480
       187  -8.9921    113.3140    249.3347   8.0526656084e+01   6.0242539515e+00     0.142182   0.09204557 -15.09 0.0007046268    1.687    0.407
       188 -10.2004    122.9732     44.4969   3.5563313818e+01   4.6979716088e+01    0.3023936    0.2136945  57.80 0.0007788118    1.260    0.206
       189 -10.3177    109.7311     40.3004   3.7124022623e+01   5.0488447886e+01    0.4344868    0.3814569  -7.76   0.00169193    1.478    0.323
       190 -10.4203    112.4083     50.7627   3.9550284435e+01   4.8480461070e+01    0.2403257    0.2177894 -57.16 0.0006716073    1.216    0.178
       191 -10.5157    116.0070     49.0012   3.8250457092e+01   4.7925686968e+01    0.3433021    0.2481537  31.85 0.0009881546    1.761    0.432
       192 -11.4999    117.8730     43.7714   3.6387566266e+01   4.8214954387e+01    0.4598642    0.3265911 -82.87  0.001546685    1.638    0.390
       193 -12.1990    119.9218     37.7504   3.4298370962e+01   4.8524888991e+01    0.5787733    0.3672873 -56.75  0.002196928    1.791    0.442
       194  -9.4226     84.1681     61.1946   5.0362123971e+01   5.3006812936e+01     0.191683    0.1620543  72.76   0.00074903    1.350    0.259
       195 -11.4306     25.2155     57.7527   7.4209832562e+01   6.3644943736e+01    0.8043332    0.4899841  35.56  0.003809914    1.670    0.401
       196 -10.6893     32.1255     52.8445   6.8969301284e+01   6.3698066379e+01    0.5440681    0.2458709  19.04  0.002210172    2.496    0.599
       197 -10.3093    106.4308     58.3670   4.3172976952e+01   4.8682852463e+01    0.3192293     0.206699  81.08  0.001203935    2.152    0.535
       198 -10.0370     91.8299     57.1701   4.6775112168e+01   5.2038184353e+01    0.3089316    0.2011946  62.59 0.0007095227    1.617    0.381
       199 -10.1150     88.1231     55.7694   4.7437295642e+01   5.3046644161e+01    0.3800889    0.1960951 -29.87  0.001322292    2.591    0.614
       200 -10.8935    157.9466     55.2307   3.2248316119e+01   3.7896027256e+01    0.4600228    0.3221772 -86.91  0.002453336    1.448    0.309
       201  -9.1573    219.8658     56.1678   2.5169911512e+01   2.5943161665e+01    0.1314193    0.1147886 -59.89  0.000278117    1.263    0.208
       202  -9.4183    135.3323     59.3659   3.7092098505e+01   4.2166484533e+01      0.19399    0.1535604  29.03 0.0009620964    1.696    0.410
       203  -9.4422    247.2899     54.3207   2.2610439899e+01   2.1798709342e+01   0.08514107    0.0760897 -38.30 0.0007009197    1.603    0.376
       204 -11.2305     60.8232     48.0842   5.4262012405e+01   5.9765341604e+01    0.8342913    0.4457232 -43.84  0.003975359    2.200    0.545
       205  -9.9138     55.6470     50.7379   5.7287497378e+01   6.0298779481e+01    0.2361676    0.1578147  36.70  0.000441444    1.295    0.228
       206 -10.2593     52.0894     48.3085   5.7926868734e+01   6.1331481862e+01    0.2537028    0.2222451  33.24 0.0005197803    1.106    0.096
       207 -11.1768     45.1813     48.7414   6.1154223523e+01   6.2442629073e+01    0.4828753    0.4057446 -11.26  0.002455402    1.221    0.181
       208 -11.1657     44.0333     43.9659   5.9935544634e+01   6.3417800671e+01    0.2863567    0.1969403  29.91            0    1.244    0.196
       209 -11.1256     39.6473     44.0682   6.2055376233e+01   6.4114864912e+01    0.5176519    0.2836945  17.51  0.001644918    2.164    0.538
       210  -9.2136    201.4682     53.5015   2.6459509306e+01   2.9538358242e+01    0.1128424    0.0933237 -72.07 6.646255e-05    1.065    0.061
       211 -10.6074    145.4646     49.5321   3.2848561732e+01   4.1347604804e+01    0.4219381    0.2634531 -19.89  0.001741033    2.639    0.621
       212 -10.0031    240.1715     50.7711   2.2567860673e+01   2.3335229593e+01      0.15592    0.1326384  66.93 0.0008021417    1.588    0.370
       213 -11.6721     83.2554     47.0363   4.6113352742e+01   5.5389325766e+01    0.3074016    0.2590724  19.83  0.000641186    1.319    0.242
       214 -10.2834    173.1853     48.0748   2.8563358942e+01   3.5715642778e+01    0.4391442    0.2656572 -74.77  0.002463982    1.741    0.426
       215  -8.7939    127.3101     49.3339   3.6021778275e+01   4.5363652007e+01     0.127784   0.09799311  32.92 0.0007043223    1.676    0.403
       216 -10.4438     26.4011     48.1272   7.0349777842e+01   6.5319047944e+01    0.2835516    0.1866004  14.08 0.0006843778    1.378    0.274
       217 -10.6887     20.3111     46.1940   7.3055154971e+01   6.6414907172e+01    0.6707827    0.3480553 -17.60  0.002938778    2.536    0.606
       218 -10.5326     26.3425     43.1523   6.8588745891e+01   6.6209282213e+01    0.2548413    0.1864693  16.29 0.0006253511    1.160    0.138
       219 -10.1006     22.8586     37.2204   6.8296542533e+01   6.7674603548e+01    0.4631661    0.2413516  45.03  0.002152415    2.513    0.602
       220 -10.0524      1.9149     48.9796   8.4910114374e+01   6.7576443340e+01    0.3461432    0.2075278 -61.31  0.001508119    1.887    0.470
       221  -9.8103      4.8489     43.0439   8.1277921923e+01   6.8523421788e+01     0.401652    0.1361874 -42.78  0.001516191    2.626    0.619
       222 -10.1907     13.2100     46.8697   7.7416052393e+01   6.7049031705e+01    0.3805978    0.1664413 -23.87  0.001503211    3.054    0.673
       223 -10.2357    135.0574     45.7934   3.3667094073e+01   4.4124830647e+01    0.3032445    0.1576284  62.84 0.0007162695    1.708    0.414
       224 -10.2857    139.3991     43.6313   3.2378995151e+01   4.3451933381e+01    0.3063464    0.2233918  32.96 0.0006898142    1.948    0.487
       225  -9.0509    160.9071     43.7957   2.9210014209e+01   3.8805084792e+01    0.2857589    0.1352772  81.32  0.001285417    2.579    0.612
       226 -10.4946    156.0134     42.4310   2.9567307470e+01   4.0013264019e+01    0.2546905    0.2259049  58.58  0.001036545    1.309    0.236
       227  -9.5458     91.5596     41.7673   4.2011503254e+01   5.4329486547e+01    0.3168835    0.2030999  79.70  0.001325719    2.151    0.535
       228 -10.4614    200.1587     45.2617   2.5019749040e+01   3.0848924286e+01     0.350765    0.1788645  83.81  0.001811436    2.109    0.526
       229 -10.6684    232.3799     39.4840   2.1283061574e+01   2.5964553111e+01    0.3815566    0.1483688 -61.17  0.002080799    2.421    0.587
       230  -9.0716    189.0000     40.0416   2.5114457028e+01   3.3611473969e+01    0.2907241    0.0590566 -37.39  0.001042549    4.855    0.794
       231 -11.5687     79.3664     35.4007   4.3383698665e+01   5.7801167958e+01    0.6403525    0.5329183 -25.43  0.003974247    1.439    0.305
       232  -9.6390    206.2022     37.6202   2.3031092492e+01   3.0690296824e+01    0.1715782    0.1154707 -61.58 0.0004239131    1.203    0.169
       233  -8.7014    194.3342     38.3431   2.4252162259e+01   3.2801042637e+01    0.1005256   0.08678922  41.87 0.0007050461    1.760    0.432
       234 -10.1205     59.8531     23.7081   4.5518591826e+01   6.3289376763e+01    0.2958602     0.172426 -28.98  0.001063984    2.097    0.523
       235 -10.9231     61.3115     35.8717   4.9638710687e+01   6.1459056449e+01    0.4798614    0.3232914  17.83  0.001784879    1.796    0.443
       236  -9.5584     70.7776     34.0165   4.5613322601e+01   5.9788458099e+01    0.2030914    0.1714607  42.75 0.0009991023    1.024    0.023
       237  -9.7447     67.4789     31.9726   4.5980578978e+01   6.0730656052e+01    0.3010355    0.1600963  46.03  0.001107159    1.549    0.355
       238 -10.9772     56.9563     31.2526   4.9548353686e+01   6.2928006608e+01    0.3142236    0.2769865   3.45  0.001128118    1.228    0.186
       239 -11.5547     49.0536     30.4088   5.2439241145e+01   6.4536336080e+01    0.7870864    0.2312582  42.25  0.002004652    2.823    0.646
       240 -10.7655     43.0125     28.0773   5.4163629468e+01   6.5939810232e+01    0.2012473    0.1521534  32.14 0.0002987261    1.072    0.067
       241 -11.2643      4.5485     36.2939   7.9205018153e+01   6.9807332719e+01     0.498138    0.2858185   8.23  0.002455843    1.530    0.346
       242 -11.0679    175.4268     33.7065   2.5244726039e+01   3.7060036500e+01    0.6027715    0.3061465 -65.69  0.003226417    2.056    0.514
       243  -9.6083    153.4999     37.0190   2.8651783106e+01   4.1223692577e+01    0.1713354    0.1152657 -43.15  0.001028014    1.575    0.365
       244  -9.4936    132.3125     36.8392   3.1819912237e+01   4.5871000130e+01    0.2785095    0.1392224 -82.23  0.001045041    3.753    0.734
       245  -9.2626     13.0402     36.5602   7.3893338636e+01   6.8947349055e+01    0.2099112    0.1129553 -38.31  0.001013406    1.842    0.457
       246  -9.7114    213.5187    248.4839   5.8965033534e+01  -4.3854012907e+00    0.1176711   0.08443537 -15.72 0.0008100697    1.023    0.022
       247 -10.0679    174.7438    246.3870   6.6143800564e+01  -3.2687940659e-01    0.2289227    0.1398067   8.01   0.00129196    1.501    0.334
       248 -11.6692    107.0171     31.9556   3.5242677077e+01   5.2122346125e+01    0.6175244    0.3802983  20.23  0.002825832    3.036    0.671
       249 -11.9898    114.6451     25.0338   3.1702122198e+01   5.1187757776e+01    0.6405372    0.2423353  63.01  0.001770981    2.169    0.539
       250 -10.1869    240.5300     32.7106   1.9622689234e+01   2.5458543261e+01    0.2362285    0.1509108  59.06  0.001739432    2.124    0.529
       251 -10.4705    198.1148     29.2753   2.2169860148e+01   3.3167049616e+01    0.4398492    0.1870727 -40.22  0.002459205    2.239    0.553
       252 -12.2320    160.0580     29.7048   2.6126901293e+01   4.0698078751e+01    0.3078597     0.273539 -88.02 0.0004186649    1.161    0.139
       253 -11.8845    164.3638     27.6692   2.5169500400e+01   4.0029367488e+01    0.2486828    0.2002536 -85.09 0.0004761501    1.012    0.012
       254 -11.0984    188.9467     28.5532   2.2844342404e+01   3.4992542226e+01    0.3344198    0.2602555 -19.69  0.002120787    2.032    0.508
       255 -11.1105     32.4255     30.6413   6.0410346573e+01   6.7341723936e+01    0.3052811    0.2320059 -43.87 0.0004749915    1.667    0.400
       256 -11.8856    126.2218    241.5878   7.6365175263e+01   6.0369972566e+00    0.4186616    0.3324402  46.41  0.001801827    1.558    0.358
       257 -10.9198    131.0315    240.7187   7.5090181210e+01   5.6344994226e+00    0.2597634    0.1833553  12.52   0.00100864    1.249    0.199
       258 -11.1789     67.9833    240.8886   9.1048118475e+01   1.3104591855e+01    0.4647885    0.2477122   1.57  0.001914352    2.478    0.596
       259 -11.5210    147.2018    238.0744   7.0927760662e+01   4.2322371190e+00    0.4357928    0.3388118  25.43  0.002586832    1.287    0.223
       260 -10.4067    167.2020    237.9510   6.6478997733e+01   1.9680906171e+00    0.1828594    0.1649868  -9.36 0.0007699873    1.233    0.189
       261  -9.2632    200.2860    234.3959   5.9284056649e+01  -9.0982479343e-01    0.1322391   0.07204472 -20.40  0.000699956    1.772    0.436
       262  -9.1532     15.3922    233.8408   1.0414534758e+02   2.0062325822e+01    0.1820008    0.1115671 -61.13 0.0009442737    1.751    0.429
       263  -9.6677     86.7571     29.6837   3.9345748902e+01   5.6899374385e+01    0.3568903    0.1479273  39.05  0.001409805    3.001    0.667
       264 -11.3359    144.5194     24.7370   2.6930970790e+01   4.4584000073e+01    0.4485475    0.2300704  62.05  0.002437095    1.694    0.410
       265  -9.3177     97.1718     26.7930   3.5829493576e+01   5.4920861406e+01    0.2779599    0.1041584 -27.90  0.001133532    3.643    0.725
       266 -10.7998    183.0448     25.4877   2.2781677990e+01   3.6491457066e+01    0.2590286    0.2309864 -57.89  0.001748433    1.328    0.247
       267  -9.8884    187.1848     23.5499   2.2017255392e+01   3.5898668904e+01    0.1901924    0.1654437  66.17 0.0007062684    1.447    0.309
       268  -9.9579    155.1216     23.5390   2.5311079069e+01   4.2433465943e+01    0.3586968    0.2209511 -49.72  0.002200326    1.611    0.379
       269  -8.8399    205.6796    233.6815   5.8172808748e+01  -1.3239222350e+00    0.1270263    0.0726214 -17.04 0.0005057166    1.664    0.399
       270  -9.1602    247.2882    231.3317   5.0851380015e+01  -4.6587204424e+00     0.113308    0.0599017 -22.01 0.0005377639    1.623    0.384
       271  -8.8578    189.7245    229.6896   6.0587298566e+01   9.7457296873e-01    0.1281371   0.07789271 -18.18 0.0003802811    1.555    0.357
       272  -9.7277    234.4376    223.4679   5.1677640215e+01  -2.3930849323e+00    0.1137902   0.08255042 -24.20 0.0001392848    1.008    0.007
       273 -10.1056     90.9323     22.7477   3.5985026003e+01   5.6753394064e+01    0.2371856    0.2124971  21.17   0.00124692    1.331    0.249
       274  -9.6403     65.6872    222.3435   8.9654898654e+01   1.7648729615e+01    0.1522783    0.1002007  54.66  0.000704674    1.706    0.414
       275 -10.3085     38.7863     22.2069   5.3649912101e+01   6.7449423921e+01    0.2305012    0.1752117  26.72 0.0003752085    1.084    0.078
       276  -9.6433     49.6631    222.6637   9.4114574467e+01   1.9381988151e+01    0.1488104    0.1017881 -26.28 0.0007051682    1.749    0.428
       277 -11.9782    126.0310     28.4305   3.0645891785e+01   4.8257565486e+01    0.4518454    0.3079191  79.98  0.002668214    1.334    0.251
       278  -9.5794    223.2190     22.2271   1.9023441836e+01   2.9483822052e+01    0.1464933   0.08718669 -70.59 0.0005370569    1.328    0.247
       279 -10.8035    178.9629     20.8009   2.2211414017e+01   3.7816806098e+01    0.3662243     0.202671  48.47  0.002049083    2.605    0.616
       280  -9.8228      6.1020     22.0350   7.2631387955e+01   7.2093340413e+01    0.2806405    0.1354047  21.48  0.001479976    1.740    0.425
       281  -9.0224    153.2800    219.3478   6.6670769996e+01   7.1427253736e+00    0.1438286   0.09149083 -19.07 0.0005353853    1.641    0.391
       282  -8.9790     44.5525    215.4905   9.4827734467e+01   2.1687404639e+01    0.1411733    0.1315223  34.31 0.0002613477    1.006    0.006
       283  -9.4935    164.5093    211.9943   6.2973316167e+01   7.1733804699e+00    0.1967489    0.1645655   5.70 0.0004671158    1.114    0.103
       284  -9.3509    152.5194    207.4870   6.4910914233e+01   9.6354206847e+00    0.2368214     0.136278 -60.98  0.001038808    2.361    0.576
       285  -9.8931     74.8379     19.3105   3.9013878279e+01   6.0643471838e+01    0.2751424    0.1764507  33.35 0.0008821592    1.678    0.404
       286  -9.9650     47.2928     18.8974   4.8429078797e+01   6.6303793804e+01    0.2661889     0.180832  -1.38  0.001249941    1.871    0.466
       287  -9.3634    216.4472     20.6886   1.9212611200e+01   3.0819599402e+01     0.122653   0.09136093 -42.23 0.0009335174    1.537    0.349
       288  -9.0725     81.2312     19.4155   3.7291828838e+01   5.9244144410e+01     0.251009   0.09741638  55.41  0.001130544    2.000    0.500
       289  -9.0808     61.4934    206.5361   8.8980980539e+01   2.2021702952e+01    0.1472926    0.1371237  24.23 0.0001599244    1.008    0.008
       290 -10.2455     16.6259    205.4822   1.0186789196e+02   2.6882713206e+01    0.2420418    0.1286547 -75.94 0.0008195277    1.898    0.473
       291 -10.4283      4.5837    204.5059   1.0518607889e+02   2.8084051482e+01    0.3492087    0.1451253 -67.90  0.001477143    2.272    0.560
       292  -9.7429    186.9825     15.1077   2.0376756513e+01   3.6847561887e+01    0.1652818    0.1303613 -82.32 0.0007799835    1.077    0.072
       293 -11.2239      6.1169    198.5449   1.0436059228e+02   2.9491013680e+01    0.3888313    0.1827667 -69.64  0.001713488    2.023    0.506
       294  -9.0745     78.5701    203.7476   8.3673774758e+01   2.0592465167e+01     0.187265    0.1490441 -81.33 0.0004518091    1.499    0.333
       295  -9.2236     74.7913     13.6044   3.6938519679e+01   6.1226341995e+01    0.1794354    0.1025572  67.80  0.000939881    1.695    0.410
       296  -9.7044    233.9660    196.8271   4.7608722427e+01   1.8587793057e+00    0.2108153    0.1321867 -39.51 0.0009414786    1.262    0.207
       297  -8.8586     83.3592    195.7078   8.1128464133e+01   2.1959734408e+01    0.1595483    0.1098329  53.47 0.0007029176    1.694    0.410
       298  -9.8031     16.3599    190.7768   1.0076207619e+02   3.0715628120e+01    0.3052437    0.1899894  57.99  0.001440308    1.680    0.405
       299  -9.2028     53.0099    190.4781   8.9515861509e+01   2.7152525030e+01    0.2138356    0.1228713 -11.91 0.0008086528    2.430    0.588
       300 -12.2978      4.6273    184.0289   1.0376382276e+02   3.3382214495e+01     0.684639    0.5078014 -87.90  0.002802172    1.320    0.242
       301  -9.7298    250.4050    176.7649   4.2070129859e+01   3.3567473427e+00    0.1681196   0.07769413 -36.97 0.0009593589    1.704    0.413
       302 -11.8661    239.1955     16.4639   1.7124768278e+01   2.7481213134e+01    0.5141047    0.1603583  85.49  0.002500787    4.017    0.751
       303  -9.6234     28.1485    175.8509   9.5623780867e+01   3.3678759183e+01    0.2254845     0.196396  59.88 0.0006570517    1.177    0.151
       304  -9.3203     39.5185    173.5347   9.1639805265e+01   3.3179338120e+01    0.1471375    0.1448917   1.85 0.0001098234    1.005    0.005
       305 -10.7603     14.0446    159.2711   9.8522266618e+01   3.9373006694e+01    0.4321967    0.2616909 -77.38  0.001534946    1.647    0.393
       306 -12.1417      9.0899    166.9389   1.0094104132e+02   3.7647054396e+01     0.625543    0.4036358  33.36  0.002281608    1.548    0.354
       307 -11.5013     11.4903    163.0174   9.9770668413e+01   3.8540377450e+01    0.4248815    0.3114031  75.17  0.001701827    1.460    0.315
       308 -10.6149     19.0263    164.7838   9.7421187540e+01   3.7481582285e+01    0.3904569    0.2758148  -9.64  0.001855658    1.578    0.366
       309  -9.8132    204.9728    163.2047   4.6600983776e+01   1.1074662072e+01    0.2184501    0.1541827 -40.67 0.0005749351    1.191    0.160
       310 -10.7266     28.2150    161.5472   9.3921086454e+01   3.7566143949e+01    0.4340688     0.292286 -53.16   0.00151376    1.435    0.303
       311  -9.5898     38.0220    160.2888   9.0378018817e+01   3.6940479806e+01    0.2191721    0.1963515  14.70 0.0007996735    1.112    0.101
       312 -10.8822      9.2770    155.3786   9.9759715424e+01   4.0772755949e+01     0.315318    0.2505196 -76.70  0.001099339    1.222    0.182
       313  -9.8835    104.2273    155.0281   6.7835914386e+01   2.8984762048e+01    0.2845416    0.2532248 -23.86  0.001460112    1.133    0.117
       314 -12.5081     22.7914    149.2927   9.4275565089e+01   4.1400899146e+01    0.8497601    0.3914898 -33.61  0.001274188    2.590    0.614
       315 -10.9250     16.5876    147.8974   9.6341723661e+01   4.2284692259e+01    0.3646801    0.2590584 -77.64 0.0004102346    1.423    0.297
       316 -11.4040     47.3366    147.2198   8.5095471538e+01   3.9447922954e+01    0.8467994    0.4486769 -43.17  0.003375764    1.945    0.486
       317 -10.6710     30.6037    152.2551   9.1867598012e+01   3.9882016195e+01    0.3611812     0.324662 -80.33  0.001944145    1.151    0.131
       318 -10.7072      4.1275    153.5166   1.0135795786e+02   4.1610070299e+01    0.3315935      0.20826  34.19 0.0009838953    1.632    0.387
       319  -9.9514     62.3993    151.5511   8.0550228012e+01   3.6352371757e+01    0.4098745    0.2466574 -10.67  0.001548963    2.326    0.570
       320 -10.8673      3.1294    147.6596   1.0114065810e+02   4.3256737344e+01    0.6044629    0.2599102 -85.66  0.002286183    2.593    0.614
       321 -12.2991     12.7187    136.8945   9.6414417410e+01   4.5559907526e+01     1.537374    0.4637865 -54.69  0.005363817    2.710    0.631
       322 -11.2795      5.8316    142.1916   9.9601714597e+01   4.4576675700e+01    0.3242045    0.2964582 -83.43 0.0003782414    1.100    0.091
       323 -10.7324      2.0288    140.0306   1.0076728192e+02   4.5381570608e+01    0.4211472    0.2201646 -67.76  0.001866175    1.728    0.421
       324  -9.7077    104.2661    147.1959   6.6222973853e+01   3.0886697332e+01    0.2466086    0.2121064  35.09            0    1.149    0.130
       325  -9.1696     73.8887    146.1918   7.5634933002e+01   3.6104977502e+01     0.220922    0.1782633 -20.76 0.0006299966    1.330    0.248
       326 -11.0477     33.1538    144.1962   8.9778098439e+01   4.1829184337e+01    0.3243459    0.3136712  67.73 0.0008010847    1.101    0.091
       327 -10.7497     40.2381    138.3234   8.6201526146e+01   4.2666584476e+01     0.449572    0.3407473 -83.54  0.001414453    1.520    0.342
       328  -9.5905     39.3412    133.4593   8.5702811728e+01   4.4070016555e+01    0.2627055    0.1496715  13.51 0.0006187046    1.857    0.461
