#   1 NUMBER                 Running object number                                     
#   2 MAG_AUTO               Kron-like elliptical aperture magnitude                    [mag]
#   3 X_IMAGE                Object position along x                                    [pixel]
#   4 Y_IMAGE                Object position along y                                    [pixel]
#   5 X_WORLD                Barycenter position along world x axis                     [deg]
#   6 Y_WORLD                Barycenter position along world y axis                     [deg]
#   7 A_WORLD                Profile RMS along major axis (world units)                 [deg]
#   8 B_WORLD                Profile RMS along minor axis (world units)                 [deg]
#   9 THETA_WORLD            Position angle (CCW/world-x)                               [deg]
#  10 FWHM_WORLD             FWHM assuming a gaussian core                              [deg]
#  11 ELONGATION             A_IMAGE/B_IMAGE                                           
#  12 ELLIPTICITY            1 - B_IMAGE/A_IMAGE                                       
         1 -14.8814    162.9523     43.2128   7.8669903431e+01   3.9087656734e+01     1.387545     1.138997  -8.58  0.003502277    1.381    0.276
         2 -14.6784    176.6425     10.5761   6.6210895873e+01   3.9257590377e+01     1.130917     1.076093  76.21  0.004123528    1.076    0.071
         3 -12.2079    189.8805     14.4372   6.5655821911e+01   3.5373409267e+01    0.2522205    0.2181499  -8.59 0.0009607952    1.369    0.270
         4 -12.4305    190.6101      2.8642   6.2296004382e+01   3.6306836861e+01    0.2876824     0.187513  84.45  0.001009349    1.427    0.299
         5 -11.4678    134.0468    244.6779   1.2962914662e+02   8.1145432775e+00    0.1918993     0.166454 -33.81  0.001150261    1.597    0.374
         6 -20.0848     74.3502    175.5240   1.3363855533e+02   3.0291576615e+01     16.58666     6.235569 -66.91   0.06915294    2.737    0.635
         7 -12.7624    152.6834    184.4609   1.1727629674e+02   1.5030547638e+01    0.5562247    0.3287812 -71.65  0.002224728    3.098    0.677
         8 -11.8239    138.8621    250.2749   1.2937563908e+02   6.5223871736e+00    0.2522981    0.1696486  36.58  0.001616923    1.285    0.222
         9 -10.7936    131.1816    236.1485   1.2918184518e+02   9.8918927523e+00    0.2077784    0.1605017 -60.48 0.0009529159    1.620    0.383
        10 -11.8665    138.9915    243.1058   1.2852920046e+02   7.5562224115e+00    0.3628567    0.2158583 -50.61  0.001583416    2.178    0.541
        11  -9.9415     30.0393    232.5008   1.4737067883e+02   2.4533461579e+01    0.1478091   0.08172619  46.87 0.0009971167    1.491    0.329
        12 -13.9028    204.5605    176.3140   1.0490878105e+02   6.2511002277e+00     2.058533    0.6844979 -47.20  0.006540858    4.507    0.778
        13 -11.7184    202.3291    170.3094   1.0413260227e+02   7.6686235307e+00    0.4033016    0.2465443  -9.40   0.00136935    2.403    0.584
        14 -11.4224    205.3412    169.3021   1.0332849350e+02   7.2327588077e+00    0.3931211     0.246222 -28.02  0.001352921    1.723    0.420
        15 -13.4450    125.1096    241.8486   1.3097383119e+02   9.9698670764e+00     0.443842    0.1750845 -54.14   0.00217702    3.192    0.687
        16 -12.2965    199.0608    178.5938   1.0645273930e+02   6.9584667170e+00    0.6376512    0.3890466 -65.77  0.002369053    3.907    0.744
        17 -13.2104    195.2759    168.7477   1.0523049106e+02   9.3498996834e+00    0.4498088     0.414556   7.94 0.0006107092    1.062    0.059
        18 -12.4478    192.9970    164.2748   1.0476750017e+02   1.0583492320e+01    0.4910588    0.3103918  38.85  0.002009608    1.466    0.318
        19 -10.9270    133.4665    229.0745   1.2788770719e+02   1.0651410142e+01    0.2329158    0.1522079  44.37  0.000608477    1.217    0.178
        20 -10.8946     16.8603    225.6020   1.4925241086e+02   2.7147544152e+01   0.09114834   0.05656703 -74.63 0.0002838809    1.631    0.387
        21 -14.0524    138.1529    171.3326   1.1817749186e+02   2.0380359764e+01    0.8811736    0.6129783  61.58  0.003933033    1.569    0.363
        22 -14.1862    145.4846    169.6877   1.1619836772e+02   1.9278387534e+01    0.9755133    0.5826348  69.47  0.003805767    2.750    0.636
        23 -12.4093    125.9719    171.8153   1.2107391629e+02   2.2588387056e+01    0.3690585    0.3162867 -82.65  0.001038766    1.260    0.206
        24 -12.4770    177.0895    170.0843   1.0929332158e+02   1.2822136572e+01    0.3738906    0.2177352 -51.01  0.001655336    2.079    0.519
        25 -10.9256     26.1466    173.6377   1.4419577863e+02   3.6443536694e+01    0.1949088    0.1602995 -46.44            0    1.652    0.395
        26 -10.7423    165.5098    172.1107   1.1219328676e+02   1.4803608618e+01    0.2071015    0.1459846 -45.03  0.001025522    1.573    0.364
        27 -10.8460     33.9373    169.7834   1.4216455067e+02   3.6486732296e+01    0.2038982     0.144356 -81.96 0.0005530607    1.208    0.172
        28 -12.1313    230.0813    166.6988   9.8098710488e+01   2.8236675871e+00    0.3091696    0.1888654 -46.45  0.001479815    2.063    0.515
        29 -12.0560     22.5439    220.7159   1.4802091349e+02   2.7457373093e+01    0.2141855    0.1348651 -72.78  0.001519828    1.631    0.387
        30 -12.4190    129.2227    161.6040   1.1846891200e+02   2.4104622572e+01    0.4888219     0.268864  34.32  0.001021191    1.949    0.487
        31 -11.4777     23.6232    215.2885   1.4752702637e+02   2.8353418483e+01    0.1323648   0.09976326  88.02 0.0007226774    1.199    0.166
        32 -10.1941     14.4141    159.4489   1.4562824068e+02   4.0548135941e+01    0.1150087   0.08844091  86.95 4.791769e-05    1.010    0.010
        33 -10.8483    190.7089    158.1451   1.0393880660e+02   1.2134939014e+01      0.38314    0.1739566  33.22  0.001383043    2.610    0.617
        34 -11.1322    130.7521    213.4323   1.2640247110e+02   1.3754641388e+01    0.2529357    0.1812558 -85.43 0.0006807052    1.828    0.453
        35 -11.8293    139.9847    120.7291   1.0691129805e+02   3.0626122062e+01    0.3567668    0.2703069  62.09 0.0008581207    1.457    0.314
        36 -14.3528    134.0196    145.8676   1.1417542474e+02   2.6502904606e+01     1.527019    0.4843075 -55.95  0.004229419    4.628    0.784
        37  -9.8399    160.2718    243.6543   1.2463678709e+02   4.0050124819e+00    0.1146303   0.08370351  63.43  0.000572275    1.620    0.383
        38 -13.9736    135.8125    127.7994   1.0968607248e+02   3.0015479054e+01     2.188218    0.3946992 -50.30  0.004408335    7.866    0.873
        39 -12.3925    134.6723    110.0367   1.0554522225e+02   3.4061995051e+01     1.188633    0.1775279 -45.21  0.002485204    6.872    0.854
        40 -10.8611     22.9688    156.0891   1.4340463782e+02   4.0535588852e+01    0.1773526    0.1427564  87.75 0.0004405887    1.021    0.021
        41 -12.7818    161.7085    153.4870   1.0924514011e+02   1.9164841884e+01    0.4890286    0.3656504  78.95  0.002243745    1.873    0.466
        42 -10.0318      6.5170    155.5724   1.4709177188e+02   4.2013086738e+01    0.1118012   0.08745674 -88.75 0.0001389564    1.059    0.055
        43 -10.4207     19.0523    158.0449   1.4447164839e+02   4.0455749025e+01    0.2087227    0.1443202  59.93  0.001007793    1.338    0.253
        44 -12.1595    207.4837    211.0007   1.1079696676e+02   5.1613227500e-01    0.2528338    0.1662775  48.98  0.001351857    1.622    0.383
        45 -11.6152    174.3820    148.6453   1.0535300175e+02   1.7380499935e+01    0.3358231    0.2895191 -84.91  0.001036148    1.463    0.316
        46 -14.3685    144.0963    145.5881   1.1166423757e+02   2.4487412700e+01     1.054008    0.6184272 -63.14  0.004214114    2.317    0.568
        47 -11.9548     27.5846    145.2280   1.4124689407e+02   4.2529115692e+01    0.2532907    0.1809719 -67.69  0.001067011    1.259    0.206
        48 -11.7896      8.5284    137.7969   1.4520292894e+02   4.5741294525e+01    0.2714099    0.2401808 -18.59  0.001450867    1.571    0.363
        49 -10.8909    172.0153    138.2916   1.0352080758e+02   1.9897121722e+01    0.2219734    0.1927559  45.53 0.0005817013    1.108    0.097
        50 -13.0587     11.4644    206.0657   1.4920892927e+02   3.1297819707e+01     0.335387    0.2219982  36.30  0.002065622    1.719    0.418
        51 -12.6041    160.6460    127.9858   1.0366524822e+02   2.4501413500e+01    0.4574533    0.3610779 -48.71  0.001893651    1.341    0.254
        52  -9.5800     12.6090    243.1512   1.5073573564e+02   2.4515949034e+01    0.1392034   0.09951761 -55.67   0.00105165    2.265    0.558
        53 -10.5751    151.1070    242.0782   1.2614424350e+02   5.7346169603e+00    0.1750132    0.1380934  26.39 0.0006407948    1.313    0.238
        54 -11.5926      2.8783    112.5164   1.4425713427e+02   5.1728154146e+01    0.2150982    0.1544682 -55.33  0.001274512    1.336    0.251
        55 -10.9036    167.6789    112.6747   9.8166163937e+01   2.5911763275e+01    0.3202867     0.233471 -83.81  0.001323541    2.079    0.519
        56 -11.1989    139.9114    200.2933   1.2261280124e+02   1.4494462335e+01    0.3679914    0.2146845  39.97 0.0008729282    1.502    0.334
        57 -10.8071    205.3359    110.2490   8.9691987141e+01   1.7379300658e+01    0.3256329    0.2060391  45.54  0.001058141    1.576    0.366
        58 -10.6374     28.8122    240.1920   1.4798478079e+02   2.3326907805e+01    0.1464091   0.08970859  62.31 0.0004854153    1.163    0.140
        59 -13.4690    180.4972    193.4849   1.1301373696e+02   8.1043407636e+00    0.5806562    0.4157488  35.35  0.003064541    1.220    0.180
        60 -11.3424     13.0981    100.5971   1.3987258446e+02   5.3782538986e+01    0.3514168    0.1523622  16.78  0.001761457    3.034    0.670
        61 -12.4387    169.5389    195.4709   1.1561549778e+02   9.8506629545e+00    0.3346924    0.2269416 -52.97  0.001150044    1.825    0.452
        62 -13.6842    165.2355    188.9493   1.1537606800e+02   1.1800514711e+01     0.681749    0.4126709  42.65  0.003346463    1.443    0.307
        63 -10.6371    144.1507     80.8395   9.4797867147e+01   3.7736412422e+01    0.2348122    0.2180091 -86.68 0.0005169553    1.193    0.162
        64 -12.7301    170.3559    183.3578   1.1328163002e+02   1.1794724768e+01    0.4132589     0.297544  45.18  0.001311601    1.254    0.203
        65 -14.4801    151.5971     57.8353   8.5768452699e+01   3.9875517960e+01     1.334115     1.165209  25.84  0.000962917    1.189    0.159
        66 -13.7949    173.0924    189.3619   1.1380099457e+02   1.0215729258e+01    0.5701592    0.4494848 -50.36   0.00243083    1.507    0.336
        67 -13.0431    166.9477     35.0170   7.5311609492e+01   3.9112717563e+01     0.435398    0.3923506  26.27 0.0008393254    1.186    0.157
        68 -11.1468     13.4978     59.9535   1.3261249386e+02   6.2712896621e+01    0.1807964     0.159274  52.48 0.0005423374    1.452    0.312
        69 -10.4342    143.6001     33.6635   7.9381634731e+01   4.5406447769e+01    0.2425808    0.1724377  82.47 0.0007130667    1.708    0.415
        70 -10.7672    133.5074    249.0883   1.3022131329e+02   7.5431873767e+00    0.1310927    0.1171956 -79.53 0.0003354843    1.403    0.287
        71 -13.4003    175.2029    185.5014   1.1265744095e+02   1.0472073979e+01    0.5986197    0.3288491 -58.33  0.002399432    2.830    0.647
