#   1 NUMBER                 Running object number                                     
#   2 MAG_AUTO               Kron-like elliptical aperture magnitude                    [mag]
#   3 X_IMAGE                Object position along x                                    [pixel]
#   4 Y_IMAGE                Object position along y                                    [pixel]
#   5 X_WORLD                Barycenter position along world x axis                     [deg]
#   6 Y_WORLD                Barycenter position along world y axis                     [deg]
#   7 A_WORLD                Profile RMS along major axis (world units)                 [deg]
#   8 B_WORLD                Profile RMS along minor axis (world units)                 [deg]
#   9 THETA_WORLD            Position angle (CCW/world-x)                               [deg]
#  10 FWHM_WORLD             FWHM assuming a gaussian core                              [deg]
#  11 ELONGATION             A_IMAGE/B_IMAGE                                           
#  12 ELLIPTICITY            1 - B_IMAGE/A_IMAGE                                       
         1 -15.3013      8.7119    144.3773   1.4063809985e+02   4.4073331013e+01     11.40763      5.15512  80.44   0.04936013    3.082    0.676
         2 -12.8285      4.1335     51.1409   1.2574083499e+02   6.4322364785e+01    0.5220299    0.3606559 -46.79  0.003688918    1.145    0.127
         3 -13.4973    215.5413     11.2831   5.9164629540e+01   3.0402581894e+01    0.9419524    0.7922407  62.72  0.004155729    1.334    0.250
         4 -13.4640    199.6825     28.6713   6.4881524701e+01   3.2068738369e+01     1.314895     1.214527  60.91  0.007061895    1.240    0.194
         5 -12.1433      2.2406     13.1959   1.1424148101e+02   7.0648124001e+01    0.6835576    0.1453378 -47.24  0.002877144    4.239    0.764
         6 -12.4903      2.5892      3.5865   1.1007971220e+02   7.1917244893e+01    0.4953805    0.4144587  -1.01  0.004236962    1.421    0.296
         7 -11.6868    243.8075    246.5331   1.0469954296e+02  -1.3458069845e+01    0.3839501    0.2189392 -37.20  0.002234181    1.893    0.472
         8 -11.3650    248.9007    247.4757   1.0395311583e+02  -1.4285528115e+01     0.424828    0.1881721 -42.19  0.002128807    2.742    0.635
         9 -12.1060    227.8236    249.2492   1.0805677918e+02  -1.1518216678e+01    0.5972478    0.2053638  41.41  0.002600825    2.776    0.640
        10 -11.9117    140.3365    249.8513   1.2502290947e+02   2.6478200076e+00    0.6618116    0.1758903  40.51  0.002376803    3.208    0.688
        11 -11.6986    124.3707    249.9879   1.2816564426e+02   5.2927706764e+00    0.5488536    0.1590584  42.39  0.002110351    2.838    0.648
        12 -10.9387     65.1163    248.5228   1.3923201218e+02   1.4701764370e+01    0.2972151    0.1939987  80.85 0.0006638073    1.391    0.281
        13 -11.4165     45.7702    248.7461   1.4269869316e+02   1.7246616026e+01    0.4949068    0.2200782  60.54  0.002638591    1.965    0.491
        14 -12.5795     35.4611    245.5973   1.4425533597e+02   1.9144133341e+01    0.6630681    0.4828559 -56.57  0.004473124    1.894    0.472
        15 -12.2623      5.7256    227.3967   1.4815895047e+02   2.6059518859e+01    0.5613996     0.353968 -61.33  0.003752806    1.859    0.462
        16 -12.4736      4.3278    247.9763   1.4954675732e+02   2.2172258869e+01    0.9736038    0.4612549  53.96  0.005322136    1.670    0.401
        17 -11.8262     12.3646    244.7179   1.4807664258e+02   2.1952245100e+01     1.037973    0.1857321  53.73  0.004095088    4.289    0.767
        18 -12.7247     11.3123    239.3047   1.4793214667e+02   2.3116624445e+01     1.230146    0.1894293  49.51  0.005020592    4.052    0.753
        19 -10.3616     88.0913    249.0706   1.3502980795e+02   1.1245929861e+01    0.2101648    0.1233217  68.39  0.001137942    1.703    0.413
        20 -10.7642     53.1525    238.3474   1.4053139450e+02   1.8337625056e+01    0.2271207    0.1483023 -88.47 0.0007399573    1.367    0.268
        21 -11.5392    238.1830    247.7261   1.0591268248e+02  -1.2819710794e+01    0.3459034    0.2106629  -1.61  0.001932749    1.875    0.467
        22 -12.9206     44.7654    212.8113   1.3982450738e+02   2.4779960473e+01    0.8396662    0.7643224 -64.26  0.004869645    1.422    0.297
        23 -10.7806      6.8421    215.1625   1.4718984504e+02   2.8463914776e+01    0.2111248    0.1405103 -73.05 0.0007475627    1.389    0.280
        24 -12.6830     10.0905    207.0199   1.4603227411e+02   2.9870940606e+01    0.6743046    0.5608687  24.96  0.003755811    1.780    0.438
        25  -8.8139    152.5595    212.9704   1.1698035634e+02   7.3799481671e+00     0.188782    0.1401554 -51.98 0.0003396056    1.469    0.319
        26 -11.6537     57.7867    196.9762   1.3545008100e+02   2.6644829217e+01    0.3555985    0.2463011 -61.84 0.0005431097    1.436    0.303
        27  -9.6341    192.5493    194.1977   1.0504519593e+02   3.4715983482e+00    0.5206155    0.2565346 -64.50  0.001344919    6.690    0.851
        28 -11.8522     64.3316    188.7506   1.3299303754e+02   2.7658617672e+01    0.2784284    0.2492256 -62.70 0.0004420747    1.260    0.206
        29 -12.7754     29.8356    230.1577   1.4411742034e+02   2.2902419051e+01     0.304922    0.2500207 -75.42 0.0007627578    1.375    0.273
        30 -13.9152     35.2420    223.3177   1.4258949396e+02   2.3687529721e+01    0.7442356    0.5660784  72.52  0.002426996    1.063    0.059
        31 -10.7900     75.0385    176.1628   1.2874495869e+02   2.9106526668e+01    0.2486206    0.2261535 -83.76 0.0003409876    1.075    0.069
        32 -13.1894     61.5982    173.9048   1.3162747531e+02   3.1544574090e+01    0.5462177    0.2803916 -46.75  0.001955039    2.304    0.566
        33  -9.5782     93.7526    171.0614   1.2337516427e+02   2.7392629057e+01    0.2514731    0.1844008  69.33 0.0004762312    1.460    0.315
        34 -11.7606     82.8986    167.0820   1.2538559279e+02   3.0100091614e+01    0.6549518    0.5804633 -44.32  0.003727169    1.282    0.220
        35  -9.7351    152.3236    229.3324   1.1966140995e+02   4.2683900886e+00    0.1340497    0.1049592   4.45 0.0007050449    1.705    0.413
        36  -9.9559     96.0817    151.5941   1.1920929060e+02   3.1709329254e+01    0.2814824    0.2768517  65.17 0.0007519327    1.107    0.097
        37 -11.9594     84.5465    150.5325   1.2202918828e+02   3.3863902880e+01    0.3130723    0.2483676 -46.99 0.0005516389    1.294    0.227
        38  -9.0678     99.1159    147.6215   1.1761951132e+02   3.2148266590e+01    0.1973615    0.1890196  42.45 0.0004980452    1.130    0.115
        39 -11.9133     68.4168    143.3984   1.2500197875e+02   3.8000512839e+01    0.5903331    0.4343243 -88.87  0.001807357    1.495    0.331
        40 -10.9094     64.6929    141.6709   1.2569386826e+02   3.8929920491e+01    0.3491838     0.232529 -44.78 0.0008527268    1.549    0.354
        41 -11.5466     11.0628    233.1070   1.4759937046e+02   2.4369421851e+01    0.3766117    0.1276069 -67.39  0.001823103    2.606    0.616
        42  -9.6224    108.5254    136.7700   1.1280019446e+02   3.3058253927e+01    0.3767106    0.2580468 -17.06   0.00153281    2.349    0.574
        43 -10.4454     95.4867    134.0181   1.1572532264e+02   3.6053147191e+01    0.2523875     0.237079 -21.48 0.0004392365    1.176    0.150
        44  -9.0134    106.0091    123.6328   1.1044324955e+02   3.6621176102e+01    0.1968132    0.1836533  41.07 0.0003895605    1.119    0.107
        45 -10.1040    167.6975    112.6836   9.2103617016e+01   2.5802565018e+01    0.3509596    0.2739487 -80.30 0.0009136848    1.563    0.360
        46  -8.8210    203.3036    111.3607   8.4498520359e+01   1.7783470973e+01    0.1522016    0.1218501   1.93 0.0007038121    1.726    0.421
        47 -10.9657    242.8354     95.3300   7.4331800079e+01   1.2011282399e+01    0.2098234    0.1630056 -55.75   0.00115992    1.153    0.133
        48  -9.4954    159.4276     77.5147   8.4534284766e+01   3.4574892952e+01    0.1488084    0.1432158  84.49 0.0001251949    1.018    0.018
        49  -8.5294     59.3040     76.6672   1.1245505024e+02   5.4314454273e+01    0.1356136    0.1179931 -28.15 0.0003378543    1.004    0.004
        50  -9.5644     55.9425     74.8915   1.1309674540e+02   5.5098632865e+01    0.2370226    0.2004599  65.72 0.0007402009    1.675    0.403
        51 -10.9481    198.5565    247.3071   1.1325337430e+02  -6.6970531035e+00    0.3374321    0.1720967 -28.72  0.001604975    2.543    0.607
        52 -11.4049    162.1336    248.9040   1.2060241269e+02  -8.8195199427e-01     0.336228    0.1955235  44.61  0.001779215    1.476    0.322
        53 -12.2829    102.6971    247.8753   1.3211844098e+02   9.2022784400e+00    0.6145658    0.2884333  54.15  0.002970057    1.940    0.484
        54 -10.7809     81.2537    249.1363   1.3631773744e+02   1.2259872044e+01    0.2469013      0.15128  58.10  0.001441624    1.360    0.265
