#   1 NUMBER                 Running object number                                     
#   2 MAG_AUTO               Kron-like elliptical aperture magnitude                    [mag]
#   3 X_IMAGE                Object position along x                                    [pixel]
#   4 Y_IMAGE                Object position along y                                    [pixel]
#   5 X_WORLD                Barycenter position along world x axis                     [deg]
#   6 Y_WORLD                Barycenter position along world y axis                     [deg]
#   7 A_WORLD                Profile RMS along major axis (world units)                 [deg]
#   8 B_WORLD                Profile RMS along minor axis (world units)                 [deg]
#   9 THETA_WORLD            Position angle (CCW/world-x)                               [deg]
#  10 FWHM_WORLD             FWHM assuming a gaussian core                              [deg]
#  11 ELONGATION             A_IMAGE/B_IMAGE                                           
#  12 ELLIPTICITY            1 - B_IMAGE/A_IMAGE                                       
         1 -16.4014    139.0029    110.9496   1.0157891849e+02   3.2674380986e+01     4.687306      3.18438 -70.25   0.01943002    2.045    0.511
         2 -13.0398     21.2064     72.4839   1.2903719147e+02   5.9746177817e+01     2.028012      1.16733 -48.13   0.01166986    1.445    0.308
         3 -15.2421    134.9041     74.8097   9.2328503539e+01   4.0769718207e+01     2.868562     1.841782  30.09   0.01206591    1.915    0.478
         4 -14.0206     68.4803     42.5018   1.0144367224e+02   6.0046830971e+01     1.766337     1.165396  15.20  0.009121723    1.761    0.432
         5 -13.6001     82.5216     49.1272   9.8962238229e+01   5.6488839433e+01     1.199423    0.8822513 -46.15  0.006444611    1.478    0.324
         6 -14.1429     11.4070      7.3775   1.1230168966e+02   7.2715303861e+01     1.216347    0.7815735   2.69  0.007422063    1.495    0.331
         7 -12.8821    182.6343     12.8258   6.4291158486e+01   3.7251232759e+01      0.86055    0.3255336  53.67  0.003405106    2.474    0.596
         8 -12.5814    159.9820      6.0849   6.5248020503e+01   4.3761474615e+01    0.7342741    0.4882399 -70.19  0.003721272    1.703    0.413
         9 -12.4574     55.4529      5.4810   9.0138954241e+01   6.7358016542e+01    0.5956715    0.3881152  18.04  0.003557427    1.450    0.310
        10 -12.4872    190.0110      3.9093   6.1001116248e+01   3.6234009893e+01    0.5279108    0.3159402  62.64  0.002717594    1.506    0.336
        11 -11.9778    150.1641    210.2854   1.1907255444e+02   1.0422868037e+01     0.690818    0.4459909  41.05  0.003712771    1.319    0.242
        12 -10.9765    189.1986    198.3333   1.0917303705e+02   5.2732993057e+00    0.2744579     0.269371 -47.38  0.001768106    1.243    0.196
        13  -9.9366    152.9845    199.4803   1.1677895698e+02   1.1820813510e+01    0.2197691    0.1203877  40.87  0.001031264    1.596    0.373
        14 -11.2297    144.0104    206.9479   1.1983799813e+02   1.2117394039e+01    0.5326605    0.2358973 -43.82  0.002297138    2.782    0.641
        15 -11.2656    122.3802    208.8420   1.2464297305e+02   1.5576572842e+01    0.5221712    0.2843377 -43.45  0.002499179    2.425    0.588
        16 -10.4268    204.3957    195.5920   1.0571646871e+02   2.9181843214e+00    0.2654867    0.1966541 -10.18  0.001431726    1.495    0.331
        17 -12.1246    247.8001    191.4034   9.7106286556e+01  -3.9628861672e+00    0.4492847    0.3145807 -37.16  0.002686471    1.594    0.372
        18 -11.0755    192.3480    191.7174   1.0734846724e+02   5.7581942958e+00     0.370523    0.3123794 -21.54  0.002190318    1.268    0.212
        19 -12.1516    140.0945    189.2082   1.1784922683e+02   1.6142046683e+01    0.5289136    0.3291029 -46.20  0.002605421    1.829    0.453
        20 -14.4789     96.3291    192.9947   1.2810946261e+02   2.3056118718e+01     1.505758    0.8627877 -73.48  0.007388987    2.015    0.504
        21 -12.1463    204.5697    185.9363   1.0387008958e+02   4.3974620011e+00    0.6018288    0.4350399 -27.94  0.003303003    1.463    0.316
        22 -10.4975     19.4900    190.0226   1.4432034616e+02   3.3688472073e+01    0.1731151   0.09331523 -82.75  0.001028052    1.584    0.369
        23 -11.7541     10.1842    187.1128   1.4600720159e+02   3.5172093748e+01    0.3933287    0.2937159  70.38  0.002581068    1.086    0.079
        24 -11.7594     41.5217    187.5125   1.3951316492e+02   3.1853105371e+01    0.2570488    0.1835379  84.91  0.001643976    1.194    0.163
        25 -10.8948     38.4898    186.4867   1.4007084286e+02   3.2419573713e+01    0.2215633    0.1899579 -73.83  0.001276979    1.292    0.226
        26 -10.3081    229.6962    185.9924   9.9212942359e+01  -1.6846295183e-01     0.190438    0.1582976  -9.37  0.001140331    1.129    0.114
        27 -10.9988    129.8687    184.4126   1.1931958573e+02   1.8991094927e+01    0.4808613    0.2289545  52.10   0.00198867    2.120    0.528
        28 -11.1257     30.2667    214.0696   1.4385672813e+02   2.7713361720e+01    0.2238137    0.1311981  52.99  0.001380555    1.388    0.279
        29 -11.0052    247.9005    178.7447   9.4649944989e+01  -2.2567239074e+00    0.3483665    0.2195424 -48.89  0.001794889    2.213    0.548
        30 -10.8460    131.4899    178.4134   1.1793798479e+02   1.9903278053e+01    0.3147414    0.2655862 -15.38  0.001703773    1.553    0.356
        31 -10.3122    147.5193    177.9537   1.1424598470e+02   1.6917492003e+01    0.2084369    0.1442086 -48.99  0.001005357    1.592    0.372
        32 -11.4134    102.7865    177.5166   1.2442072633e+02   2.5250710936e+01    0.2967714    0.2310597  -7.15  0.001496835    2.085    0.520
        33 -10.0597    165.1551    177.1220   1.1022721983e+02   1.3594929814e+01    0.2213757    0.1921043  13.83  0.001222794    1.240    0.193
        34 -11.7531     96.7442    173.6857   1.2525325423e+02   2.7094237050e+01    0.4474684    0.2270444 -53.77  0.002021645    2.075    0.518
        35 -10.4922    109.6287    209.1059   1.2735626635e+02   1.7674311596e+01    0.2353616    0.1533669  53.68 0.0009448581    1.337    0.252
        36 -11.2779    109.4303    173.5056   1.2222585663e+02   2.4963677309e+01    0.3002039    0.1949172  55.29  0.001067521    1.492    0.330
        37  -9.8485    181.8056    173.3338   1.0596612817e+02   1.0955619274e+01    0.1896396     0.188812  88.98  0.001129364    1.139    0.122
        38 -10.3683    170.8221    171.4829   1.0791594856e+02   1.3511183609e+01    0.2773598    0.1891729 -23.65  0.001173062    1.865    0.464
        39 -11.4554    144.1586    170.4916   1.1362003768e+02   1.9065019906e+01    0.3617981    0.1971679 -32.13  0.001412336    2.727    0.633
        40 -10.9539    215.2570    168.2988   9.8329025465e+01   5.1972981912e+00    0.4019066    0.3299856  81.22   0.00214555    1.838    0.456
        41 -11.6608    151.8636    167.5706   1.1131446811e+02   1.8110711605e+01    0.6043369    0.2983522  53.52  0.002375868    2.206    0.547
        42 -10.6186    124.4007    169.1814   1.1795604426e+02   2.3158580675e+01    0.1990906    0.1367628 -69.59 0.0006284501    1.706    0.414
        43 -11.3702     50.4536    168.6900   1.3557419432e+02   3.4898409806e+01    0.2367401    0.1902678 -61.87 0.0008255318    1.330    0.248
        44  -9.7889     18.4997    168.4796   1.4289292965e+02   3.8367395668e+01    0.1178679   0.09326399  85.50 0.0008102469    1.021    0.021
        45 -10.7261    163.0243    164.6571   1.0824599980e+02   1.6406138341e+01    0.3292735     0.215752  77.58  0.001298995    2.701    0.630
        46 -11.1235    218.1681    205.2507   1.0488813490e+02  -9.2963085140e-01    0.3697946    0.2725942  31.94  0.001828792    1.181    0.153
        47 -10.6856    204.4763    161.0142   9.8866975506e+01   8.5356035715e+00    0.2150636    0.1383803 -36.70  0.001033606    1.596    0.373
        48 -11.2028     59.7592    159.5559   1.3219268118e+02   3.5785068668e+01    0.3635726    0.2325833 -88.52   0.00185331    1.609    0.379
        49 -10.6459    180.6361    160.1004   1.0350300520e+02   1.3611628766e+01    0.3020406    0.2112322  37.69  0.001465794    1.370    0.270
        50 -10.3361    220.5902    159.2317   9.5449946223e+01   5.6288823864e+00    0.1999253    0.1265934 -22.27 0.0009532011    1.716    0.417
        51 -11.2439    245.5916    153.2959   8.9858114814e+01   1.8301102089e+00    0.3844875    0.1553245 -45.97  0.001468106    3.139    0.681
        52 -12.0360     20.0751    154.6720   1.4131327669e+02   4.1269978064e+01    0.5279551    0.4054962  77.27  0.003574637    1.123    0.109
        53 -10.6102    175.1767    202.8683   1.1276808714e+02   7.1222073211e+00    0.2680476    0.1436791  46.88  0.001263597    1.711    0.416
        54 -12.7314    127.1099    151.8141   1.1400666546e+02   2.6369223327e+01    0.8287699    0.5092496 -21.71  0.003030601    3.207    0.688
        55 -12.3631    118.3680    153.5590   1.1650588880e+02   2.7680628692e+01    0.4344411    0.2798882 -54.78  0.001984536    1.611    0.379
        56 -13.4402    105.0400    148.5886   1.1890715286e+02   3.1258008122e+01    0.8639988    0.4848676  34.85  0.003755154    1.922    0.480
        57 -14.0024    105.4292    142.0416   1.1752863987e+02   3.2672581611e+01     1.101319    0.7060103  47.58  0.005176337    1.526    0.345
        58 -11.4683    118.7253    142.9018   1.1427589985e+02   2.9974407252e+01    0.3154387    0.2244704 -83.07  0.001205898    1.829    0.453
        59 -10.4719     81.6564    146.1214   1.2453415044e+02   3.5750604825e+01     0.240268    0.1794886  55.33 0.0006779563    1.322    0.244
        60 -10.6589    177.2492    139.2835   9.9634079183e+01   1.8289033265e+01    0.2934209    0.2584088 -48.68  0.001536371    1.198    0.165
        61 -10.6239     73.9830    244.3362   1.3801251070e+02   1.6629786059e+01    0.2583854    0.1465059  66.83   0.00156216    1.620    0.383
        62 -13.2943     48.7930     83.7206   1.2167176283e+02   5.4644168174e+01    0.9858588    0.6769987 -76.58  0.005213423    1.753    0.430
        63 -11.3759    122.0521    237.8331   1.2836018958e+02   1.0525264698e+01    0.3547019     0.273117 -43.00  0.002284626    1.757    0.431
        64 -10.1604    230.5773    115.7709   8.4006839060e+01   1.0703258019e+01    0.2073558    0.1235306 -44.43 0.0009516313    1.668    0.400
        65 -11.3699    204.7549    228.8844   1.1134965321e+02  -1.9222984433e+00    0.5342453    0.2816823  44.21  0.002833682    1.728    0.421
        66 -12.1509    242.1909    108.4207   8.0502598110e+01   9.4373812135e+00    0.4280483     0.311876 -37.50  0.001922977    1.262    0.208
        67 -12.7413    180.1489    117.0330   9.3660195854e+01   2.1894499493e+01     0.639244    0.5474293 -57.99  0.003087416    1.257    0.205
        68 -11.5481    101.8392    107.0305   1.1062251368e+02   4.1274728733e+01    0.4020705    0.2356515  56.38  0.001673204    2.049    0.512
        69 -10.9801    213.3130     98.4724   8.2707584951e+01   1.7412207671e+01    0.4044355    0.2752206 -58.60  0.001865725    1.709    0.415
        70 -11.3710    210.1583     93.9942   8.2120635893e+01   1.8900329901e+01    0.4652598    0.3404668 -68.29  0.002205667    1.662    0.398
        71 -11.2845    196.4278     93.0524   8.4295119754e+01   2.2351324823e+01     0.472273    0.3036257 -33.25  0.002115509    1.587    0.370
        72 -11.6218    151.8536     91.8093   9.3225636904e+01   3.3514244988e+01    0.4782232    0.3098963 -61.82  0.001948471    2.011    0.503
        73 -13.1370    104.1491     86.0467   1.0421562958e+02   4.5340345290e+01    0.7223715    0.6560053  24.15  0.003232825    1.133    0.118
        74 -12.5648    104.8393     75.9211   1.0094563179e+02   4.7238419948e+01     0.702425    0.5118243  37.92  0.002808986    1.388    0.279
        75 -13.4879    100.8751     70.1098   1.0029496855e+02   4.9165008790e+01      1.38412    0.9252787  24.61  0.006308134    1.797    0.444
        76  -9.5128    209.3163     87.3242   8.0570992613e+01   2.0206385044e+01    0.1496518    0.1157684  17.95 0.0007043383    1.668    0.400
        77 -10.0384    186.0014     81.0077   8.3008927952e+01   2.6987882249e+01    0.2886798    0.2035321 -36.26  0.001340201    1.436    0.304
        78 -12.6763     22.0324     94.6314   1.3306931340e+02   5.4784601616e+01    0.9886159    0.4883427 -54.93  0.005226112    1.657    0.396
        79 -10.6245    233.4688     78.8636   7.4813740925e+01   1.5913749852e+01     0.274048    0.2234868  25.34  0.001483285    1.519    0.342
        80 -10.8460    246.8488     78.0047   7.2845086883e+01   1.3092042517e+01    0.2347338    0.2015092  72.48  0.001394207    1.249    0.200
        81  -9.7208    210.3109     78.3260   7.8106162910e+01   2.1423256348e+01    0.1474648     0.114926  19.84 0.0005940439    1.660    0.397
        82 -10.9986    175.5995     70.7621   8.2116225162e+01   3.1331138250e+01    0.2852272    0.1312518 -45.36  0.001023071    2.295    0.564
        83 -12.3230    176.7549     64.9008   8.0216908146e+01   3.1981437726e+01     0.602028    0.5032278  60.51  0.002852665    1.153    0.133
        84 -10.0063    166.2277     72.2181   8.4398709457e+01   3.3475329520e+01     0.218315    0.1811757 -76.36  0.001066145    1.359    0.264
        85 -10.7900    116.9175     69.4904   9.5415962258e+01   4.5881490307e+01     0.390226    0.1454228  49.30  0.001342655    2.655    0.623
        86 -12.0601    131.6433    138.1252   1.0998927597e+02   2.8434495550e+01    0.4557828    0.3007957 -84.08  0.001796624    2.468    0.595
        87 -13.0832    249.8261     56.4766   6.7558423596e+01   1.5514414874e+01     1.332457    0.3490186 -32.68  0.004573519    3.518    0.716
        88 -11.8772    249.5102     44.9946   6.4992091390e+01   1.7124422142e+01    0.4539929    0.2922176 -34.82  0.002466654    1.478    0.324
        89 -13.9768     74.4283     57.8080   1.0486030004e+02   5.6358820890e+01      1.08775    0.9902602 -71.60  0.006502355    1.377    0.274
        90 -13.0072     52.0416     46.7761   1.0939013009e+02   6.1751115222e+01       1.1628     0.618665 -24.92  0.005355855    2.307    0.567
        91 -12.9131     13.5039    228.4199   1.4770956570e+02   2.6772013931e+01    0.6857385    0.3678917  54.28  0.004694873    1.418    0.295
        92 -10.1439    231.4868     63.4850   7.1368112970e+01   1.8650899868e+01     0.138584    0.1271561 -61.99 0.0001680478    1.008    0.008
        93 -10.9195    240.4265     60.1284   6.9467863873e+01   1.7088589410e+01    0.3495542    0.1459094  45.37  0.001317654    3.271    0.694
        94  -9.6856    224.3557     59.6686   7.1356323432e+01   2.0875045873e+01    0.1542734   0.09846161 -66.44 0.0007044421    1.788    0.441
        95 -13.5939    184.0540    110.1773   9.1118206174e+01   2.2259057764e+01     1.586519     1.136179  61.07   0.00732807    1.486    0.327
        96 -10.0952    216.2937     72.9867   7.5823805041e+01   2.0817671418e+01    0.2113558    0.1868598 -43.04     0.001169    1.100    0.091
        97 -10.6215    249.9512    150.5373   8.8571364357e+01   1.4520383706e+00    0.2082356    0.1644296 -24.91 0.0008521348    1.154    0.134
        98 -10.1823    214.0827     56.9249   7.2044364192e+01   2.3750315353e+01    0.2602262    0.2034277 -26.36  0.001368012    1.389    0.280
        99 -10.7377    234.3200     54.1370   6.8769864814e+01   1.9319410182e+01    0.3700725   0.06414146 -40.18  0.001094298    4.220    0.763
       100 -10.5507    218.0945    117.7984   8.6580890729e+01   1.3068521152e+01    0.3466042    0.2182634  20.30  0.001431207    2.386    0.581
       101 -10.2487    205.7377     50.6755   7.1578891906e+01   2.6707272748e+01    0.2576372    0.1829017 -19.41   0.00125684    1.681    0.405
       102 -11.3420      5.1818     48.9972   1.2998748622e+02   6.5680192679e+01    0.4939952    0.2161174 -30.65  0.002553715    2.409    0.585
       103 -10.6223    104.8605    117.0121   1.1221477392e+02   3.8467384813e+01    0.3381592    0.2003888 -43.28  0.001464327    1.755    0.430
       104 -10.0666    193.7871    128.3724   9.3642313741e+01   1.6636293144e+01    0.2111888    0.1363096  40.22 0.0007678703    1.577    0.366
       105 -10.4476    103.3928    128.2294   1.1518205940e+02   3.6194802362e+01     0.204155    0.1388225 -65.38 0.0006737874    1.590    0.371
       106 -11.9662    124.8489     41.9476   8.3984459050e+01   4.8545800770e+01    0.5799635    0.4401275  65.42  0.002951853    1.387    0.279
       107  -9.5816     68.3911    122.7666   1.2392719607e+02   4.3177566942e+01    0.1957925    0.1167901 -51.14  0.000719221    1.610    0.379
       108 -11.8556     55.4353    226.4104   1.4000604794e+02   2.2334743920e+01    0.3984686    0.2370987  53.60  0.002123646    1.326    0.246
       109 -13.5884     44.0258    106.3187   1.2812692860e+02   5.0060036982e+01     2.097022     1.473823 -21.41   0.01137993    1.883    0.469
       110 -10.2218    245.3114     34.3341   6.2993639281e+01   1.9423273364e+01    0.1224157    0.1005057  29.95  0.000413238    1.680    0.405
       111 -10.2949     99.0931     33.3256   8.7681834865e+01   5.5610479571e+01    0.2424193    0.1895885  -4.00   0.00132472    1.348    0.258
       112 -10.7978    113.0644     42.6726   8.7276765689e+01   5.1195338305e+01    0.3595893    0.2679229  24.19   0.00134488    1.444    0.308
       113  -9.7190    144.3395     31.3447   7.6032181144e+01   4.5114069146e+01    0.1568638    0.1020421  31.82 0.0005629339    1.779    0.438
       114 -10.3350    247.9802     25.8898   6.0864999361e+01   1.9860586791e+01    0.3046105    0.1252712  49.86  0.001248482    3.277    0.695
       115 -11.6506     79.1273    221.9616   1.3504008874e+02   1.9943912500e+01    0.2570912    0.2275691  32.57  0.001683323    1.448    0.309
       116 -13.0801    243.2520    213.8750   1.0197795502e+02  -6.1321339538e+00    0.9122736    0.3546887  33.31   0.00423444    2.397    0.583
       117 -11.0249    109.6828    215.8563   1.2819718166e+02   1.6391030523e+01    0.3850006    0.2422298  63.50  0.002080869    1.615    0.381
       118 -16.0536     72.4825    193.4495   1.3341244717e+02   2.6585253878e+01     2.806507     1.854824  63.26    0.0152891    1.377    0.274
