#   1 NUMBER                 Running object number                                     
#   2 MAG_AUTO               Kron-like elliptical aperture magnitude                    [mag]
#   3 X_IMAGE                Object position along x                                    [pixel]
#   4 Y_IMAGE                Object position along y                                    [pixel]
#   5 X_WORLD                Barycenter position along world x axis                     [deg]
#   6 Y_WORLD                Barycenter position along world y axis                     [deg]
#   7 A_WORLD                Profile RMS along major axis (world units)                 [deg]
#   8 B_WORLD                Profile RMS along minor axis (world units)                 [deg]
#   9 THETA_WORLD            Position angle (CCW/world-x)                               [deg]
#  10 FWHM_WORLD             FWHM assuming a gaussian core                              [deg]
#  11 ELONGATION             A_IMAGE/B_IMAGE                                           
#  12 ELLIPTICITY            1 - B_IMAGE/A_IMAGE                                       
         1 -14.4833     68.5340    144.5042   9.8706121672e+01   3.7622375866e+01     4.953611     2.599216  70.78  0.004283123    3.676    0.728
         2 -14.3331    218.9927     28.3690   3.6503976821e+01   2.7822206372e+01     1.177239    0.9044607  43.18  0.007181736    1.805    0.446
         3 -14.5701    205.7748     40.6595   4.0666513169e+01   2.9177363448e+01     1.975228     1.492567  34.25  0.008037695    1.916    0.478
         4 -12.6782    247.6777      5.4135   2.9652209494e+01   2.4551506299e+01    0.4636228    0.4267954  -7.13  0.003488264    1.738    0.425
         5 -12.6521    241.6916      4.0096   2.9764766032e+01   2.5886465702e+01    0.4624414     0.362511 -68.81  0.003392531    1.077    0.072
         6 -10.6915     50.9587      3.7952   6.1223893564e+01   6.7749431820e+01    0.3005532    0.2068329  63.13  0.001162578    2.163    0.538
         7 -10.0226     46.3263      1.6920   6.2037528332e+01   6.8729970302e+01    0.1748488    0.1347877  48.07 0.0008090197    1.471    0.320
         8 -10.8482    111.5776    204.4044   9.7174150893e+01   1.6507459511e+01    0.3347849    0.2345891 -89.45 0.0007408634    1.847    0.459
         9 -12.8405     83.6583    217.0827   1.0534484239e+02   1.8080525907e+01     0.892383    0.5562676  78.27   0.00439387    1.949    0.487
        10 -16.1218     37.4286    190.2144   1.1321810903e+02   3.0257065545e+01     6.200387     2.613553  63.49   0.01815139    2.959    0.662
        11 -15.1330      5.4701    140.4237   1.1648584047e+02   4.5227943182e+01     5.001687    0.8906893 -74.50   0.01151776    4.923    0.797
        12 -11.6879    193.7920    196.2368   7.7465208879e+01   4.0319357819e+00     1.123963    0.6003673 -63.76  0.003693144    4.899    0.796
        13 -11.0860    204.4495    200.2125   7.6085218276e+01   1.5780368290e+00    0.3308635    0.1742118  19.76  0.001399583    2.559    0.609
        14  -9.2333    121.1473    196.1117   9.3612799992e+01   1.6720935002e+01    0.1928157    0.1621061  77.01 0.0004606956    1.318    0.241
        15 -11.0970     81.0375    182.0308   1.0136126875e+02   2.6498842213e+01    0.3567546    0.3189974  73.81 0.0009474402    1.047    0.045
        16  -9.8937     99.4926    180.7001   9.6440760179e+01   2.3901854244e+01    0.2428661     0.220404  35.91 0.0005832265    1.133    0.118
        17 -10.2390    188.0898    176.6089   7.4847095470e+01   8.7101684219e+00    0.3682285    0.2980616  68.79  0.001918339    1.664    0.399
        18  -8.9586     87.4429    177.4451   9.9015369512e+01   2.6619674294e+01    0.1442236    0.1331541  74.63 9.595235e-05    1.017    0.016
        19 -12.2561     63.0893    174.1731   1.0489056386e+02   3.0974175775e+01    0.4765221     0.313462 -33.98  0.002238117    2.108    0.526
        20 -12.0802     67.9859    169.3308   1.0290219872e+02   3.1494909236e+01    0.3755468    0.2725305 -47.26  0.000915942    1.498    0.333
        21  -9.4106    147.8370    173.9085   8.3241600235e+01   1.6790329075e+01    0.1991568    0.1763408  85.54 0.0004184052    1.312    0.238
        22 -12.5145     85.0201    153.6579   9.5635200226e+01   3.2842576016e+01     1.166629    0.7328845 -50.95  0.004385419    1.579    0.367
        23 -12.7275     77.7573    160.0303   9.8775585479e+01   3.2383731996e+01    0.9102517    0.5105503  46.11 0.0006440214    1.804    0.446
        24 -13.5572     64.9123    155.8325   1.0166672127e+02   3.5284070428e+01    0.5297956    0.4149319 -47.02  0.001236749    1.344    0.256
        25 -13.8203     15.7359    215.8910   1.2009869251e+02   2.6720833854e+01    0.8214831    0.4053535  32.75  0.002969059    2.067    0.516
        26  -9.4251     46.9158    167.2977   1.0825070686e+02   3.4718497814e+01    0.1860405     0.165362  56.41 0.0006160398    1.139    0.122
        27  -8.4676    130.9651    157.3213   8.4024899410e+01   2.3757470039e+01    0.2632264     0.109678  56.42 0.0007045669    4.430    0.774
        28 -11.0856    133.6273    144.1263   8.0507508399e+01   2.6281661895e+01     1.118778    0.2858863 -54.50  0.002604994    5.677    0.824
        29  -8.8262    112.0008    150.2169   8.7514683436e+01   2.9027467189e+01    0.1989029     0.123795  38.93 0.0005087176    1.610    0.379
        30 -10.4800    174.6207    149.1691   7.1945096411e+01   1.6824513841e+01    0.2726094    0.2155134  44.80 0.0006783303    1.297    0.229
        31 -11.6378     23.3461    147.2908   1.1222515511e+02   4.2136648030e+01    0.4454378    0.2452068  64.90  0.002121703    2.104    0.525
        32  -9.2838     34.6942    145.6432   1.0877917727e+02   4.1463320190e+01    0.2219579    0.1431174 -54.61 0.0009685558    1.459    0.315
        33 -10.2536     31.8655    143.1512   1.0925972248e+02   4.2368367247e+01    0.2770941    0.2414769 -86.96  0.001245569    1.055    0.052
        34  -8.8524    200.1972    142.9475   6.5352066262e+01   1.2963821982e+01    0.1888704    0.1072226 -42.43            0    1.654    0.396
        35 -10.7182     99.9793    139.3068   8.8550071591e+01   3.3855671927e+01    0.5704787    0.3692112 -18.71  0.002199274    2.588    0.614
        36 -12.4656     86.9174    138.9087   9.2236621022e+01   3.6195635544e+01    0.3048172    0.2700107 -45.15 0.0004332831    1.145    0.126
        37 -10.4139    105.9856    130.9986   8.4999694583e+01   3.4764703954e+01    0.3716979    0.3137684 -52.94   0.00132641    1.166    0.143
        38 -10.4732    109.3627    130.2935   8.3880017005e+01   3.4295255643e+01    0.3528061    0.2666394   8.72  0.001524591    1.763    0.433
        39 -17.0743     19.4407    243.1808   1.2099888528e+02   2.0681526003e+01     8.016428     2.340524  27.38   0.01388302    4.838    0.793
        40 -10.6724    135.0317    128.3466   7.6489906038e+01   2.9593889936e+01    0.4269966    0.3105676 -47.96  0.001971283    1.368    0.269
        41  -9.3478    185.3718    168.8083   7.3833214504e+01   1.0738970234e+01    0.2064185    0.1298365 -33.64 0.0007522355    1.639    0.390
        42 -10.8088    230.4851    166.9750   6.4869285000e+01   3.1047460352e+00    0.3164595    0.1142288 -45.32  0.001218686    2.756    0.637
        43 -10.6007     97.1310    125.6635   8.6339517805e+01   3.7669035746e+01    0.3013848    0.2499119   2.72 0.0008461006    1.462    0.316
        44  -9.4992    116.3201    124.3164   8.0515432387e+01   3.4344439095e+01    0.2374634    0.1827817 -10.74    0.0007101    1.737    0.424
        45  -9.4005    135.0000    119.9179   7.4430850969e+01   3.1483779219e+01    0.2581681   0.08821112 -46.24 0.0007666849    2.912    0.657
        46  -9.9351    106.8049    118.8507   8.1878141134e+01   3.7478898492e+01    0.2154085    0.2000061 -15.53 0.0003430918    1.152    0.132
        47  -9.7970    161.4043    128.2085   7.0071133952e+01   2.3998269222e+01    0.2245225      0.14303 -54.13 0.0009546728    1.669    0.401
        48 -10.2179     23.0672    119.5078   1.0854570218e+02   4.9025073736e+01    0.1823316    0.1318704  22.29  0.001036236    1.601    0.375
        49 -13.0302    248.4696    106.9922   4.9846341606e+01   1.0216665516e+01     1.297362    0.3029974 -36.48   0.00401059    4.395    0.772
        50 -12.9585    246.0597     92.6432   4.7193464572e+01   1.2982002988e+01    0.6004825    0.4832415 -11.41  0.003562518    1.672    0.402
        51 -10.2471    205.1057    110.2759   5.7092901596e+01   1.8138389336e+01    0.3372222    0.2404127  39.22  0.001285713    1.634    0.388
        52 -10.3697     28.3191    107.7091   1.0482597195e+02   5.1443158809e+01    0.4150719    0.1308587  18.77  0.001464724    4.127    0.758
        53  -9.4719    134.4303    105.2257   7.0789410003e+01   3.4788902842e+01    0.2258578     0.145798 -55.58 0.0009560902    1.695    0.410
        54  -9.7519     30.8674     95.3354   1.0150834318e+02   5.4152384993e+01    0.2548907    0.1046692  32.81  0.001100386    2.608    0.616
        55 -10.6931     53.0904     91.2935   9.2425012692e+01   5.2634054875e+01    0.2769168    0.1977281 -59.64 0.0007593597    1.393    0.282
        56  -9.8072     18.0358     90.0428   1.0519187550e+02   5.6449120132e+01    0.1862994    0.1451711  68.91 0.0003665352    1.608    0.378
        57  -9.7625    160.2018     82.8235   5.8731610926e+01   3.3286875314e+01    0.2004875    0.1793167  12.01 0.0005059664    1.336    0.251
        58  -8.9245    151.7191     83.3872   6.0704370417e+01   3.5173741272e+01    0.1578732    0.1142246 -72.14 0.0007003775    1.736    0.424
        59  -9.4028     72.0941     83.1316   8.3378950910e+01   5.1684391311e+01    0.2064827    0.1717942  75.37 0.0005754955    1.607    0.378
        60  -9.1424     89.9401     65.0513   7.1690068420e+01   5.2084967827e+01    0.2077217    0.1749227 -87.58 0.0005529462    1.632    0.387
        61  -9.3054     48.0556     62.3384   8.6109716605e+01   5.9434973211e+01    0.1749957    0.1554784  10.42 0.0003993522    1.132    0.116
        62 -10.8385     13.4531     59.9698   1.0025640535e+02   6.3368578377e+01    0.2478525     0.191377 -53.18 0.0004314529    1.189    0.159
        63 -15.2207      9.4377    207.1663   1.2085696503e+02   2.9232697248e+01     1.167965     1.036967 -63.44  0.004206238    1.397    0.284
        64 -12.2091    196.6881     46.6344   4.3209090195e+01   3.0439515078e+01    0.5431992    0.4591652  57.60  0.001175196    1.294    0.227
        65 -11.7214    163.9660    216.5748   8.7282654398e+01   5.2834620507e+00    0.3896517    0.2549591  -4.44  0.001809316    2.231    0.552
        66 -10.7194    136.1660     42.3657   5.2041558267e+01   4.5464724267e+01    0.2649501    0.2176307 -83.50 0.0004044234    1.351    0.260
        67 -10.6471    197.9908     23.9668   3.7641562993e+01   3.3039478285e+01    0.2668827    0.1895179 -23.57  0.001022057    1.794    0.442
        68  -9.7590    189.6590     14.9765   3.6395369623e+01   3.5968391236e+01    0.1744289    0.1480676 -65.26 0.0006233191    1.133    0.117
        69 -11.4024    156.3456    218.0275   8.9157777198e+01   6.2719314947e+00    0.3840362    0.1884106  34.10  0.001647975    1.892    0.471
        70 -12.2541    184.9078    213.4426   8.2365411025e+01   2.4222303299e+00    0.4526492    0.3555521 -19.10  0.002628921    1.296    0.228
        71  -9.5989     89.5047    211.5126   1.0332194845e+02   1.8426829352e+01    0.2309094    0.1325074 -64.53  0.001115597    1.846    0.458
