#   1 NUMBER                 Running object number                                     
#   2 MAG_AUTO               Kron-like elliptical aperture magnitude                    [mag]
#   3 X_IMAGE                Object position along x                                    [pixel]
#   4 Y_IMAGE                Object position along y                                    [pixel]
#   5 X_WORLD                Barycenter position along world x axis                     [deg]
#   6 Y_WORLD                Barycenter position along world y axis                     [deg]
#   7 A_WORLD                Profile RMS along major axis (world units)                 [deg]
#   8 B_WORLD                Profile RMS along minor axis (world units)                 [deg]
#   9 THETA_WORLD            Position angle (CCW/world-x)                               [deg]
#  10 FWHM_WORLD             FWHM assuming a gaussian core                              [deg]
#  11 ELONGATION             A_IMAGE/B_IMAGE                                           
#  12 ELLIPTICITY            1 - B_IMAGE/A_IMAGE                                       
         1 -14.2558    210.7909      5.3988   5.3333115137e+01   3.2606352315e+01     1.496342     1.160909  84.84  0.006758267    1.109    0.098
         2 -14.9099    188.3747     33.0690   6.1566432947e+01   3.4354469464e+01     2.082042     1.507802  -4.27   0.01127688    2.381    0.580
         3 -10.3426     93.4837      6.5233   7.0490087925e+01   5.7851489056e+01    0.1184555   0.09621079  43.87 0.0001855098    1.010    0.010
         4 -10.0823     71.7948    229.7188   1.3006948141e+02   1.6282726689e+01    0.1692657    0.1240644  64.67            0    1.254    0.202
         5 -17.0501     64.0631    248.6798   1.3368155961e+02   1.3269866529e+01     10.30092     3.590544  26.87    0.0292082    7.043    0.858
         6 -11.7839     39.9743    207.8076   1.3456512382e+02   2.5583340726e+01    0.2778401    0.1689442  47.52 0.0006121494    1.600    0.375
         7 -10.5941     10.3517    214.1212   1.4137312098e+02   2.7340324127e+01    0.1721256    0.1421151  19.05 0.0007524688    1.735    0.424
         8 -12.1440     72.9993    212.3660   1.2768671168e+02   2.0102428824e+01    0.2662742    0.2164571  71.95 0.0004086479    1.139    0.122
         9  -9.9954     76.6947    207.1234   1.2614014347e+02   2.0804585301e+01    0.3999092    0.2095525 -59.65  0.001331718    1.832    0.454
        10 -12.7425     56.2494    212.0477   1.3142720503e+02   2.2517347307e+01    0.4245511    0.2753122  54.40  0.002262374    1.470    0.320
        11 -12.3018     62.1732    202.9709   1.2897117926e+02   2.3886806071e+01     0.428327    0.2579839 -48.31  0.001584364    1.891    0.471
        12 -19.1461     18.4214    104.3569   1.2553010327e+02   5.2816834032e+01     17.24677    0.9650289 -62.44   0.03111761   13.131    0.924
        13 -11.9076    135.4038    208.0782   1.1254197958e+02   1.0814530073e+01    0.4775666    0.2292807 -67.74  0.001608489    3.419    0.708
        14 -10.3769     90.9619    219.5155   1.2455751049e+02   1.5712252631e+01    0.4628395    0.1802109  46.07    0.0018041    2.442    0.590
        15 -12.1730    193.0793    193.5740   9.7009416456e+01   3.4754655842e+00     1.276051    0.5323465 -56.40  0.004155529    3.667    0.727
        16 -11.7820     64.3733    207.6620   1.2905883091e+02   2.2452866035e+01    0.5109028    0.3723675 -46.68  0.002308019    1.616    0.381
        17 -17.4051     31.3633    242.1358   1.3947490493e+02   1.8861812334e+01     9.753186     3.484945 -58.65    0.0440132    2.958    0.662
        18 -11.5588    156.0338    199.9202   1.0632912294e+02   8.8828469797e+00    0.4852394    0.3495181 -77.76  0.002024822    1.935    0.483
        19 -11.0886    152.5996    194.2565   1.0604137715e+02   1.0776734217e+01    0.3861148    0.2400322  60.13  0.001181031    2.125    0.529
        20 -10.9130     95.3341    200.0737   1.2069225825e+02   1.9592269622e+01    0.4194873    0.2524255 -64.60 0.0005462843    1.668    0.401
        21  -9.5276     80.9509    220.5028   1.2694017934e+02   1.7025139688e+01     0.199528    0.1296703  38.85 0.0005014973    1.528    0.345
        22  -9.2092     75.2210    200.6442   1.2558996312e+02   2.2587047712e+01    0.1423907   0.09893391  84.02 0.0006851914    1.559    0.358
        23 -11.1372     44.1741    210.3997   1.3391762476e+02   2.4458440765e+01    0.2845679    0.1641642  56.85  0.001453396    1.690    0.408
        24 -11.7030    141.2076    197.7697   1.0934836537e+02   1.2093577874e+01    0.3697161    0.2432775 -65.18 0.0009385155    1.772    0.436
        25 -11.8193    135.3004    198.8948   1.1094016317e+02   1.2917349460e+01    0.2723483    0.2544335 -40.88  0.001494462    1.111    0.100
        26 -11.1461    121.1631    197.9465   1.1412926735e+02   1.5685555875e+01    0.3141025    0.2028963 -64.89  0.001030848    1.677    0.404
        27 -11.1028    208.9131    197.8192   9.4630725678e+01  -1.1005476071e-01     0.241998    0.2009671 -49.20 0.0005542196    1.279    0.218
        28 -11.2905    101.3591    197.4428   1.1881812399e+02   1.9231686084e+01    0.4113662    0.3072209  -3.66  0.001894524    2.061    0.515
        29 -10.0195     82.2369    195.0516   1.2308661677e+02   2.2893970768e+01    0.2988385     0.241789  31.61  0.001595927    1.379    0.275
        30 -12.8750     71.4490    189.6054   1.2491156098e+02   2.5856072258e+01    0.7639533    0.6496357 -56.07  0.003557635    1.212    0.175
        31 -10.4851     29.5510    193.0143   1.3532475590e+02   3.0321165436e+01    0.2007913    0.1399953  43.81 0.0007541221    1.511    0.338
        32  -9.9208     97.8631    190.5566   1.1853620425e+02   2.1492229678e+01    0.2800232    0.1960215  62.66  0.001041786    1.569    0.363
        33 -12.0930    110.0386    189.0046   1.1526158320e+02   1.9791969991e+01    0.6167493    0.3962345 -14.14   0.00225562    3.162    0.684
        34 -11.0164    117.2286    188.0605   1.1332146886e+02   1.8747573698e+01    0.2571718    0.1764752  88.73  0.001089948    2.005    0.501
        35 -10.6714    151.9784    184.2125   1.0422356882e+02   1.3172014619e+01    0.2745879    0.2133759 -80.83 0.0006118802    1.628    0.386
        36 -10.2948     73.3382    180.7613   1.2308901565e+02   2.7791448648e+01     0.378269    0.2232567  43.15  0.001427007    1.729    0.422
        37 -11.6912    109.4145    183.7898   1.1448286062e+02   2.1175617924e+01     0.487009    0.2103132 -49.80  0.001800824    2.291    0.564
        38 -10.6441     99.4795    180.7378   1.1643662322e+02   2.3647151283e+01    0.2661208    0.2569029  73.68 0.0005199998    1.055    0.052
        39 -11.8988    145.1878    178.7754   1.0473527809e+02   1.5736037435e+01    0.4573533    0.3423752  17.84  0.002096705    1.651    0.394
        40  -9.9684    168.2766    176.6377   9.8938748444e+01   1.1735459252e+01    0.2586069    0.2022508 -60.63 0.0005050303    1.375    0.273
        41  -9.9003    166.2999    173.6337   9.8757564437e+01   1.2794916984e+01    0.2957848    0.2120648 -67.83 0.0008428096    1.711    0.416
        42  -9.4043     51.5479    174.5027   1.2768968454e+02   3.2341805546e+01    0.1408189    0.1226849 -74.12 0.0001397966    1.036    0.035
        43 -10.1775    202.9146    170.6747   9.0339465455e+01   6.3851562098e+00    0.2014751    0.1952945  22.36 0.0009794631    1.106    0.096
        44 -11.8511    194.8295    168.2056   9.1451324333e+01   8.4250774972e+00    0.4101939    0.3688745 -75.83  0.001082199    1.265    0.209
        45 -10.7301    190.1842    160.6939   9.0801796677e+01   1.0923181145e+01    0.3490146    0.2835934 -64.80 0.0009364092    1.355    0.262
        46 -11.3024    189.3298    155.1952   8.9782300522e+01   1.2270862516e+01    0.4498905    0.4084163 -43.66  0.001424578    1.034    0.033
        47 -10.3733    161.5959    166.8874   9.8400637087e+01   1.5256237028e+01    0.4260828    0.2774231 -83.50  0.001553837    2.823    0.646
        48  -9.4466    111.0254    168.3165   1.1113739850e+02   2.4710838833e+01    0.2150498    0.1966596  56.11 0.0004853813    1.111    0.100
        49 -10.6671    229.5941    165.7565   8.4316642838e+01   2.5773881751e+00    0.2042507    0.1187243 -50.50 0.0009510612    1.678    0.404
        50 -10.0837    203.8364    164.6774   8.8897173245e+01   7.4495820730e+00    0.3313603    0.1628117 -61.11  0.001092532    3.453    0.710
        51 -10.3644      1.5462    161.0285   1.3853351466e+02   4.0620488684e+01    0.1759311    0.1181441 -73.48  0.001056113    1.165    0.142
        52 -12.2478     97.5642    154.7856   1.1197401473e+02   3.0475243084e+01    0.7090253    0.4585332 -32.36  0.002249849    1.954    0.488
        53 -11.5755    133.7726    144.9578   1.0025374269e+02   2.6028499634e+01     1.414472    0.3302894 -54.35  0.002961422    6.599    0.848
        54  -8.9164     67.1856    225.5488   1.3058288112e+02   1.7880944369e+01    0.2175728    0.1297207  15.93 0.0009268235    2.992    0.666
        55  -9.2443    113.3888    151.2009   1.0695942943e+02   2.8508784049e+01     0.234473    0.1456411 -64.44 0.0009534902    1.797    0.444
        56 -10.5858    174.6007    148.8383   9.1498434817e+01   1.6662610898e+01    0.3627027    0.2621774 -64.39     0.001317    1.574    0.365
        57 -11.0088    143.9988    146.3484   9.8023387107e+01   2.3605916781e+01    0.3927651    0.2286526 -67.07  0.001426226    2.436    0.589
        58 -11.4572    108.4911    139.8557   1.0575230204e+02   3.2198086647e+01    0.6113499    0.3395226 -33.58  0.002284012    2.349    0.574
        59 -12.4715     96.9932    139.7469   1.0891509848e+02   3.4305915879e+01    0.3141736    0.2781182 -39.78 0.0004478553    1.130    0.115
        60 -11.2248    105.9042    130.6965   1.0433372964e+02   3.4882753566e+01    0.4028698    0.3272021 -61.71  0.001160066    1.252    0.201
        61 -11.3295    103.3881    126.2327   1.0396927890e+02   3.6406393394e+01    0.3276428    0.2607006 -25.10 0.0009336807    1.418    0.295
        62 -10.8798    135.9370    127.8895   9.5650825144e+01   2.9551894746e+01    0.6414874    0.1740183 -49.27  0.001762963    3.768    0.735
        63 -10.7976    115.4061    130.4801   1.0166629718e+02   3.3121145059e+01    0.3078574    0.2650052 -16.13 0.0006779162    1.326    0.246
        64 -10.3611    160.6622    128.0181   8.9752354855e+01   2.4220289310e+01    0.4018331     0.254456 -68.66  0.001577831    2.180    0.541
        65 -10.7993    120.4962    123.8952   9.8681734559e+01   3.3642310769e+01    0.4374191    0.2767603 -20.76  0.001651788    2.492    0.599
        66  -9.8704    135.0000    119.9467   9.3914767557e+01   3.1532454138e+01    0.2604859    0.0871974 -46.10 0.0008000126    2.926    0.658
        67 -11.7602     69.7832    218.9031   1.2922896709e+02   1.9037079120e+01    0.4036591    0.2340675  65.03  0.001909365    1.877    0.467
        68 -10.2227    110.8280    119.1185   1.0012337167e+02   3.6644644071e+01    0.2207703    0.2150971 -29.23 0.0004314138    1.023    0.022
        69 -10.2034    167.9579    112.7214   8.4421388796e+01   2.5859078821e+01    0.2946562    0.2154966 -59.65   0.00107288    1.429    0.300
        70 -11.2075    118.4707    109.8482   9.5639511809e+01   3.7187448186e+01    0.5024278    0.3492581  76.08  0.002094749    2.193    0.544
        71 -10.3011    205.5265    110.1558   7.6599043412e+01   1.8143335031e+01    0.2902826    0.2098298  45.25    0.0009132    1.578    0.366
        72  -9.6354    134.4928    105.4898   9.0320850495e+01   3.4749938142e+01     0.283516    0.1406724 -54.34  0.001038708    2.347    0.574
        73  -9.9109    198.6228    222.6264   1.0136762083e+02  -3.0952130102e+00    0.2066582     0.198922  21.67 0.0003229432    1.184    0.155
        74  -9.9198     41.7730     91.8735   1.1480963401e+02   5.3398247058e+01    0.1957867    0.1540196 -29.64 0.0005998852    1.156    0.135
        75 -10.1396     52.6801     90.6371   1.1072779660e+02   5.2372578003e+01    0.2582408    0.2031309  -3.53  0.001119422    1.337    0.252
        76  -8.9911    153.2881     80.2855   7.9266391066e+01   3.5398763049e+01      0.13872     0.114455  18.62 0.0002770273    1.531    0.347
        77 -13.4055     51.2890    219.1398   1.3330576024e+02   2.1510983155e+01    0.6577952    0.2647188  55.71  0.002678709    2.716    0.632
        78 -11.5336    167.7975     67.7097   7.3136406678e+01   3.4171819414e+01    0.7866368     0.419484 -80.87  0.002409041    4.792    0.791
        79 -10.2977    249.6079    249.2006   9.6364553878e+01  -1.4564503699e+01    0.1731039   0.09094345 -26.98  0.000961665    1.738    0.425
        80 -13.6673    173.9161     47.6061   6.7061869002e+01   3.5746107516e+01    0.7012352    0.6118107 -22.31 0.0008425314    1.428    0.300
        81 -12.1802     41.2254    213.7809   1.3491463455e+02   2.4025489615e+01    0.3677741    0.1727798  50.14  0.001746835    2.036    0.509
        82  -9.0139    115.4949     31.4731   7.3544716981e+01   5.0911310190e+01    0.1282293    0.1119525  47.60 6.865485e-05    1.005    0.005
