#   1 NUMBER                 Running object number                                     
#   2 MAG_AUTO               Kron-like elliptical aperture magnitude                    [mag]
#   3 X_IMAGE                Object position along x                                    [pixel]
#   4 Y_IMAGE                Object position along y                                    [pixel]
#   5 X_WORLD                Barycenter position along world x axis                     [deg]
#   6 Y_WORLD                Barycenter position along world y axis                     [deg]
#   7 A_WORLD                Profile RMS along major axis (world units)                 [deg]
#   8 B_WORLD                Profile RMS along minor axis (world units)                 [deg]
#   9 THETA_WORLD            Position angle (CCW/world-x)                               [deg]
#  10 FWHM_WORLD             FWHM assuming a gaussian core                              [deg]
#  11 ELONGATION             A_IMAGE/B_IMAGE                                           
#  12 ELLIPTICITY            1 - B_IMAGE/A_IMAGE                                       
         1 -11.9154    186.7634     46.1393   2.8991394015e+02   6.1562705603e+00    0.2237092   0.08744054 -78.52   0.01198097    6.514    0.846
         2 -13.1347    176.9415     77.0272   2.9021040417e+02   5.8566185086e+00    0.1865212   0.08243301 -62.71   0.01608496    2.217    0.549
         3 -14.6855    154.4117     50.2367   2.9030717674e+02   6.2964549949e+00    0.4567769    0.1888907  55.41    0.0298002    4.428    0.774
         4 -14.6349    206.2476     58.4202   2.8976541525e+02   5.9015147662e+00    0.5124571    0.1588254 -61.75   0.03745012    3.073    0.675
         5 -12.7877    210.3488      5.2803   2.8940077798e+02   6.4906810595e+00   0.04669357   0.03097379 -71.72  0.004743191    1.598    0.374
         6 -14.8475    247.4840     21.2670   2.8907373943e+02   6.0905574381e+00    0.0988575   0.04572776 -61.48  0.006254032    2.088    0.521
         7 -15.5281    241.4105      6.0926   2.8905197704e+02   6.3007828320e+00    0.2335538   0.07793487  16.93   0.01287758    6.098    0.836
         8 -14.0739    222.2862     39.5067   2.8946968796e+02   6.0266471093e+00    0.1206592    0.1088358  87.30   0.01481399    1.164    0.141
         9 -10.1548     54.9154     20.3304   2.9126434507e+02   7.2165793483e+00   0.03010707   0.01237335 -72.71   0.00170036    3.282    0.695
        10 -10.2276    142.4516     16.0798   2.9023944582e+02   6.7599254921e+00   0.02731708   0.01337439 -71.67  0.001994177    2.381    0.580
        11 -10.0868    143.9708      6.4395   2.9016446380e+02   6.8623397240e+00   0.03640826    0.0102372 -56.01  0.002633679    3.079    0.675
        12  -9.1211    178.4078     14.6695   2.8982095484e+02   6.5678132593e+00   0.02077946   0.01106379 -87.11  0.001634819    3.088    0.676
        13 -10.1704    125.6310     14.4474   2.9042162743e+02   6.8761197745e+00   0.01599638   0.01403298  66.33  0.001341021    1.218    0.179
        14 -12.1329    119.1641      9.8931   2.9046821800e+02   6.9660789616e+00   0.03516798   0.02707715  -6.11  0.002718843    1.526    0.345
        15 -11.4293    183.7479      5.0635   2.8970259736e+02   6.6476151417e+00   0.02347767   0.01376404 -72.56 0.0007783431    1.891    0.471
        16 -10.3655      3.8519      3.4546   2.9174744070e+02   7.7051771360e+00   0.01551062   0.01326198 -76.06  0.001846311    1.201    0.167
        17  -9.7416     52.2487      3.0525   2.9119170622e+02   7.4313609975e+00   0.02482772  0.009913073 -70.12  0.001861732    3.063    0.674
        18  -7.6048    177.3041      4.6731   2.8977371864e+02   6.6895013101e+00  0.006841262  0.004944228  65.75 0.0007034054    1.646    0.393
        19  -8.9101    172.0017      2.6413   2.8982201577e+02   6.7436862695e+00   0.01385856  0.009177179 -86.68 0.0008840093    1.882    0.469
        20 -14.8174    236.8074     70.4118   2.8948925669e+02   5.5857410557e+00    0.4147657    0.1179682 -68.35   0.02424033    5.035    0.801
        21 -10.5671     95.9689      2.1491   2.9068678272e+02   7.1895124084e+00   0.02646781  0.008274742  39.48  0.001941024    3.132    0.681
        22  -8.2220    153.5306      2.1221   2.9002957314e+02   6.8567546602e+00  0.009737381  0.006394825 -64.53 0.0008536793    1.512    0.339
        23  -8.3753    121.6643    135.3889   2.9118831578e+02   5.5020203397e+00   0.00978638  0.007094146  61.88  0.001032858    1.600    0.375
        24  -8.1001    193.4642    250.4343   2.9105517157e+02   3.7571072595e+00  0.006447184  0.006339035  85.66 0.0001415578    1.028    0.027
        25  -9.1921    135.0081    120.7268   2.9094891813e+02   5.5944086225e+00   0.01386526  0.008038027 -62.69  0.001107066    1.689    0.408
        26 -11.9608    161.1164    128.7103   2.9069901512e+02   5.3511570906e+00     0.035919   0.02276113 -27.20  0.003481034    2.000    0.500
        27  -9.1422    134.5634    113.2862   2.9090965257e+02   5.6829770391e+00   0.01981168   0.00878131 -72.81  0.001542454    2.874    0.652
        28 -10.2240    134.6833    107.2861   2.9087252704e+02   5.7516267014e+00   0.02652903   0.01470225 -50.75  0.002563867    1.748    0.428
        29  -9.0561    141.4047    102.8680   2.9076957384e+02   5.7638170326e+00   0.01372811   0.00900309 -35.65  0.001389612    1.711    0.415
        30  -9.1072    121.1861    102.6401   2.9099871256e+02   5.8833300977e+00   0.01529345  0.008801403 -22.02  0.001307081    2.620    0.618
        31  -9.5388    147.2478     98.4436   2.9067659150e+02   5.7811438319e+00   0.01371069   0.01179225 -17.38 0.0007594476    1.265    0.210
        32 -10.4113    227.3383     96.1843   2.8975101014e+02   5.3432114018e+00   0.02136027   0.01585353 -42.33  0.002366706    1.379    0.275
        33  -9.3728    134.0074     95.7847   2.9081166635e+02   5.8884418607e+00    0.0146918   0.01195484  74.87 0.0006276098    1.384    0.278
        34 -10.1892    157.1573     90.7497   2.9051775688e+02   5.8126907418e+00   0.02235182   0.01573815 -17.54  0.001794473    1.773    0.436
        35  -9.8595    140.8306     87.5170   2.9068457022e+02   5.9445063195e+00   0.01333574   0.01253002  64.08  0.000664017    1.099    0.090
        36 -10.6814    164.7027     85.5006   2.9040044506e+02   5.8296442461e+00   0.03806269   0.01915568  64.65  0.002463597    3.681    0.728
        37 -11.3555    155.0367     80.2078   2.9047901687e+02   5.9467395287e+00   0.01661936   0.01327044 -63.30 0.0005630589    1.230    0.187
        38  -7.6193     42.6262     78.2954   2.9175014310e+02   6.6178157794e+00  0.007062538  0.004796925  59.37 0.0007026029    1.739    0.425
        39  -9.2415      1.6185     76.1573   2.9220577606e+02   6.8783017428e+00  0.009970512  0.005555175 -51.63 0.0007701303    1.728    0.421
        40  -8.8097      2.3015     70.3368   2.9216336763e+02   6.9416480998e+00  0.006974268  0.004802717 -31.48 0.0007036469    1.663    0.399
        41 -10.5484    188.0444     66.9215   2.9002354993e+02   5.9089561837e+00   0.01506904   0.01190463 -19.44  0.001693898    1.444    0.308
        42 -10.7821    193.3159     63.1837   2.8994116747e+02   5.9215424688e+00    0.0204896   0.01429442 -26.04  0.001534461    1.714    0.417
        43  -9.6844    142.6806     66.4727   2.9053789734e+02   6.1768874609e+00   0.01772023   0.01090439 -84.68  0.001365581    2.104    0.525
        44 -13.1204     14.2060    200.8100   2.9280152152e+02   5.3642487610e+00   0.04955301     0.045849 -49.64  0.003960023    1.063    0.059
        45 -13.4344     45.4734    177.4896   2.9230697785e+02   5.4543312085e+00    0.1136358   0.07129967 -14.68  0.001777585    2.263    0.558
        46  -9.3604      2.3914     63.8173   2.9212356942e+02   7.0164727120e+00   0.01013399  0.005514891 -51.18 0.0009559024    1.772    0.436
        47  -8.9682     72.5979     57.8237   2.9128597912e+02   6.6816686094e+00   0.01668073  0.009099995 -75.98  0.001407539    2.229    0.551
        48  -9.4601     71.7410     53.7324   2.9127137260e+02   6.7338703646e+00   0.01372579  0.009645673  83.14 0.0009497068    1.785    0.440
        49 -10.0344    183.6960    195.0786   2.9083717600e+02   4.4534180183e+00   0.01105116   0.00985068  31.68 0.0002746973    1.139    0.122
        50  -8.7512    250.2426     56.3322   2.8925221705e+02   5.6701500536e+00   0.01361518  0.008165339 -47.21  0.001349608    1.667    0.400
        51 -10.8527    218.1829    189.7758   2.9041336420e+02   4.3151615905e+00   0.03935943   0.01189373  42.11  0.002743877    3.520    0.716
        52 -10.5681    134.0370     50.7925   2.9054285772e+02   6.4079711834e+00   0.01715003    0.0106563  41.32  0.001240645    1.641    0.390
        53 -10.8635     68.1582    144.5560   2.9185284004e+02   5.7046814198e+00    0.0342792   0.01913532  55.42  0.003091324    2.257    0.557
        54  -8.9721    144.3082    146.6587   2.9099739599e+02   5.2408944912e+00  0.006933122  0.004938642  66.14 0.0007043573    1.689    0.408
        55  -8.6095    197.1040     43.6850   2.8978145578e+02   6.1246140625e+00    0.0116787  0.008392766  76.44 0.0007269205    1.723    0.419
        56  -8.3450     60.9632     43.7454   2.9133491001e+02   6.9113607253e+00  0.008693209  0.008616802  49.19 0.0002907014    1.027    0.027
        57  -8.5003     12.0042    152.9677   2.9254323146e+02   5.9304311528e+00  0.008196309  0.007417539 -62.35 0.0004000033    1.082    0.076
        58  -9.1744    134.2368    147.4017   2.9111655575e+02   5.2905074826e+00   0.01753698  0.006034316 -68.96  0.001186196    3.663    0.727
        59  -8.6420    190.7990    191.3934   2.9073443996e+02   4.4549322107e+00   0.01382445  0.007252923  78.26 0.0009488743    4.099    0.756
        60  -8.2807    189.8778     35.9112   2.8981729509e+02   6.2562342867e+00   0.01035504  0.007564164  71.80  0.001088316    1.657    0.397
        61  -8.6224    171.6786     34.9889   2.9001919445e+02   6.3724091741e+00   0.00961676  0.007843307 -58.91  0.001110628    1.194    0.162
        62  -9.3006     58.0016     34.0137   2.9131070824e+02   7.0408136536e+00   0.01507872  0.009354313 -73.06 0.0008588156    1.764    0.433
        63  -8.0010     69.3101     32.6634   2.9117347840e+02   6.9912087412e+00  0.006915327  0.004932809  65.67 0.0003645468    1.682    0.406
        64  -8.4902    190.0362    180.8549   2.9068038909e+02   4.5811528462e+00   0.01051018  0.008515113  54.94 0.0006233601    1.318    0.241
        65 -12.6234     55.0055    168.8887   2.9214729142e+02   5.4989744257e+00   0.04672877   0.03437609 -49.57  0.002807599    1.334    0.250
        66  -9.3712    221.3728    176.7658   2.9029959698e+02   4.4470198577e+00   0.02430063   0.01266731  69.45  0.001766721    3.721    0.731
        67 -10.0624     70.0420    161.0159   2.9192913614e+02   5.5034520201e+00     0.101112   0.05131958 -35.21   0.00853216    2.568    0.611
        68  -9.5196    218.6582    169.5556   2.9028750479e+02   4.5460491828e+00   0.03325953  0.005938897  40.94  0.001805755    5.729    0.825
        69  -9.3119    230.1436    166.6751   2.9013973236e+02   4.5127999311e+00   0.01087153  0.007864438  48.42 0.0009284841    1.463    0.316
        70  -8.9633    192.1224    143.9105   2.9043656805e+02   4.9960413294e+00   0.01007803  0.008567661  67.21   0.00043443    1.278    0.217
        71  -9.0631    128.9577    141.4338   2.9114118343e+02   5.3900038975e+00   0.01108061  0.008828023 -53.31 0.0006215564    1.221    0.181
        72  -8.3919    203.5536    160.7110   2.9040661333e+02   4.7357161500e+00  0.008704547  0.006369108 -79.83 0.0009258644    1.509    0.337
        73 -10.5206    211.5348    136.0606   2.9016884677e+02   4.9742993859e+00   0.01926088   0.01701826  35.84  0.002340271    1.148    0.129
        74  -8.0815    144.6503    159.3239   2.9106888922e+02   5.0924969737e+00  0.007080101  0.004863292  62.37 0.0007048831    1.750    0.429
        75 -10.3794     62.4285    247.4040   2.9252798206e+02   4.5478999872e+00   0.01363141   0.01120027 -37.41  0.001584035    1.260    0.206
        76 -11.1932     68.5028    229.9416   2.9235544646e+02   4.7149587806e+00   0.01781164   0.01438053  15.69  0.002056428    1.316    0.240
        77  -8.5565     40.1841    226.0245   2.9265476457e+02   4.9232059483e+00   0.01003702  0.008365316 -38.73 0.0005228006    1.230    0.187
        78 -10.7814    193.2800    131.8446   2.9035145452e+02   5.1287574337e+00   0.01703366   0.01108471 -29.97  0.001284156    1.851    0.460
        79  -8.5436    125.9293    126.5767   2.9108723859e+02   5.5792551307e+00   0.01100933  0.008104334 -52.77  0.001211351    1.319    0.242
