#   1 NUMBER                 Running object number                                     
#   2 MAG_AUTO               Kron-like elliptical aperture magnitude                    [mag]
#   3 X_IMAGE                Object position along x                                    [pixel]
#   4 Y_IMAGE                Object position along y                                    [pixel]
#   5 X_WORLD                Barycenter position along world x axis                     [deg]
#   6 Y_WORLD                Barycenter position along world y axis                     [deg]
#   7 A_WORLD                Profile RMS along major axis (world units)                 [deg]
#   8 B_WORLD                Profile RMS along minor axis (world units)                 [deg]
#   9 THETA_WORLD            Position angle (CCW/world-x)                               [deg]
#  10 FWHM_WORLD             FWHM assuming a gaussian core                              [deg]
#  11 ELONGATION             A_IMAGE/B_IMAGE                                           
#  12 ELLIPTICITY            1 - B_IMAGE/A_IMAGE                                       
         1 -12.2939     14.8035     38.9814   1.1025607156e+02   6.6684857769e+01     1.120294    0.5705962 -54.97  0.004237003    1.495    0.331
         2 -12.3798     55.5679      5.8311   7.7607320455e+01   6.7939132092e+01     1.011496    0.6093643  18.16   0.00246288    1.917    0.478
         3 -12.8281     45.8761     21.2318   8.9475654691e+01   6.7013085735e+01     1.753215      1.11334 -51.30  0.009699957    1.748    0.428
         4 -12.5114      8.6479     26.0916   1.0930583595e+02   6.9712935122e+01    0.9481671    0.6728418 -30.36  0.006539413    1.324    0.245
         5 -12.2218     68.2923     20.0588   7.9710479682e+01   6.3765573133e+01    0.8445691    0.4659295  19.04  0.001471217    2.668    0.625
         6 -11.0260      6.9860     55.9151   1.1750492028e+02   6.3545679193e+01     1.107571    0.6450489 -81.67  0.006505541    1.688    0.408
         7 -12.6572     39.4754     44.9039   1.0140835661e+02   6.3289890385e+01     1.501094     1.208284 -57.86  0.009596149    1.198    0.166
         8 -12.2846     54.4903     36.2430   9.2134557357e+01   6.3151668660e+01    0.7899134    0.7527853 -31.40   0.00458529    1.162    0.139
         9 -12.3896     74.3504     32.1493   8.2841218987e+01   6.0769530912e+01     3.168642     1.741531  58.39   0.01353921    2.849    0.649
        10 -11.0886     24.5825     31.0384   1.0326701373e+02   6.7538094923e+01    0.8834378    0.4497646 -56.47  0.004526205    1.715    0.417
        11 -11.2185     30.5829     19.5326   9.5868558360e+01   6.9135837080e+01     1.246205    0.3943565 -48.53  0.005341979    2.678    0.627
        12 -11.6664     24.8485      5.2566   9.2000893007e+01   7.2182443458e+01    0.8355529    0.5794534  37.26  0.005426337    1.831    0.454
        13 -12.3816      3.1972     17.4759   1.0926100455e+02   7.1727638605e+01    0.3051508    0.2039364 -39.40 0.0003271045    1.205    0.170
        14 -13.6669      3.9443      9.6044   1.0587723925e+02   7.3175419957e+01    0.8999808     0.436016 -49.26  0.003636979    1.523    0.343
        15 -11.2507    199.5718      5.0038   4.6124125619e+01   3.3651457854e+01    0.8116286    0.6138658  69.57  0.003706483    1.263    0.208
        16 -11.6246    165.9149      8.5238   5.1275862403e+01   4.2260681680e+01     1.393565    0.6741952 -40.83   0.00579721    2.130    0.531
        17 -12.1313    167.0756     24.4771   5.6526897429e+01   4.0224940981e+01     0.535778    0.3384658  43.68 0.0004788728    1.631    0.387
        18 -11.2841    159.5246     20.1293   5.6270859490e+01   4.2740420097e+01    0.8914462    0.6476987  13.03  0.002376108    1.636    0.389
        19 -12.0520    150.5219     16.7579   5.6601875422e+01   4.5500749084e+01     1.544147     1.008478   3.22  0.003308168    1.894    0.472
        20 -10.2491    173.6912      8.2239   5.0120225108e+01   4.0208258857e+01    0.6062489    0.3033373  -6.40  0.001811806    2.666    0.625
        21 -10.8520    181.1407      4.7595   4.8069842101e+01   3.8547717891e+01     1.352293    0.6160608  89.31  0.004950639    2.839    0.648
        22 -11.1100     87.8919     21.6958   7.3659881801e+01   5.9838055896e+01     1.459371    0.5655792  52.71  0.005703709    2.763    0.638
        23 -11.5168    128.4572     20.0292   6.2165670606e+01   5.0799784167e+01     1.909853    0.5037726  53.36  0.006181051    3.165    0.684
        24 -10.5877    131.6758     13.2184   5.8790330062e+01   5.0767504820e+01    0.5334918    0.2608201  55.02  0.001318316    1.850    0.459
        25 -11.7261    103.6363     36.0761   7.4940213392e+01   5.4383926313e+01     1.848834     1.015851  11.12  0.005753115    4.297    0.767
        26 -12.8252     99.4265      7.3811   6.3733784270e+01   5.9154663368e+01    0.9669448    0.6591486  40.75   0.00237728    1.371    0.271
        27 -12.2707    112.8349      7.8165   6.0611316116e+01   5.5990645815e+01     1.175313    0.6607816  76.04  0.005020039    2.365    0.577
        28 -12.2748    111.5574     20.0464   6.6167862891e+01   5.4884209322e+01    0.9603505     0.481468 -37.32  0.004126751    2.048    0.512
        29 -12.1743    117.0925     15.2776   6.2805037024e+01   5.4148717592e+01    0.3429583    0.3266698 -30.99 0.0002488486    1.133    0.117
        30 -10.9303    201.7126     18.0048   4.9725748038e+01   3.1763440104e+01    0.7663885    0.4514099  65.31  0.002908249    1.632    0.387
        31 -11.6624    213.3274      4.8511   4.4755058382e+01   3.0116336899e+01    0.8116457    0.3643982  79.57  0.002054743    2.300    0.565
        32  -9.8481    223.3191      1.9887   4.3113094994e+01   2.7880345574e+01    0.4068834     0.164469  63.77  0.001417447    2.329    0.571
        33 -11.1616    215.4009     24.1507   4.9945591831e+01   2.7554978155e+01    0.6732246    0.6293069 -37.09  0.003162488    1.076    0.071
        34 -11.5054    212.6599     15.7052   4.7863256612e+01   2.9183167610e+01    0.7445202    0.5842867   2.79  0.003078213    1.530    0.346
        35  -9.7437    185.5215     14.1745   5.0515244734e+01   3.6445663657e+01    0.8637478    0.3131455  49.83  0.003076563    2.786    0.641
        36 -10.0279    176.4123     14.9810   5.1973773859e+01   3.8793297042e+01    0.6202921    0.2837996 -22.22  0.001537479    2.304    0.566
        37 -10.5729    180.0881     37.4168   5.8665679547e+01   3.5144549610e+01     1.343158    0.6500799 -66.67  0.003992641    4.248    0.765
        38 -11.6715    177.8573     27.3760   5.5795830325e+01   3.7003473889e+01    0.9070977    0.6174731 -10.21  0.002646295    1.703    0.413
        39 -12.6243     19.2967     13.5810   9.9020149297e+01   7.1299657962e+01    0.9172466    0.7338791  70.60  0.005352435    2.198    0.545
        40 -10.7320    243.5071     12.1601   4.4108326843e+01   2.1994137523e+01    0.8515571    0.3149265 -19.87  0.003247254    3.083    0.676
        41 -10.7190    232.0974     19.0036   4.6849593297e+01   2.3982961815e+01    0.9635713      0.40306 -34.20  0.004117541    2.084    0.520
        42 -10.0839    221.9663     10.6241   4.5550513784e+01   2.7363125217e+01    0.5025029    0.2872296 -51.54  0.001493244    1.702    0.413
        43  -9.6971    226.3017      8.3628   4.4558391891e+01   2.6517442615e+01    0.3333546    0.2470614  34.93  0.001010008    1.651    0.394
        44 -10.9193    240.4297     19.2839   4.6166477283e+01   2.1958651380e+01    0.8649282    0.2059765 -35.67  0.003060834    3.094    0.677
        45 -10.7374    246.6050     18.9877   4.5559287921e+01   2.0548770044e+01    0.5104939    0.2712534  70.41   0.00149876    1.945    0.486
        46  -9.9683    233.2547     10.6296   4.4559977475e+01   2.4589443130e+01    0.3142257    0.2000027  71.05 0.0009841112    1.573    0.364
        47 -10.1289    233.9281      7.2883   4.3640584212e+01   2.4766417924e+01    0.3248095    0.2381451  49.97 0.0008705634    1.538    0.350
        48  -9.8076     67.5187     13.6160   7.6904195288e+01   6.4842787799e+01    0.2217663     0.185965  32.04  0.000150115    1.226    0.184
        49  -8.7727    141.5264     11.4884   5.6239147823e+01   4.8418809186e+01     0.204226     0.152032  33.70 0.0008498261    1.373    0.272
        50  -6.1332    138.9650      8.4594   5.5540583908e+01   4.9390245549e+01    0.2923229    0.2614774 -20.78  0.000833194    1.171    0.146
        51 -11.0643    132.2652      4.5385   5.5222022949e+01   5.1492024727e+01     0.957172    0.3013647  56.90  0.003376991    2.600    0.615
        52 -10.8081    139.1551      1.3508   5.2760929605e+01   5.0004146065e+01    0.2505506     0.134444  68.55 -0.000275831    1.785    0.440
        53  -7.8767     82.3264      2.3242   6.6156304780e+01   6.3391837507e+01    0.2172646      0.15134  10.96 0.0008273087    1.452    0.311
        54 -10.7116     77.4393      9.0687   7.1116808755e+01   6.3596713052e+01    0.2829256    0.2491921  -2.29 0.0007322654    1.044    0.042
        55  -8.6399     78.4910      4.0326   6.8232008438e+01   6.3984457660e+01    0.3281879    0.1762607  27.26  0.001517323    2.105    0.525
        56  -9.2686    250.5014      8.5411   4.2682156222e+01   2.0752463806e+01    0.2495298    0.1409167 -30.18  0.001283508    1.614    0.380
        57 -10.1647    248.8270      2.1930   4.1261972065e+01   2.1768680540e+01    0.4349615    0.1983419 -29.65 0.0008059388    1.962    0.490
        58  -9.4982    230.2263      2.6298   4.2729933878e+01   2.6121780149e+01    0.3483815     0.160548  55.84  0.001547795    2.273    0.560
        59  -9.9008    138.2948      4.2865   5.4044397743e+01   4.9963185656e+01     0.246695    0.1606549  37.70  0.000175258    1.547    0.353
        60  -9.9597     70.2591      3.3761   7.0669472527e+01   6.5660349374e+01    0.4689733    0.3652096  31.64  0.002778743    1.213    0.176
        61 -12.1040     38.5853     85.7003   1.1202626690e+02   5.4442064791e+01     1.880268    0.6931752 -55.22  0.007451053    2.209    0.547
        62  -8.7227    183.6754    250.3133   1.0419376455e+02   1.8431833547e+00    0.1034482   0.07249364  56.43 0.0007041364    1.662    0.398
        63  -9.3474    151.4019    250.2206   1.0950487857e+02   6.6581182721e+00    0.1247502    0.1017832 -84.63 0.0009509795    1.706    0.414
        64 -12.9808     25.8545     79.1839   1.1502874088e+02   5.7075854400e+01     1.803226    0.9369738 -42.87  0.009440582    2.027    0.507
        65  -8.4309    235.6815    249.3409   9.5801989258e+01  -5.5699741220e+00   0.09156601    0.0758653  47.11 0.0007049362    1.713    0.416
        66  -8.8376     30.8229    247.9454   1.2896666807e+02   2.2771378107e+01    0.1280788    0.1002758 -60.57  0.001078658    2.017    0.504
        67 -11.6905      5.1737    143.7292   1.2813416871e+02   4.4337423448e+01     0.490303    0.3177645 -80.39  0.001455899    1.251    0.201
        68 -12.7725     10.4780    131.4107   1.2597649308e+02   4.6566718025e+01     1.590665     0.653849 -54.58  0.005329771    2.599    0.615
        69  -9.1226      3.3094    246.3731   1.3304619814e+02   2.5742341090e+01    0.1478643   0.08746126 -79.07  0.001223459    1.775    0.437
        70  -8.5763    205.9404    244.7835   9.9878940395e+01  -8.7612640178e-01    0.1523952   0.06700638  39.40 0.0008682293    1.684    0.406
        71 -13.0007     54.4364     68.1143   1.0256188097e+02   5.6620245804e+01     2.269716     1.132657  40.35  0.007137755    2.262    0.558
        72  -9.5941    142.2677    243.5114   1.1032720576e+02   8.8706010661e+00    0.3050268    0.1465941  32.04  0.001641869    2.237    0.553
        73  -8.4273    210.9976    240.0152   9.8421990216e+01  -1.1370985521e+00    0.1340916    0.1013758  27.06 0.0009941788    1.046    0.044
        74 -12.3204     19.6248     99.7131   1.2019790371e+02   5.2915172684e+01     1.562131    0.5703151 -60.96  0.007533385    2.143    0.533
        75 -11.4560     77.8057     61.7949   9.2581181209e+01   5.4590549377e+01    0.6897341    0.3166345 -41.04   0.00159698    2.111    0.526
        76  -8.0665    239.4934    239.5693   9.3839764352e+01  -5.2279010195e+00    0.1097463   0.07688815  23.65 7.621323e-05    1.019    0.018
        77 -10.1531     14.8789    236.1161   1.3095251467e+02   2.6242687598e+01    0.2021578    0.1234732 -80.08 0.0003806563    1.660    0.398
        78 -11.5405      5.5533    115.8571   1.2588449163e+02   5.0318631812e+01    0.4647021    0.2625341 -78.93  0.002884303    1.383    0.277
        79 -12.8217     76.8301     51.5228   8.9449302639e+01   5.6809430605e+01     1.730713     1.012048  53.88  0.007939702    2.229    0.551
        80  -9.8039     12.7726    232.0774   1.3112996351e+02   2.7096303569e+01    0.2595414    0.1052448  61.39   0.00148345    1.762    0.432
        81  -8.7839    180.5082    234.5409   1.0275734821e+02   4.1312813790e+00     0.115953   0.08658239  34.53  0.000141956    1.047    0.045
        82  -9.3557    227.3707    231.5297   9.4580469617e+01  -2.7108611846e+00    0.1995489    0.1352009  28.89 0.0006071445    1.100    0.091
        83  -9.2685    202.0985    229.0017   9.8359902135e+01   1.4057612826e+00    0.1731337     0.131126  31.97 0.0004440666    1.021    0.020
        84 -12.6249    101.4416     53.7976   8.2283928100e+01   5.1801156472e+01     1.030279    0.7248647  15.35  0.004791011    1.880    0.468
        85  -8.8508     50.3217    227.6528   1.2475982089e+02   2.3822643705e+01    0.1708703    0.0839467  63.79  0.001083666    1.680    0.405
        86  -8.7640    111.0035    224.5123   1.1382451827e+02   1.6265080376e+01    0.1714024   0.07028548  56.15 0.0008098893    2.496    0.599
        87  -8.7023     97.6544    140.7784   1.0554447053e+02   3.4037929038e+01    0.1861903    0.1214159 -71.15 0.0005845354    1.637    0.389
        88  -8.4886     80.5301    140.5371   1.0970617370e+02   3.6759870280e+01    0.1308857    0.1171754  84.30 0.0001740896    1.026    0.025
        89 -10.4400     55.9355    137.3355   1.1535689432e+02   4.0779186946e+01    0.2648031    0.1834936 -52.34  0.001539875    1.585    0.369
        90  -9.2743     86.2373    134.1158   1.0722793837e+02   3.7307850612e+01    0.2826164     0.200438  20.38  0.001357385    1.976    0.494
        91  -9.1918     33.2823    136.5927   1.2088958267e+02   4.3440744461e+01    0.1934528    0.1135225 -58.33 0.0003314374    1.697    0.411
        92  -9.1167     41.9555    109.0153   1.1502983021e+02   4.8764740900e+01    0.2400321    0.1731694  57.03 0.0008069802    1.449    0.310
        93 -11.3122     47.0862    128.4126   1.1641891584e+02   4.3806706504e+01    0.8511029    0.3757473 -71.97  0.003405161    2.084    0.520
        94 -11.4557     42.9310    115.9725   1.1579805842e+02   4.7074643200e+01    0.8012127    0.6616549 -42.23  0.002878561    1.445    0.308
        95 -11.2532     40.1871    126.4283   1.1795588938e+02   4.4999211937e+01    0.6347372    0.2997558  54.60  0.003129049    2.258    0.557
        96 -10.5365     39.0342    121.2942   1.1759518613e+02   4.6274961161e+01    0.3442848    0.2541001  60.11  0.001953748    1.345    0.256
        97  -9.8747     33.0298    109.4973   1.1764626210e+02   4.9542522421e+01    0.4226159    0.3141927 -76.27  0.002696989    1.120    0.107
        98  -9.8626     72.9899    129.4581   1.0983687286e+02   4.0298517331e+01    0.2687209    0.1790903 -61.07 0.0004233832    1.416    0.294
        99  -9.0175     64.1358    114.0083   1.0957925442e+02   4.5000157416e+01    0.2957015    0.1834366  51.68  0.001238632    1.698    0.411
       100 -10.0991     65.9149    130.8198   1.1188499158e+02   4.0961326017e+01    0.2382945    0.1876932 -75.96  0.001437767    1.148    0.129
       101 -11.3378     67.8034    121.7841   1.0992583326e+02   4.2742825089e+01    0.9391574    0.3080737 -50.14  0.003486735    3.224    0.690
       102  -9.1993     35.1068    130.1096   1.1971237235e+02   4.4694270947e+01     0.228019    0.1424243 -81.58 0.0008577182    1.386    0.278
       103 -11.6944     29.7464     63.0501   1.1029592327e+02   6.0355528953e+01     1.165304    0.4956654 -30.58  0.004377399    4.246    0.764
       104  -9.1396     22.3082    128.3437   1.2276635774e+02   4.6276236472e+01     0.192123     0.162326 -63.65 0.0007983878    1.291    0.225
       105  -9.3507     25.5078    126.5734   1.2176923462e+02   4.6387167341e+01     0.415396    0.1646207  50.77  0.002008757    2.579    0.612
       106 -10.8023     56.4160    125.1214   1.1350296384e+02   4.3455440606e+01    0.3945956    0.2660201  66.78   0.00144379    1.537    0.349
       107 -10.0758     59.4870    120.6431   1.1198291509e+02   4.4088844732e+01    0.3871077      0.25449 -70.56  0.002144754    1.379    0.275
       108  -9.0674     75.3911    124.9043   1.0843842417e+02   4.0977855681e+01    0.2521839    0.1652206  57.05 0.0006933589    1.583    0.368
       109  -9.4226     91.5988    120.2065   1.0326520214e+02   3.9536586456e+01    0.4282345    0.2080703 -58.99  0.001804363    2.032    0.508
       110  -9.2209     92.5626    115.7377   1.0209806766e+02   4.0372215257e+01    0.2564908    0.1718491 -81.97 0.0009086534    1.852    0.460
       111  -8.8537     90.6785    112.6645   1.0196383486e+02   4.1368928555e+01    0.3894826    0.2546317  15.28  0.001706431    2.542    0.607
       112  -8.7659    132.0544    119.6560   9.2833000202e+01   3.2178278033e+01    0.2016089    0.1880584  45.71  0.000737731    1.069    0.065
       113 -10.0778    103.6042    116.2180   9.9261024685e+01   3.8364953116e+01        0.558    0.2974519  63.39  0.002129117    2.817    0.645
       114  -9.4155     97.7935    113.8096   1.0028278715e+02   3.9914598957e+01    0.3119995    0.2308068   8.14  0.001486455    2.090    0.522
       115  -9.4935     51.3766    117.5034   1.1370054227e+02   4.5785400238e+01    0.2881869    0.2233124 -25.31  0.001682391    1.823    0.451
       116  -9.2492     33.9790    117.0010   1.1839641673e+02   4.7748828907e+01    0.1861451    0.1485607  87.22 0.0003145743    1.095    0.087
       117 -11.4090     12.9419    109.3878   1.2326283958e+02   5.1237953267e+01    0.8683172    0.4185024  27.58   0.00391685    2.453    0.592
       118 -10.0628     82.2745    114.6951   1.0468171876e+02   4.2251909979e+01    0.3978176     0.258689  19.92  0.001562868    2.256    0.557
       119  -9.8958     59.0945    112.6563   1.1075585302e+02   4.5957829054e+01    0.3926616    0.1966142 -45.35  0.001786798    2.304    0.566
       120 -10.0655    107.7347    110.6150   9.6914575638e+01   3.8837879423e+01    0.4564738    0.2362544 -50.19  0.001952019    1.898    0.473
       121  -8.7102    104.4419    109.4559   9.7525447755e+01   3.9694398423e+01    0.2145929    0.1691853  89.64 0.0008636998    1.471    0.320
       122  -9.2221    132.9705    112.1261   9.0826798471e+01   3.3539333619e+01    0.3022566    0.2471247  89.28   0.00151839    1.456    0.313
       123 -11.0363     77.5831    102.0119   1.0336462032e+02   4.5832636219e+01    0.8589601    0.3716935  33.28  0.003476919    2.727    0.633
       124  -9.9998     73.5278    107.3813   1.0566284481e+02   4.5213280401e+01     0.620026    0.2739496  35.69   0.00264725    2.480    0.597
       125 -10.4575     68.2593    106.3281   1.0696601835e+02   4.6196625392e+01    0.5792048    0.2425888 -41.23  0.002107023    3.464    0.711
       126  -9.2821    149.1061    106.7892   8.5632238228e+01   3.1131884254e+01    0.3946994    0.2050626 -29.72  0.001461705    2.517    0.603
       127  -9.2815    113.8739    106.9461   9.4424571526e+01   3.8469867704e+01    0.2239765     0.204155 -12.55 0.0008113448    1.275    0.216
       128  -9.5539    133.8720    102.7736   8.8255814019e+01   3.5263768136e+01    0.3339954    0.2080221 -49.92 0.0009063617    1.648    0.393
       129  -9.3475    171.1892    102.6633   7.9655367934e+01   2.6866425059e+01    0.3890156    0.2373695  30.45  0.001453626    2.053    0.513
       130  -9.7641    141.5024    102.4533   8.6307835110e+01   3.3671164227e+01    0.3290018    0.2677982 -22.69  0.001633785    1.395    0.283
       131  -8.4582    105.5246    102.9137   9.5682177239e+01   4.0922709427e+01    0.2111874    0.1378955 -48.82 0.0007033052    1.496    0.331
       132  -9.0670     37.4894    108.5148   1.1623316520e+02   4.9334749158e+01    0.3079498    0.2001793 -52.02  0.001323684    1.535    0.348
       133  -8.5296     39.7328    102.5699   1.1465744123e+02   5.0468868136e+01    0.1608922    0.1105456  49.67 0.0007582874    1.568    0.362
       134  -9.8903    115.8516    100.6505   9.2337135576e+01   3.9427302886e+01    0.2907814      0.22913 -15.13  0.001105097    1.664    0.399
       135 -10.0122     89.2697     97.8122   9.9010850083e+01   4.4916915080e+01    0.6091939    0.3833991 -32.48  0.002749897    2.077    0.519
       136 -11.0022     88.4051     90.4320   9.7436611311e+01   4.6696097743e+01    0.6305208    0.3646368 -50.60  0.002017553    1.622    0.384
       137 -10.0265     93.0670     88.8683   9.5652147991e+01   4.6236894850e+01    0.3776772    0.3193509 -76.44  0.001613383    1.266    0.210
       138  -8.7846    121.6585    100.6663   9.0814346033e+01   3.8255835599e+01    0.1520798    0.1195813  -1.26 0.0003349071    1.755    0.430
       139  -9.4605     62.7902     97.9565   1.0688757650e+02   4.8844449902e+01    0.3602104    0.1750399  46.40  0.001636958    2.265    0.558
       140  -9.1935    159.9063     97.1451   8.0626916618e+01   3.0516159911e+01    0.5225051    0.2181347  49.70  0.001673364    2.355    0.575
       141  -8.8033    156.1593     94.1806   8.0656539390e+01   3.1946577294e+01    0.3018712    0.2688764  87.02 0.0009834751    1.262    0.208
       142  -9.2573     81.4334     96.9187   1.0108699616e+02   4.6387833791e+01    0.2467984    0.2016631  29.81  0.000903141    1.397    0.284
       143 -10.1667    114.2659     95.1943   9.1343679096e+01   4.0898782391e+01     0.451387    0.1933658  51.35  0.001641284    2.605    0.616
       144 -10.3265    124.3020     92.7597   8.8021392933e+01   3.9349262612e+01    0.5387321    0.4179896  87.86  0.002561297    1.675    0.403
       145 -11.0376    119.5719     86.6427   8.7565220138e+01   4.1598092525e+01    0.9007976    0.2833427  50.58  0.002755686    3.573    0.720
       146  -8.9373     78.2172     92.5838   1.0102183722e+02   4.7860408799e+01    0.4123579    0.2291015 -39.87   0.00183814    2.042    0.510
       147  -9.4851     72.8450     89.3986   1.0189946143e+02   4.9383849924e+01    0.6694301    0.3657348  27.43  0.003000166    2.359    0.576
       148  -9.9478     82.4356     89.5753   9.9008774117e+01   4.7868237220e+01    0.4002818    0.2812358 -71.39 0.0009105862    1.587    0.370
       149  -9.3179     83.3964     83.7893   9.7218778308e+01   4.8988776804e+01    0.3157618    0.2053512 -43.46  0.001133484    1.500    0.333
       150  -8.2989    101.0224     88.2753   9.3178668427e+01   4.4926464347e+01    0.2231643    0.1767564 -49.40 0.0001748767    1.211    0.174
       151 -10.1856    124.6303     82.9856   8.5164775887e+01   4.1263070861e+01    0.7572413    0.3360259 -54.63  0.002546369    2.997    0.666
       152 -10.1687    103.7461     92.4095   9.3509742025e+01   4.3528823962e+01    0.3539541    0.2633545  42.11  0.001049311    1.399    0.285
       153 -11.2859    106.6556     87.9195   9.1477778515e+01   4.3933061085e+01    0.8177081     0.417256 -30.60  0.002933141    2.959    0.662
       154  -8.4818    187.4348     89.5340   7.2854857475e+01   2.5296679460e+01    0.1492401    0.1466241 -20.48 0.0002182437    1.024    0.024
       155  -9.5965    150.0429     78.2173   7.7463948479e+01   3.6362568727e+01    0.4706137    0.2855266  29.03  0.001840138    2.228    0.551
       156  -9.4184    145.9453     86.8331   8.0953748098e+01   3.5718442688e+01    0.3051904    0.2605722 -28.30 0.0006534101    1.213    0.176
       157  -9.2233    146.8169     82.1795   7.9393837172e+01   3.6394607955e+01    0.3114823    0.2073915 -20.67 0.0008999608    1.865    0.464
       158  -8.6981    224.6849     85.0376   6.5266867674e+01   1.7165566820e+01    0.1998964    0.1748433 -22.51 0.0001780745    1.084    0.078
       159  -9.3354    140.8012     84.3983   8.1484312321e+01   3.7372886376e+01    0.3392698     0.256627  85.22  0.001465387    1.778    0.437
       160  -9.1327     81.6453     80.7117   9.6933857592e+01   4.9947333406e+01    0.4212842    0.1562472 -42.00  0.001482142    2.976    0.664
       161  -9.9770    216.7586     80.8898   6.5413945300e+01   1.9624513750e+01    0.4914184    0.2627875 -28.96  0.001867409    1.819    0.450
       162  -9.8903    160.9142     81.8251   7.6092792608e+01   3.3086099982e+01    0.5316522    0.3145514  47.62  0.002242334    1.678    0.404
       163  -8.5216     94.7861     71.6034   9.0217241356e+01   4.9600997436e+01    0.3368027    0.2348248  76.91 0.0007936571    2.244    0.554
       164 -10.8068    100.8761     69.0391   8.7575566785e+01   4.8966930669e+01    0.6276153    0.4009817 -57.78  0.002218269    1.792    0.442
       165 -10.1224     91.4951     77.6353   9.3022048359e+01   4.8934316833e+01    0.5234143    0.3579626  25.14  0.002501561    1.828    0.453
       166 -10.5696     98.9513     77.2343   9.0657794690e+01   4.7653819562e+01    0.5377032    0.3793487  42.57  0.001520578    1.487    0.328
       167 -10.5136    103.7769     80.7849   9.0282663207e+01   4.5991547931e+01    0.4715417    0.3384985  16.86 0.0009662629    1.913    0.477
       168  -9.6355    105.7959     75.9513   8.8267566533e+01   4.6597048916e+01    0.3556564    0.2874509 -80.26  0.001216226    1.536    0.349
       169  -9.3286    179.5420     80.4051   7.1830191437e+01   2.8760641765e+01    0.3142276    0.2266584  74.98   0.00102542    1.694    0.410
       170 -10.5367    133.5044     79.2279   8.1760597805e+01   4.0034901915e+01    0.6229971    0.4756182  43.84  0.002069249    1.326    0.246
       171 -11.1636    138.0368     68.4836   7.7304569616e+01   4.0997816996e+01    0.6167904    0.3693583  46.03 0.0005590506    1.679    0.404
       172  -9.1202    131.6512     67.4529   7.8562787148e+01   4.2679937272e+01    0.3047901    0.2644862  47.54   0.00081405    1.160    0.138
       173 -10.5179    145.9213     75.5157   7.7606891696e+01   3.7842190844e+01    0.5132087    0.3460556  21.01  0.001397843    2.067    0.516
       174 -10.7034    141.1147     75.0938   7.8623948440e+01   3.9058437906e+01    0.6370681    0.4606035  -5.73  0.002790859    1.881    0.468
       175  -8.2913    188.7379     80.0111   6.9967193812e+01   2.6554059806e+01    0.1947814    0.1303662 -32.71 0.0003516548    1.477    0.323
       176 -12.1710    122.8245     66.1652   8.0438658601e+01   4.4926274517e+01     1.470724     1.397932 -57.00  0.008102641    1.091    0.083
       177  -8.7062     40.7120    221.6351   1.2604050015e+02   2.5926769485e+01   0.08680551   0.07757957 -62.15 0.0003799206    1.698    0.411
       178 -11.4688    141.8421     41.8888   6.7420083277e+01   4.4485062055e+01     1.322331    0.5271025  56.80  0.004736778    2.439    0.590
       179 -10.8888    145.8418     34.3043   6.3854868747e+01   4.4551172705e+01    0.8264245    0.3623947  66.21  0.002949351    2.599    0.615
       180  -8.3253    234.3020    219.2742   9.1607601638e+01  -2.5055597011e+00    0.1148629   0.06923494  18.31 0.0001926281    1.537    0.349
       181  -9.5657      2.9923    213.2161   1.3200709944e+02   3.1159196949e+01    0.1749317    0.1069386  83.19 0.0008998815    1.272    0.214
       182  -8.4188    225.4126    212.1847   9.1933417891e+01  -3.7521547565e-01    0.1397382    0.1084293 -34.55 0.0007931523    1.649    0.394
       183  -9.6921     26.9719    211.8483   1.2787254054e+02   2.9092939397e+01    0.2018783    0.1045235  42.53  0.001353938    1.688    0.408
       184  -9.7574    244.7608    204.1883   8.7472626205e+01  -2.5285591509e+00    0.1667429    0.1350822  16.11  0.001193363    1.103    0.093
       185  -9.0121    233.9677    199.7951   8.8471332745e+01  -3.5190309271e-01    0.1766215    0.1148632   5.47  0.001054765    1.587    0.370
       186 -11.6843    112.8064     67.8837   8.3742321547e+01   4.6774098555e+01     1.390793    0.7215459 -51.97    0.0055132    2.183    0.542
       187 -10.0582    106.0428     63.1162   8.4122255040e+01   4.9102573639e+01    0.3820412       0.2338 -46.12  0.001727182    1.614    0.381
       188 -12.6348    147.5126     53.3237   7.0115093962e+01   4.1286996244e+01    0.7799641    0.5800889 -43.20  0.003724983    1.376    0.273
       189 -11.3594    139.9917     52.1682   7.1432478044e+01   4.3342039177e+01     1.108165    0.7517917  34.13  0.003891747    1.642    0.391
       190  -9.1451    247.6831     75.6586   5.9661566536e+01   1.3334778885e+01     0.289447    0.1767257 -57.32  0.001333625    2.068    0.516
       191  -9.9941    163.5249     74.8549   7.3469760916e+01   3.3675117315e+01    0.3012969    0.2701671 -85.86 0.0004292077    1.243    0.195
       192  -8.3446    169.5069    200.5207   9.9952521586e+01   1.0470629711e+01    0.1260367    0.1042098  42.92 -2.286648e-05    1.057    0.054
       193  -8.0507    219.2964     74.6363   6.3359874854e+01   1.9944419624e+01    0.1545264    0.1067253 -58.13 0.0007031892    1.716    0.417
       194  -9.0091    178.3718     69.6385   6.8918387414e+01   3.0831139501e+01    0.3361069    0.1608234  38.62  0.001175623    2.604    0.616
       195  -8.8936    169.6998     70.5434   7.0894169184e+01   3.2868213700e+01    0.2889746    0.1431678  50.74  0.001016331    1.976    0.494
       196 -10.3875    150.9189     66.9631   7.3798559378e+01   3.8157293523e+01    0.4421285    0.4051507   3.48  0.001309397    1.153    0.133
       197  -9.5378    163.7289     67.9962   7.1344514827e+01   3.4794307847e+01    0.4113366     0.297403 -64.56  0.001828194    1.730    0.422
       198  -8.7836    156.1597     47.9555   6.6470536291e+01   3.9927203853e+01    0.3396789    0.2121392  22.67  0.001342156    2.250    0.556
       199  -9.9847    165.7221     62.6440   6.9275998740e+01   3.5174193775e+01    0.4173441    0.3130032 -44.48  0.001880568    1.362    0.266
       200  -9.8340    165.9055     55.3379   6.6931742956e+01   3.6287137979e+01    0.7052165     0.333077 -28.77  0.002644474    2.205    0.547
       201 -10.4661    160.1164     51.0674   6.6700526547e+01   3.8435944475e+01    0.4152584    0.4076081 -62.09  0.001201484    1.043    0.041
       202  -9.4861    152.8731     44.2326   6.5884379043e+01   4.1328570339e+01     0.375034    0.2603831 -30.58  0.001739604    1.451    0.311
       203 -10.7466    158.8771     41.9489   6.3907963570e+01   4.0106092325e+01    0.7300836    0.6513464  50.00  0.003862701    1.099    0.090
       204  -9.0415    250.5601     67.5502   5.7295901438e+01   1.3782368053e+01    0.2598469    0.1255616 -24.10 0.0006038431    2.021    0.505
       205  -9.8098    250.5065     63.9868   5.6419425520e+01   1.4257785480e+01    0.3220885    0.1270797 -26.66 0.0009341363    2.386    0.581
       206 -10.8832     67.0031     62.5539   9.6528905020e+01   5.6111342130e+01    0.2386448    0.2145727 -50.48 0.0003539064    1.050    0.047
       207 -12.3890     20.6657     57.0090   1.1237437338e+02   6.2418577791e+01    0.9896199    0.4479206 -45.43 0.0006163054    1.969    0.492
       208  -9.3284    180.5881     60.8949   6.5880563407e+01   3.1648781869e+01    0.3231162    0.2571003 -66.15 0.0006597417    1.441    0.306
       209  -9.0713    188.9624     49.4880   6.0975314059e+01   3.1168013832e+01    0.3879461    0.2247496  54.39  0.001668741    1.692    0.409
       210 -10.0949    185.6255     54.9059   6.3174684954e+01   3.1252592179e+01    0.6400196    0.3139265 -13.90  0.002146859    3.114    0.679
       211 -10.5938    181.9444     51.3728   6.2727436973e+01   3.2723805960e+01     0.801122    0.3672652 -24.57  0.002232783    2.399    0.583
       212  -8.9280    211.6553     59.6504   6.0415692035e+01   2.3953697314e+01    0.2208059    0.1638954  21.93 0.0006411415    1.635    0.388
       213  -9.2999    201.1121     59.6071   6.2013730543e+01   2.6601300772e+01    0.2812237    0.2211751 -20.01 0.0007789151    1.314    0.239
       214 -10.2498    174.3661     56.6192   6.5714903951e+01   3.3907448248e+01    0.6368716    0.3492458  -9.36  0.002227528    2.907    0.656
       215 -12.1967    115.2400     49.4119   7.6727966299e+01   4.9633879294e+01    0.8928984    0.7958826  56.59  0.002385835    1.190    0.159
       216 -10.0331    222.3723     56.6464   5.8075148035e+01   2.1738393308e+01    0.4127918    0.3268017  61.69  0.001512736    1.317    0.240
       217  -8.8500    158.9350     58.1765   6.9254327469e+01   3.7621538073e+01    0.2942431    0.2006863  36.60  0.001148727    1.608    0.378
       218  -9.2613    243.6091     55.1781   5.5017871011e+01   1.6934300332e+01    0.2905377    0.2444873 -61.91  0.001457012    1.234    0.190
       219  -8.9607    234.2430     54.8794   5.6067697629e+01   1.9138120145e+01    0.3498246     0.189076  89.56  0.001343238    3.006    0.667
       220  -8.8595    197.5399     54.6113   6.1128378092e+01   2.8228242182e+01     0.258508    0.2107932  74.78 0.0005509609    1.297    0.229
       221  -9.5531    193.8312     54.1018   6.1569618067e+01   2.9252556368e+01    0.2831803    0.2619862 -42.04  0.000866142    1.067    0.063
       222  -9.8418    127.0088     50.7576   7.4099991676e+01   4.6703602329e+01    0.7253146    0.2530871 -42.87  0.001445533    3.001    0.667
       223  -8.1879    126.5830     44.0000   7.1775040825e+01   4.7905483374e+01    0.4201556   0.08420119  54.94  0.001057953    4.995    0.800
       224  -8.6023    129.6991     46.3346   7.1848352951e+01   4.6788172305e+01    0.2842144    0.1936448 -68.45 0.0004161239    2.157    0.536
       225 -10.2277    130.5103     41.5246   6.9904383987e+01   4.7345714639e+01    0.5770136    0.2253806 -34.66  0.001591433    2.486    0.598
       226  -9.0347    211.6818     51.1031   5.8015447270e+01   2.5129445647e+01    0.3894892    0.2411341  -1.16  0.001607197    2.296    0.565
       227  -9.0431     65.8113     51.0642   9.3215376818e+01   5.8648332796e+01    0.1990931    0.1545627 -26.77 0.0005052574    1.288    0.223
       228  -9.0629    224.9861     49.8685   5.5896369083e+01   2.2007010357e+01     0.259041    0.2007006 -23.57  0.001357243    1.278    0.217
       229  -9.5992    174.8183     48.7968   6.3174933405e+01   3.4956075946e+01    0.3220285    0.2366007 -56.06  0.001151136    1.508    0.337
       230  -9.0179    171.3369     48.4655   6.3700218450e+01   3.5913357268e+01    0.3656045    0.2504186 -30.10   0.00121522    1.467    0.318
       231  -9.1994     27.7856    193.5843   1.2668850366e+02   3.2325577402e+01    0.1963899   0.06994894 -73.33  0.001042815    2.543    0.607
       232  -9.9378     10.9908    192.0713   1.2971802324e+02   3.4229344138e+01    0.2094162    0.1182432  51.76  0.001477678    1.438    0.305
       233  -8.7938    216.0144    189.4760   8.9712433141e+01   3.8808642425e+00    0.1890654   0.08761153  26.79 0.0008101197    2.604    0.616
       234  -9.9903      1.8830    177.8727   1.3073717412e+02   3.7707646664e+01    0.2528106    0.1155097 -87.99  0.001254681    1.770    0.435
       235 -10.0317      2.1978    183.6193   1.3094277960e+02   3.6584010769e+01    0.2560809    0.1085243 -85.79  0.001552081    1.938    0.484
       236 -10.1757    244.9977    187.3950   8.4492993623e+01  -7.2706223123e-01    0.2325082    0.1768167  23.54 0.0004610074    1.093    0.085
       237 -10.2772     11.7214    184.5659   1.2920239761e+02   3.5578067343e+01    0.2449798    0.1317374 -65.16   0.00159838    1.981    0.495
       238 -10.6873    109.9511     35.9749   7.3105915918e+01   5.3010297936e+01    0.3254369     0.244489 -38.87 0.0007339197    1.348    0.258
       239 -11.0934    113.2174     32.4643   7.0826340954e+01   5.2798743656e+01     0.342032    0.2414332 -27.35 0.0004888916    1.406    0.289
       240 -10.9541    109.7704     29.9911   7.0760099516e+01   5.3946110083e+01    0.5613701    0.3375927  65.00  0.001730748    2.038    0.509
       241 -10.2111     66.8663     43.5947   9.0143695472e+01   5.9945151447e+01    0.4478875    0.2243813 -43.25  0.001192592    1.801    0.445
       242  -9.2746    229.1015     45.5043   5.4213709058e+01   2.1573928834e+01    0.3641717     0.218271 -87.68  0.001585623    2.230    0.551
       243  -8.7420    220.8456     46.4083   5.5481507178e+01   2.3471831952e+01    0.2357622    0.1957318  25.61 0.0007069014    1.378    0.274
       244  -9.5491    219.9782     42.4238   5.4494302548e+01   2.4198608397e+01    0.2632833    0.2075295 -22.14 0.0003858446    1.284    0.221
       245  -9.4228     35.8069    185.3765   1.2460313310e+02   3.3049614820e+01    0.1348977    0.1011186  31.00 0.0003954681    1.701    0.412
       246 -10.7235    207.3284     45.4525   5.7016699508e+01   2.6987000736e+01    0.6052685    0.3778881 -52.97  0.002159239    1.729    0.422
       247 -10.3374    214.5069     41.3974   5.4902245574e+01   2.5696863489e+01    0.5273376    0.3036655  -5.57 5.176787e-05    2.453    0.592
       248  -9.5486    203.8768     37.0720   5.5060766037e+01   2.8956982304e+01    0.6417536    0.3640971  18.86  0.002278444    2.974    0.664
       249 -10.5921    219.4815     34.2757   5.2301979940e+01   2.5335842101e+01    0.5028677    0.4102304  66.48  0.001093395    1.250    0.200
       250 -10.3217    211.2818     32.6190   5.2822432076e+01   2.7607780370e+01    0.5415311    0.4940989 -46.36  0.001865891    1.055    0.052
       251  -9.8115      7.6836    185.3556   1.3000142786e+02   3.5786161609e+01    0.1777049   0.09033184  59.03  0.000771991    1.534    0.348
       252 -10.1102      6.1561    182.1271   1.3013060605e+02   3.6532991758e+01    0.1931555    0.1287209 -67.30 0.0005732807    1.658    0.397
       253 -10.8976     19.2929    183.7439   1.2771172962e+02   3.5034911368e+01    0.4020161    0.1933918  32.82  0.002423988    2.289    0.563
       254  -9.4277     27.1219    176.3763   1.2569655885e+02   3.5711865908e+01     0.277126    0.1889833  55.45  0.001954579    1.265    0.209
       255  -9.2290    106.4543     45.0776   7.7607229651e+01   5.2299890919e+01    0.3064964      0.25258   7.05  0.001116241    1.327    0.246
       256  -8.6867     24.1111     46.1542   1.0821697558e+02   6.4482829512e+01    0.1844278    0.1286475   4.78  0.001134825    1.776    0.437
       257  -8.4585    248.5847     45.1950   5.1940575152e+01   1.7059797834e+01    0.1856058    0.1249913 -14.20 0.0004698337    1.619    0.382
       258  -9.0416    179.9934     44.4535   6.0905007990e+01   3.4217392197e+01    0.2713801    0.2116588   5.03  0.000763018    1.520    0.342
       259  -9.9825    199.3781     30.8726   5.3831729147e+01   3.0892629467e+01    0.8119373    0.2867944 -15.82  0.002306893    4.613    0.783
       260  -9.6156    190.7564     40.8677   5.8071558780e+01   3.1879807397e+01    0.4569441    0.2955343 -13.48  0.001543061    1.801    0.445
       261  -9.3152    192.4904     36.4946   5.6481270177e+01   3.1994902253e+01    0.3606274    0.2111991  67.60  0.001139439    1.725    0.420
       262 -10.7200    193.5046     31.8115   5.4911774147e+01   3.2316434692e+01    0.6779665    0.4089911  31.71  0.002863523    2.134    0.531
       263  -9.4163      7.4033    174.4951   1.2950184324e+02   3.7902477528e+01    0.1947024    0.1234131  84.25 0.0007243605    1.209    0.173
       264  -9.7029      9.8377    158.2270   1.2806109292e+02   4.0956785849e+01    0.2706135    0.1144098 -58.43  0.001461458    2.588    0.614
       265  -9.9650    174.5362     38.6152   5.9965012612e+01   3.6453095298e+01    0.3918286    0.2318636  49.87  0.001148982    1.668    0.401
       266  -9.6920     18.4217    165.2270   1.2671527814e+02   3.8780937412e+01    0.2372986     0.139684  78.11  0.001217515    1.400    0.286
       267  -9.9007    181.8201     33.9158   5.7281767038e+01   3.5139230727e+01    0.2740938    0.2237151  42.24 0.0003300259    1.269    0.212
       268  -9.3138    185.8450     24.7625   5.3800820243e+01   3.5187284340e+01    0.4320952    0.1780098 -40.09  0.001627589    2.367    0.577
       269  -9.1887    188.7307     20.0651   5.1944134089e+01   3.4956069712e+01    0.4329945    0.2077897  52.73  0.001020931    2.031    0.508
       270  -8.8676    185.2332     18.1626   5.1807677031e+01   3.6095697954e+01    0.2204414    0.1798894 -74.77 0.0003893329    1.270    0.213
       271 -11.1328     12.5752    164.8509   1.2790518858e+02   3.9376801643e+01    0.4914198    0.2141855  43.00  0.002767334    2.046    0.511
       272 -10.1541    182.9893     27.4710   5.5062679359e+01   3.5625931265e+01    0.2997615    0.2788415 -27.81 0.0006547647    1.104    0.095
       273  -9.6846     84.5894     67.8557   9.2261098068e+01   5.2198213174e+01    0.3009683    0.2445416 -10.63  0.001089339    1.459    0.314
       274 -10.6262      2.6848    160.3690   1.2968520211e+02   4.1097018180e+01    0.4067753    0.1960879 -83.73  0.002057273    1.658    0.397
       275  -8.8353    235.5317     38.9866   5.1750515175e+01   2.0845770766e+01    0.2138385    0.1286192 -28.31 0.0007271528    1.565    0.361
       276  -8.9027    228.8560     37.9614   5.2222864816e+01   2.2575451444e+01    0.2044304    0.1805333  23.58 0.0004743932    1.289    0.224
       277  -8.5462    123.2968     35.7587   6.9513146703e+01   4.9951532170e+01    0.2708872    0.1954465  45.43 0.0007631629    1.357    0.263
       278  -9.2947    127.0319     32.0352   6.7177527192e+01   4.9586043766e+01    0.4994971    0.2135397  47.29  0.001297767    2.266    0.559
       279  -9.7288    136.2021     25.5049   6.2621873182e+01   4.8174563154e+01    0.5152354    0.2035332 -20.42   0.00175848    3.037    0.671
       280 -10.3990    134.9117     33.9695   6.6086800762e+01   4.7368955841e+01    0.3074745    0.2691871  21.41 0.0004068363    1.167    0.143
       281  -9.4785    138.4886     31.9255   6.4539549570e+01   4.6751610137e+01    0.3440289    0.2446205 -45.65  0.001011987    1.516    0.340
       282 -10.7142     16.9882    159.4004   1.2661668941e+02   4.0101638033e+01    0.2920711    0.2154544  15.12  0.002001585    2.058    0.514
       283 -10.2812    246.8948     32.6446   4.8955493468e+01   1.8945927956e+01     0.697206    0.2715108  48.19  0.002701923    3.130    0.681
       284  -9.3061     32.8624    156.3597   1.2290772305e+02   3.9225931009e+01    0.1322843    0.1091705  26.78 0.0001360474    1.604    0.376
       285 -10.9177    236.3804     31.7791   4.9776339829e+01   2.1506193689e+01    0.5432175     0.455991  47.68  0.002946633    1.322    0.243
       286  -8.9601     24.7491    153.7467   1.2449370481e+02   4.0569259861e+01    0.1613287    0.1044362  71.74 0.0006763696    1.313    0.239
       287 -10.8676     11.2724    151.1735   1.2728409768e+02   4.2296654981e+01    0.4491009    0.3626432  40.01  0.003410028    1.465    0.317
       288  -9.9503    238.1299     25.8324   4.8059119434e+01   2.1775847729e+01    0.2869206    0.2634125 -12.71 0.0007663602    1.186    0.157
       289 -11.9377     20.9525    147.4227   1.2483075525e+02   4.2256000727e+01    0.5299796    0.4266447 -77.97  0.002757845    1.205    0.170
       290  -9.6678     15.0946    143.0360   1.2582130989e+02   4.3697182358e+01    0.3522258    0.1717048 -72.73   0.00204812    1.697    0.411
       291  -9.3604     45.9624    149.9682   1.1928938745e+02   3.9185723839e+01    0.1788656    0.1463498  85.38  0.001210694    1.021    0.021
       292 -10.4248     46.1324    144.9841   1.1869737300e+02   4.0245755974e+01    0.3734416    0.2802736 -34.65   0.00197743    1.974    0.494
       293  -9.5009    155.1263     32.9755   6.1547337948e+01   4.2320600199e+01    0.3500228    0.2373525  -6.54  0.001140826    1.774    0.436
       294 -10.2179    227.4601     29.6487   5.0144623465e+01   2.3911780652e+01    0.5021614    0.2824107 -43.20  0.001395008    1.656    0.396
       295  -9.8246    203.9513     26.2202   5.1874161780e+01   3.0255504360e+01    0.5037912     0.401876   4.92  0.002622735    1.482    0.325
       296  -9.7746    248.8417     25.8282   4.7069419826e+01   1.9279566973e+01    0.3463822    0.2519733  39.74  0.001900517    1.673    0.402
       297  -8.6977     71.8863     42.1667   8.7759848346e+01   5.9410294320e+01    0.1763661    0.1426181 -17.13 0.0004249013    1.240    0.194
       298  -8.5920     82.9559     13.2461   7.1335530927e+01   6.1976999574e+01    0.2028941     0.158463  19.16  0.000390416    1.239    0.193
       299  -8.3343     61.5563     15.6198   8.0192599925e+01   6.5572341357e+01    0.1245151    0.1119194 -11.92 -2.016367e-05    1.104    0.094
       300 -11.1512     27.6558    137.2859   1.2233542647e+02   4.3829698194e+01    0.4918619      0.30077 -77.08  0.002203042    1.369    0.269
       301  -9.4675     30.7727    151.2786   1.2292453520e+02   4.0510476655e+01    0.2140528    0.1565862 -71.25 0.0007698152    1.302    0.232
       302 -10.0421     34.7264    150.5693   1.2195443039e+02   4.0264007629e+01    0.2482782    0.1729793  57.50  0.001161151    1.309    0.236
       303 -11.8800     39.4548    146.2440   1.2042157475e+02   4.0701692373e+01    0.8700376    0.4521503  45.12  0.003526743    1.833    0.454
       304 -10.3922     22.5299    137.1313   1.2356107204e+02   4.4330234884e+01    0.2860853    0.2003392 -66.27  0.001898902    1.360    0.265
       305  -9.5299     23.2336    133.1857   1.2301493114e+02   4.5129770567e+01    0.2276285    0.1764372 -27.70  0.001491285    1.933    0.483
       306  -9.1249     86.9395    149.5107   1.0953766663e+02   3.3861921567e+01    0.2059536    0.1829678 -44.85  0.001275525    1.372    0.271
       307  -9.7494     66.4523    148.2355   1.1423688310e+02   3.7051379177e+01    0.2327649    0.1705027  43.53  0.001398415    1.385    0.278
       308 -12.4423     51.9376     91.8217   1.0896890941e+02   5.1597748755e+01     2.205452    0.7372869 -48.03  0.008432349    3.009    0.668
       309 -11.2004      4.5346     98.8588   1.2451123411e+02   5.4149222629e+01    0.5915766    0.2830651 -57.69  0.001570113    1.820    0.450
       310 -11.8904      5.5439     78.5052   1.2173077101e+02   5.8632781870e+01     1.527144    0.3824086 -70.00  0.006382565    2.876    0.652
       311 -11.2099     58.0029     48.1908   9.5141444098e+01   6.0346527834e+01    0.8795526    0.6707242 -67.03  0.004971962    1.565    0.361
