#   1 NUMBER                 Running object number                                     
#   2 MAG_AUTO               Kron-like elliptical aperture magnitude                    [mag]
#   3 X_IMAGE                Object position along x                                    [pixel]
#   4 Y_IMAGE                Object position along y                                    [pixel]
#   5 X_WORLD                Barycenter position along world x axis                     [deg]
#   6 Y_WORLD                Barycenter position along world y axis                     [deg]
#   7 A_WORLD                Profile RMS along major axis (world units)                 [deg]
#   8 B_WORLD                Profile RMS along minor axis (world units)                 [deg]
#   9 THETA_WORLD            Position angle (CCW/world-x)                               [deg]
#  10 FWHM_WORLD             FWHM assuming a gaussian core                              [deg]
#  11 ELONGATION             A_IMAGE/B_IMAGE                                           
#  12 ELLIPTICITY            1 - B_IMAGE/A_IMAGE                                       
         1 -11.3408     91.4301      9.8081   8.9032331461e+00   6.0797341396e+01    0.4169203     0.212275  35.21  0.001374362    2.361    0.576
         2 -11.0107     49.3851      8.2423   2.2516228555e+01   7.1040060789e+01    0.2157794    0.1594077  38.31  0.001200489    1.220    0.180
         3 -10.2641      5.8520      7.8885   5.4443925265e+01   7.7931500066e+01    0.1434243    0.1399318  16.28  0.001003663    1.300    0.231
         4 -10.4097    123.0168      7.2840   1.8479627867e+00   5.2634468717e+01    0.1978422    0.1632875  79.26 0.0003183131    1.079    0.073
         5 -10.5904     68.0356      5.7408   1.3378157857e+01   6.7077473105e+01    0.1939926    0.1574598  47.68 0.0003777875    1.091    0.083
         6 -10.3921      7.2689      2.0495   4.9043262867e+01   7.8882195534e+01    0.1474526   0.09624313 -41.49 0.0005785151    1.432    0.302
         7 -10.8856    145.4744      1.2873   3.5694619919e+02   4.7171276202e+01    0.2130082    0.1101104  78.70 0.0001904093    1.734    0.423
         8 -10.5176    238.0000    247.9234   3.9128665930e+01  -4.9629906517e+00    0.1444664   0.04865308 -32.76 0.0007957342    2.896    0.655
         9 -11.7015    139.1861    248.9170   5.7020606223e+01   6.2733814098e+00    0.2914813    0.1570572 -41.29  0.001721885    2.300    0.565
        10 -11.2227    124.8588    249.4699   5.9991534385e+01   8.0000843676e+00     0.211983    0.1675404  12.66 0.0007413073    1.204    0.169
        11 -10.9893    121.0653    248.6834   6.0689863966e+01   8.5957245277e+00    0.1738283    0.1167194  27.75 0.0004497618    1.134    0.118
        12 -10.3716     83.6811    250.3063   6.8674195367e+01   1.2972896736e+01    0.1221328   0.06809916  49.80 0.0005888376    1.634    0.388
        13 -12.3982     71.0181    238.4582   7.0479776799e+01   1.6501706085e+01    0.3741346     0.215744 -51.00 0.0008015304    2.288    0.563
        14 -12.7702     72.6836    231.2341   6.9536078275e+01   1.7596769151e+01     0.468504    0.2946092 -58.22  0.001520855    1.970    0.492
        15 -11.6404     65.7442    249.6348   7.2421284278e+01   1.5192659146e+01    0.3643774    0.1222197  35.74  0.001102453    2.025    0.506
        16 -13.2974     65.2729    245.8987   7.2268052640e+01   1.5881784051e+01    0.6912054    0.2745461  32.16  0.003534263    1.867    0.464
        17 -15.8780     25.6914    190.9722   7.8024885622e+01   3.1156305736e+01     3.335855     1.062719 -82.09   0.01308651    3.403    0.706
        18 -14.5619     15.0288    165.6444   7.9429643636e+01   3.8055950902e+01      1.41653    0.5576053  69.25  0.005766657    2.682    0.627
        19 -14.2003     36.5740    247.8409   7.8468135179e+01   1.8686288809e+01    0.9162534    0.6224499  48.99  0.004614202    1.111    0.100
        20 -14.1749     14.7158    195.5253   8.1054302429e+01   3.1171313927e+01     0.767539    0.5689546 -87.21  0.003746999    1.357    0.263
        21 -14.1013      9.6325    209.0030   8.2821363900e+01   2.8739416411e+01    0.6911703    0.4428264  11.48   0.00407279    1.935    0.483
        22 -13.7822     10.9681    189.8991   8.1752473432e+01   3.2745261357e+01    0.8353057     0.447378   1.56  0.003908425    2.940    0.660
        23 -14.3360      6.5871    184.2970   8.2645540471e+01   3.4371090520e+01    0.7848024    0.4989316  41.09  0.002332483    1.327    0.246
        24 -14.4700      3.2460    201.4527   8.4079570010e+01   3.0867050444e+01    0.8339915    0.4461872 -81.40  0.004752146    1.882    0.469
        25 -14.0743     20.5635    247.7578   8.1781906827e+01   2.0289922173e+01    0.6486357    0.3186966  24.36  0.003640869    1.919    0.479
        26 -15.1110      3.6908    223.5774   8.4611048770e+01   2.6314029430e+01     1.519295    0.8325121 -52.30  0.008603008    2.686    0.628
        27 -16.2357      8.7372    237.7407   8.3917577878e+01   2.3187325093e+01     1.964069    0.9600294  25.86   0.01152272    1.861    0.463
        28 -16.1244     16.3266    228.8441   8.2014350837e+01   2.4168638276e+01     1.632926     0.932024  53.36   0.01027865    1.340    0.254
        29 -14.0535      1.7799    249.5795   8.5614709790e+01   2.1674342841e+01    0.2774019     0.152926  76.19  0.001598989    1.706    0.414
        30 -14.4474      6.4112    247.8817   8.4655460068e+01   2.1568012684e+01    0.5422098    0.2079954  49.69  0.002660716    1.759    0.431
        31 -12.4157    179.4785    246.2507   4.8887968151e+01   1.6500110222e+00    0.4313449    0.2278273   2.20  0.001770254    2.403    0.584
        32 -10.7989    214.8687    247.1813   4.2763000805e+01  -2.4965876521e+00    0.1488484     0.115031  11.03 0.0005315581    1.242    0.195
        33 -11.1752    106.1849    246.8298   6.3611249630e+01   1.0758251018e+01    0.1585433    0.1190568  14.14  0.000414646    1.328    0.247
        34 -10.7082    143.3223    243.1366   5.5514826987e+01   6.5716737716e+00    0.2021081   0.09768977 -38.78   0.00108666    2.551    0.608
        35 -10.8782    131.1556    244.1021   5.8111591749e+01   7.9931466209e+00    0.1607096    0.1166986  41.00  0.000595136    1.324    0.245
        36 -11.3673    162.9190    242.6441   5.1566044858e+01   4.1502908827e+00    0.1734257    0.1512444   0.46 0.0003298367    1.248    0.198
        37 -10.9693    126.3531    241.4165   5.8807510340e+01   9.0179539955e+00    0.1729502    0.1557336 -54.99 0.0007141063    1.489    0.328
        38 -10.2047     82.2952    242.3074   6.8321566809e+01   1.4470261063e+01    0.1098695   0.08568282   1.51 0.0001954267    1.587    0.370
        39 -10.6952    117.4826    241.4600   6.0678407066e+01   1.0160393623e+01     0.122478   0.09381034  27.71 0.0004903654    1.023    0.022
        40 -10.7183    149.5892    239.1995   5.3769513649e+01   6.3290998492e+00    0.1483084    0.1036098 -23.77  0.000766319    1.639    0.390
        41 -12.4000    102.5833    237.5149   6.3469521899e+01   1.2724584876e+01    0.3286456    0.2174488 -56.77  0.001503986    1.923    0.480
        42 -11.6175    217.3512    237.7239   4.1017807620e+01  -1.7191460170e+00    0.1658044    0.1288407   7.22 0.0004983307    1.196    0.164
        43 -11.0554     79.7600    237.2207   6.8452386805e+01   1.5658279001e+01    0.2378625    0.1897217   9.97  0.001573501    1.425    0.298
        44 -10.8488    210.9416    235.9491   4.1848071793e+01  -7.9615264068e-01     0.144516     0.129512  24.03 0.0009917921    1.677    0.404
        45 -10.6154    138.1671    236.1716   5.5733395705e+01   8.2686731610e+00    0.1584917    0.1179648  39.32            0    1.299    0.230
        46 -10.3113     88.2826    236.6459   6.6521082546e+01   1.4696712592e+01     0.124416   0.07613697  54.27 0.0006510997    1.661    0.398
        47 -11.2472    121.0381    235.2710   5.9242223533e+01   1.0675899064e+01    0.1841429    0.1295328  28.97  0.001155723    1.111    0.100
        48 -12.0551    222.7185    232.6921   3.9395148709e+01  -1.7455340540e+00    0.2287747    0.1435589  -9.30 0.0006732644    1.354    0.262
        49 -12.7637     58.4814    234.3017   7.2955589032e+01   1.8723635804e+01    0.4823568    0.1940316  60.88  0.002121533    3.073    0.675
        50 -11.3532     61.6873    231.3561   7.2027702667e+01   1.8893097480e+01    0.1739014    0.1206492  88.30  0.001081913    1.693    0.409
        51 -11.1696     61.1877    228.5866   7.1937318672e+01   1.9468249977e+01    0.4538856    0.1760376  18.55  0.001676867    3.902    0.744
        52 -11.8365    180.9216    231.1606   4.6567802043e+01   3.4154452249e+00    0.3069028    0.1580629  38.95  0.001711775    1.951    0.487
        53 -11.5958    142.9810    231.6875   5.4176282217e+01   8.3082622976e+00    0.1794282    0.1662378  10.53 0.0003855285    1.235    0.191
        54 -11.0820    122.9607    231.3195   5.8374885227e+01   1.1056339912e+01    0.1806283    0.1278061  30.51 0.0004510694    1.112    0.101
        55 -11.9898    194.6343    228.8982   4.3702512941e+01   1.9962240622e+00    0.2166016    0.1981825  20.97 0.0003663478    1.521    0.343
        56 -11.5859    230.9315    228.7860   3.7480217814e+01  -2.2087332417e+00    0.1500381    0.1199044  38.92  0.001095887    2.042    0.510
        57 -11.1595     98.0000    227.9777   6.3516271653e+01   1.4956642134e+01    0.1680108   0.07338329 -60.98 0.0007126146    2.881    0.653
        58 -11.8123     80.8244    226.1457   6.7242579280e+01   1.7515073173e+01    0.2756166    0.2371855 -13.41  0.001768569    1.472    0.320
        59 -10.7036    138.1765    227.1237   5.4602385731e+01   9.6649162740e+00    0.1587849    0.1321608  44.76 0.0004797556    1.343    0.255
        60 -11.7514     49.2810    226.9007   7.4535826398e+01   2.1157939627e+01    0.2258041    0.1282844  41.77  0.001304603    1.338    0.253
        61 -11.7828    116.9243    225.7206   5.9038564345e+01   1.2803238225e+01     0.199095    0.1847481  76.66 0.0005903765    1.364    0.267
        62 -11.2659    114.5948    221.7444   5.9088117603e+01   1.3806410786e+01    0.1998856    0.1225758 -49.22  0.001111536    1.966    0.491
        63 -12.5386     47.4902    235.3020   7.5459875584e+01   1.9777774940e+01    0.4065513    0.2038237  76.94  0.002149116    2.421    0.587
        64 -10.5465    182.4809    225.4874   4.5459623429e+01   3.9776327426e+00    0.1199962   0.09192567  11.53 0.0002495653    1.005    0.005
        65 -12.4884     93.1822    223.6529   6.4165876985e+01   1.6368142663e+01    0.3632157    0.2585905  -4.16  0.002046101    1.902    0.474
        66 -12.1173    159.7217    222.0859   4.9441282616e+01   7.4908771798e+00    0.4188372    0.2005459  34.19  0.001977603    1.742    0.426
        67 -10.5372     73.0436    222.6964   6.8731270173e+01   1.9141646624e+01    0.1774672    0.1333336  39.58 0.0004301682    1.056    0.053
        68 -12.5950     57.5628    221.0862   7.2215156330e+01   2.1331545170e+01    0.3525075     0.280719 -37.34 0.0009422357    1.705    0.414
        69 -12.2441    188.8815    220.9152   4.3580221884e+01   3.7691901576e+00    0.2922972    0.1666121  19.35  0.001701256    1.550    0.355
        70 -12.2867     50.1120    221.7430   7.4001608394e+01   2.2063694112e+01    0.3108343    0.1725144  51.62  0.001736566    1.522    0.343
        71 -13.2331     44.7935    220.7388   7.5174062241e+01   2.2856546771e+01    0.5387887    0.3055072 -80.58  0.003048536    2.001    0.500
        72 -13.4099     47.7691    213.1161   7.3958208422e+01   2.4055231615e+01    0.6010391    0.3455509  66.92  0.002277163    1.781    0.439
        73 -12.8052     40.4896    213.3931   7.5722325177e+01   2.4805762654e+01    0.4119242    0.3376801 -64.92  0.001256418    1.476    0.323
        74 -10.9494    212.9691    220.6265   3.9222752902e+01   8.0067912735e-01    0.2075119    0.1527376 -26.68  0.001288403    1.435    0.303
        75 -12.2998    173.7249    219.7004   4.6298705839e+01   5.9396215698e+00    0.2852853    0.2156491 -38.05  0.001185916    1.567    0.362
        76 -10.6266    237.6114    220.2962   3.5131185491e+01  -1.9878250316e+00    0.0903978   0.08152339  21.70 6.273873e-05    1.780    0.438
        77 -11.7379     77.5785    219.7587   6.7406337417e+01   1.9128119499e+01     0.296994    0.1667272  38.15 0.0008297292    1.402    0.287
        78 -10.3972     67.1455    220.3215   6.9906900282e+01   2.0328012156e+01    0.1921775    0.1419524  15.16  0.001145863    1.501    0.334
        79 -12.6345    145.6459    216.6875   5.1614339557e+01   1.0291484922e+01    0.3503544    0.3219749 -73.93  0.001659541    1.541    0.351
        80 -11.9032    124.2926    221.9770   5.6956283753e+01   1.2421449321e+01    0.3197116    0.1552753  31.97  0.001599028    1.664    0.399
        81 -11.7265     63.7043    217.1915   7.0459178431e+01   2.1361069048e+01    0.2462982    0.1961377  50.70 0.0009162886    1.084    0.077
        82 -11.9961    121.4710    216.7418   5.6925946616e+01   1.3716640835e+01    0.2613939    0.2152081  58.68 0.0004565606    1.437    0.304
        83 -10.7758     94.8505    217.3439   6.3113681394e+01   1.7308112694e+01    0.1797511    0.1325896  31.81 0.0003076029    1.124    0.110
        84 -10.8068    225.1216    215.8287   3.6436880897e+01  -5.7139391453e-02    0.1599818    0.1341426   1.82  0.001223737    1.302    0.232
        85 -10.7957    129.7083    216.6568   5.5075843856e+01   1.2562059263e+01    0.1270737   0.09078734  -3.01 0.0004172875    1.656    0.396
        86 -11.7910    107.9133    214.7717   5.9778850729e+01   1.5981714336e+01    0.2375778    0.1951017 -69.90 0.0009281478    1.534    0.348
        87 -11.3271     77.7176    213.8919   6.6815300967e+01   2.0246770071e+01    0.5070704    0.1420829  39.69  0.001983154    2.637    0.621
        88 -10.2122     68.9742    213.0654   6.8840528351e+01   2.1528309285e+01    0.1516375    0.1245206  44.66 -0.001877172    1.019    0.019
        89 -10.9177     72.6651    212.4188   6.7890166170e+01   2.1189351091e+01     0.220028    0.1045921  31.50 0.0006487092    1.745    0.427
        90 -11.7051     86.6861    214.9136   6.4778471487e+01   1.8866897240e+01    0.2797663    0.2212443 -63.06  0.001741122    1.518    0.341
        91 -11.2838     83.6911    214.3413   6.5432038859e+01   1.9375532539e+01    0.2679487    0.2093277  83.07  0.001056861    1.514    0.339
        92 -11.4250    155.6867    213.0958   4.8978039533e+01   9.4378294726e+00    0.2635828    0.1618346  25.24    0.0014714    1.395    0.283
        93 -10.9283    133.5027    213.4893   5.3810361470e+01   1.2558687583e+01    0.1305272    0.1070018  23.95 4.924935e-05    1.009    0.009
        94 -12.0369    229.2991    208.3137   3.4560020966e+01   3.5648386524e-01    0.3699686    0.1818719 -18.07  0.002015754    2.069    0.517
        95 -12.4768    226.7002    206.3182   3.4658076075e+01   9.1095143629e-01    0.3336266    0.2605143 -54.98  0.002083475    2.584    0.613
        96 -10.6381    209.4887    211.0332   3.8323495600e+01   2.4403898165e+00    0.1605445    0.1014044 -28.90 0.0005930141    1.533    0.348
        97 -10.5794    187.3363    210.6426   4.2291492750e+01   5.3929507019e+00    0.1087157   0.09545109  55.48 0.0007040877    1.807    0.447
        98 -11.4922    180.0255    208.9090   4.3422352492e+01   6.6448146181e+00    0.3110792      0.14952 -26.76  0.001493589    2.479    0.597
        99 -11.1354     96.7964    208.8276   6.1694203521e+01   1.8658789797e+01    0.2939942    0.1750396 -70.42  0.001374659    2.194    0.544
       100 -10.4056     59.7165    210.6523   7.0875815246e+01   2.3158731874e+01    0.1176645   0.09654048 -22.32 0.0003025626    1.648    0.393
       101 -10.6021     59.5008    207.4722   7.0660993091e+01   2.3839048392e+01    0.2260519     0.110911  29.51 0.0007778305    1.773    0.436
       102 -12.2432     52.6467    209.7875   7.2530834524e+01   2.4177446708e+01    0.2940663    0.1833818  41.83 0.0004289771    1.282    0.220
       103 -10.6577     55.5233    206.4656   7.1559668926e+01   2.4527567897e+01    0.2068332    0.1232746  55.14 -1.241625e-05    1.530    0.346
       104 -11.0607     52.7337    204.0020   7.2052928617e+01   2.5376269836e+01    0.2687879    0.1692871  58.42 0.0009475719    1.475    0.322
       105 -11.6576    169.4860    208.5075   4.5448604616e+01   8.1861975138e+00     0.252281    0.1912691  66.01  0.001054083    2.459    0.593
       106 -10.6845     89.5750    208.7021   6.3418506990e+01   1.9683442858e+01    0.1548562    0.1241236  82.95  0.000921271    1.482    0.325
       107 -12.3804    160.6814    207.2696   4.7061191253e+01   9.6438078434e+00    0.2565127    0.1956021  24.34 0.0002137433    1.105    0.095
       108 -11.5808    105.9576    208.5164   5.9474037551e+01   1.7422888192e+01    0.2098988    0.1107436  33.04 0.0004662664    1.571    0.363
       109 -13.0651     36.5972    204.3758   7.6093443140e+01   2.7107395727e+01    0.5309333    0.3493776  20.10  0.002283929    1.620    0.383
       110 -11.0787    116.2676    203.9973   5.6454194911e+01   1.6776468047e+01    0.1802423    0.1631145  29.64 0.0004741156    1.078    0.072
       111 -11.5406     90.8330    189.1684   6.0758937832e+01   2.3502725284e+01    0.4666348    0.2847821  88.43  0.002092502    2.494    0.599
       112 -11.6086     92.7542    193.7586   6.0856355012e+01   2.2257871275e+01     0.326207    0.2785008  71.37  0.001433078    1.281    0.219
       113 -12.0233     89.2919    201.3182   6.2645664770e+01   2.1197792594e+01     0.341061    0.2320429 -58.89  0.001418306    1.703    0.413
       114 -11.8073     91.5236    198.5167   6.1756283183e+01   2.1453555061e+01    0.2858564    0.2653201  87.89  0.001046518    1.220    0.180
       115 -13.6188    144.9081    199.9677   4.9319843191e+01   1.3200224995e+01    0.6806112    0.4731258  39.68  0.003840235    1.359    0.264
       116 -12.2551    138.0224    196.9722   5.0400988852e+01   1.4782160043e+01    0.3347018    0.2403634 -24.17  0.001563855    1.606    0.377
       117 -11.4262    212.3641    200.1181   3.6042383994e+01   3.5057325135e+00    0.2703664    0.1963285 -50.72  0.001641001    2.228    0.551
       118 -10.9648    121.4503    201.4528   5.4886398453e+01   1.6481297577e+01    0.1345948    0.1139254  30.55 9.785189e-05    1.020    0.020
       119 -10.8257     49.2732    199.4621   7.2559731267e+01   2.6752085635e+01    0.3152911    0.1876148 -51.96  0.001591992    2.076    0.518
       120 -10.9295    180.0347    198.9974   4.1822981629e+01   8.1250525023e+00    0.1772801    0.1463652  10.50 0.0004023805    1.024    0.024
       121 -13.4594    173.6430    195.6000   4.2532203651e+01   9.5904503348e+00    0.3746994    0.2925026  36.73 0.0006134424    1.335    0.251
       122 -11.5519    134.5726    198.5350   5.1423977854e+01   1.5029229708e+01    0.2523081    0.2152942  77.33 0.0004389229    1.608    0.378
       123 -12.4275    122.3827    196.6730   5.3983212085e+01   1.7239679099e+01     0.458399    0.2775028  58.20  0.002126365    2.271    0.560
       124 -11.3362     84.3774    198.1096   6.3501504232e+01   2.2542741958e+01    0.3271669    0.1895282  79.43  0.001406076    2.659    0.624
       125 -11.2332    224.9676    198.0142   3.3568766003e+01   2.1661478634e+00    0.1482344    0.1408432 -17.11 0.0005324982    1.616    0.381
       126 -12.3813     37.1108    196.6200   7.5448810621e+01   2.8730347459e+01    0.4028222    0.1961419  59.71  0.001943566    1.964    0.491
       127 -13.3065     37.1034    189.8663   7.4972050787e+01   3.0234576869e+01    0.4767609    0.2537453 -68.72  0.001611089    1.984    0.496
       128 -12.2268    192.0827    195.8152   3.8974811290e+01   6.8731446282e+00     0.372947    0.2886467   6.37  0.002410641    1.093    0.085
       129 -11.5122    189.4657    192.4791   3.8901316333e+01   7.7438610741e+00    0.2328304    0.1883503 -16.95 0.0006916563    1.170    0.145
       130 -11.4654    101.2555    196.3508   5.9061372824e+01   2.0483252228e+01    0.2740797    0.2446914   5.05   0.00167314    1.216    0.177
       131 -10.5052     43.9986    197.5515   7.3755496306e+01   2.7770050945e+01    0.2007973    0.1091012  32.30  0.001021522    1.579    0.367
       132 -10.8907    115.9787    195.9683   5.5410905805e+01   1.8351634320e+01    0.1975325     0.172604  35.78 0.0003622864    1.054    0.052
       133 -11.4838    202.2818    195.0253   3.6963271442e+01   5.5583898867e+00    0.1987445    0.1505493  18.81 0.0004445882    1.167    0.143
       134 -11.4573    212.1402    193.6185   3.4982195836e+01   4.4116058826e+00    0.2391778    0.1579087  31.05  0.001490548    1.478    0.323
       135 -11.7569    160.5551    193.1925   4.4842047141e+01   1.1964834298e+01    0.2497343    0.2245783 -11.73 0.0008501087    1.153    0.133
       136 -10.9267     41.6702    191.6565   7.3907646272e+01   2.9333622572e+01    0.1933737    0.1496069 -31.21  0.001102455    1.766    0.434
       137 -12.0397    133.9297    190.6026   5.0349359617e+01   1.6588852113e+01    0.3289403    0.2326993  25.21  0.001118548    1.287    0.223
       138 -11.8458     50.6399    189.9121   7.1402057293e+01   2.8695054741e+01     0.262612    0.1861024  47.19 0.0004002661    1.194    0.163
       139 -11.9882    174.5323    188.8089   4.1199902244e+01   1.0541466549e+01    0.2351762    0.1624522  27.00 0.0006402408    1.297    0.229
       140 -11.6341    168.4595    189.0049   4.2477439466e+01   1.1443338174e+01     0.207921    0.1552958  26.20 0.0005808637    1.188    0.158
       141 -11.4473    207.7954    187.0858   3.4606266458e+01   5.9152083869e+00     0.292396    0.1536975   1.93   0.00127369    3.019    0.669
       142 -11.9960    110.6730    187.8054   5.5531685529e+01   2.0789157848e+01    0.3088124      0.18547  27.53  0.001487639    1.568    0.362
       143 -12.7183    126.5635    186.0791   5.1375379707e+01   1.8623853808e+01    0.4542511    0.2095139  37.90  0.001969451    1.900    0.474
       144 -12.2288     79.6805    173.5999   6.1680561385e+01   2.8579365119e+01    0.4555092    0.3191211 -17.06  0.002139035    2.103    0.524
       145 -11.8991     76.2109    185.7344   6.4164633524e+01   2.6334652130e+01    0.3950013    0.2797299 -55.18  0.001824025    1.597    0.374
       146 -11.3675     75.3778    180.2194   6.3719198328e+01   2.7685237615e+01    0.2827716     0.192518 -71.76 0.0008320726    1.636    0.389
       147 -11.0057     70.4979    186.9300   6.5823866729e+01   2.6849479942e+01    0.2704994    0.1536399  44.61 0.0006807563    1.533    0.348
       148 -11.3848    248.5029    185.9611   2.7871669098e+01   7.8585677640e-01    0.2060644    0.1282678  10.21 0.0009023095    1.546    0.353
       149 -11.7875    156.9787    185.9502   4.4389568783e+01   1.3765579275e+01     0.212439    0.1806934  13.39  0.001064372    1.034    0.033
       150 -11.5152    163.1992    184.8236   4.2858834112e+01   1.2970824816e+01    0.2340393    0.1628889  38.91   0.00128417    1.403    0.287
       151 -10.6391    100.0647    184.7068   5.7772655979e+01   2.3068408166e+01    0.1936418    0.1609966  34.03 0.0002014889    1.065    0.061
       152 -10.3240    233.1516    197.1765   3.2111187360e+01   1.2596488046e+00    0.1372605    0.1162317  -7.29 0.0002581387    1.278    0.218
       153 -11.0688     65.8068    184.2691   6.6786349505e+01   2.8069958850e+01    0.2097672    0.1675013  49.69  0.001007311    1.098    0.089
       154 -11.6450     94.3618    181.9246   5.8863663345e+01   2.4532517357e+01    0.2970556    0.2590984 -86.06  0.001050293    1.296    0.228
       155 -11.9254    134.2158    182.0086   4.8887545255e+01   1.8174350652e+01    0.2363107       0.1792  30.99 0.0002464045    1.174    0.148
       156 -11.4542    142.0002    181.3027   4.6948280011e+01   1.7032931641e+01    0.1978153    0.1641134  29.19 0.0004739329    1.081    0.075
       157 -10.7682    185.3931    193.2001   3.9805426063e+01   8.2282086214e+00    0.1795669     0.155132  57.43 0.0008334056    1.738    0.425
       158 -10.7799    222.6775    180.6682   3.0937716459e+01   4.7527249301e+00    0.1262091    0.0782253  -1.85 0.0005008781    1.701    0.412
       159 -12.5082    116.2883    178.2712   5.2657357584e+01   2.1852326898e+01    0.3495072    0.2632918 -42.61  0.001864521    1.475    0.322
       160 -14.6437      4.9424    164.5503   8.2252066337e+01   3.9119796722e+01     1.488816    0.4735152 -82.78   0.00594113    2.946    0.661
       161 -11.9233    191.1001    177.6882   3.5967068619e+01   9.7648293455e+00    0.2062709    0.1680122 -36.01 0.0006030693    1.347    0.258
       162 -11.1672    166.9691    178.0090   4.0851110096e+01   1.3535218328e+01    0.2087834    0.1469199  -0.47            0    1.600    0.375
       163 -12.6282    137.1464    176.5194   4.7258351923e+01   1.8750651245e+01    0.3975338    0.2860919 -70.18  0.001535146    2.008    0.502
       164 -10.8254     63.5721    176.9882   6.6585124959e+01   3.0033329671e+01    0.2562802    0.1856704  12.78 0.0008923311    1.623    0.384
       165 -12.3487     31.8474    176.3120   7.5389772646e+01   3.3919903485e+01    0.2871963    0.1952387  38.47 0.0006685228    1.299    0.230
       166 -11.8237    106.6775    175.5223   5.4684981124e+01   2.3988741402e+01    0.2686064    0.2292683  49.39 0.0007086654    1.140    0.123
       167 -11.9036    144.9661    172.8251   4.4771199935e+01   1.8141534315e+01    0.2227142    0.1768732  68.55  0.001160232    1.752    0.429
       168 -10.9881    208.3800    171.7905   3.1731352770e+01   8.0440394933e+00    0.1808061    0.1027979 -24.54 0.0005001771    1.706    0.414
       169 -12.6465    197.9616    170.6488   3.3378800014e+01   9.7989483772e+00    0.3297919    0.2332018 -15.93   0.00136392    1.357    0.263
       170 -12.9554    153.0400    170.2988   4.2465678678e+01   1.7240270390e+01    0.2696267    0.2621883  51.45 0.0003485393    1.223    0.182
       171 -11.6201     36.3936    170.7654   7.3659650291e+01   3.4767992353e+01     0.224476    0.1644318 -69.10 0.0007143416    1.427    0.299
       172 -12.2599    127.2121    166.0460   4.7817047520e+01   2.2546609859e+01    0.3393839    0.2316572  23.66  0.001237236    1.510    0.338
       173 -11.3627    118.0704    169.6926   5.0777798737e+01   2.3350451362e+01     0.303426    0.2372092 -11.99 0.0009481295    1.555    0.357
       174 -12.0403    122.0665    168.0000   4.9463866074e+01   2.3027020457e+01    0.3575266    0.1988531  37.40  0.001598911    1.633    0.388
       175 -11.9299    101.9976    169.9991   5.5046456417e+01   2.5948200144e+01    0.2172153    0.1974791  34.20  0.000348519    1.026    0.025
       176 -13.0681    127.1679    176.5030   4.9659851814e+01   2.0420633469e+01    0.3988763    0.3511386 -51.27   0.00231013    1.280    0.219
       177 -10.8567     62.0231    170.5303   6.6271576922e+01   3.1756496175e+01    0.2132546    0.1288091  30.62 0.0005182661    1.546    0.353
       178 -11.9067    159.6265    168.1695   4.0604546361e+01   1.6504642405e+01    0.2374795    0.1758804  41.67 0.0005785617    1.361    0.265
       179 -11.6501     85.1561    168.0615   5.9371291360e+01   2.9039779634e+01    0.3053454     0.158369  54.32  0.001239371    2.190    0.543
       180 -11.4545     31.0284    167.7593   7.4956843068e+01   3.6054581909e+01    0.3722742    0.1472087  47.40  0.001564912    2.206    0.547
       181 -10.9919     52.7749    167.6296   6.8612191765e+01   3.3636233437e+01     0.204083    0.1105626  39.58 0.0007166628    1.613    0.380
       182 -11.0068     99.8528    166.3701   5.5040796212e+01   2.7105675157e+01     0.202471    0.1313807  23.23 0.0001079796    1.640    0.390
       183 -11.0583    110.8316    165.1864   5.1888419434e+01   2.5543426049e+01    0.2022274    0.1678393   7.52 0.0006096311    1.336    0.251
       184 -11.9543     91.1996    170.9598   5.8125425490e+01   2.7446890995e+01    0.3436189    0.2636477 -50.46  0.001405413    1.443    0.307
       185 -10.3899    162.2682    164.3035   3.9287798163e+01   1.6753135572e+01    0.1372121    0.1014563  -3.44  0.000153744    1.530    0.346
       186 -11.3538    141.7682    162.9389   4.3684117776e+01   2.0617820941e+01    0.2319812    0.1907198  29.36 0.0003579023    1.129    0.114
       187 -11.2012     44.8096    172.1508   7.1375580421e+01   3.3499449736e+01    0.2114397    0.1611809  54.21 0.0005577764    1.160    0.138
       188 -10.7299    229.6034    161.8076   2.6362470863e+01   6.3788459983e+00    0.1636823   0.09872697 -39.14 0.0005427068    1.651    0.394
       189 -12.2326     24.5823    161.1176   7.6329805123e+01   3.8312583376e+01    0.3395838    0.2704236 -37.31  0.001947587    1.572    0.364
       190 -12.7171    170.0782    159.8268   3.6743369507e+01   1.6198903606e+01    0.3548686    0.2809468 -69.79  0.001861942    1.894    0.472
       191 -10.6733     40.4907    161.5388   7.1608312690e+01   3.6574455365e+01    0.1381166    0.1235334  60.88 8.578158e-05    1.021    0.021
       192 -11.4736    105.7393    159.0862   5.2194717567e+01   2.7763651040e+01     0.345966    0.1869542  48.57  0.001440356    1.904    0.475
       193 -12.6457    133.3743    157.1090   4.4598477635e+01   2.3303405440e+01    0.3893584    0.2700918 -52.95  0.001613361    1.596    0.373
       194 -11.2508    160.0811    156.9167   3.8306827928e+01   1.8500817701e+01    0.1983652    0.1909716  57.63            0    1.229    0.187
       195 -11.1739    190.6275    155.4751   3.1783903466e+01   1.3408207212e+01    0.2139742    0.1188817 -37.12 0.0005874292    1.727    0.421
       196 -11.2071    141.3308    155.4667   4.2330457113e+01   2.2189225456e+01    0.2219819    0.1791786 -73.97 0.0006309073    1.651    0.394
       197 -13.0687     83.9586    150.1385   5.6885993638e+01   3.3478088828e+01    0.4823963    0.3263612 -23.37   0.00123313    2.160    0.537
       198 -11.5159     76.7086    154.9901   5.9845103774e+01   3.3426959190e+01    0.3362118    0.1426813  51.87  0.001175553    2.766    0.639
       199 -10.7616     20.8429    154.3685   7.6948160658e+01   4.0335047930e+01    0.2547333    0.1938867 -57.64  0.001441619    1.438    0.305
       200 -13.2424      3.4224    151.1864   8.2064487587e+01   4.2497543408e+01    0.6468831    0.3696139 -65.96  0.002350322    1.746    0.427
       201 -13.1600     14.2638    152.8517   7.8857582718e+01   4.1273461990e+01    0.7118524    0.2790241  70.64   0.00244817    2.800    0.643
       202 -13.0382      9.4210    146.2312   7.9936455487e+01   4.3314561220e+01    0.4018613    0.2385161 -82.31  0.001938075    1.553    0.356
       203 -13.7789     10.9875    141.9117   7.9155658069e+01   4.4297078321e+01    0.5660605    0.3692361  57.14 0.0005609619    1.398    0.285
       204 -14.0809     15.0132    132.3697   7.7093303394e+01   4.6457275981e+01    0.6186807    0.4615221 -67.09  0.001511596    1.306    0.234
       205 -12.5815     20.4104    130.7924   7.5083428980e+01   4.6435413853e+01    0.4603757    0.2014056 -60.21  0.001953654    2.162    0.538
       206 -12.4318    172.2492    151.3215   3.4564814039e+01   1.7332767997e+01    0.4319296    0.1857897 -43.62  0.001755152    2.373    0.579
       207 -12.7950     51.8193    152.2619   6.7095151137e+01   3.7555614607e+01    0.3660441    0.2806891  -0.85  0.001863724    1.668    0.400
       208 -11.8513     96.3272    149.0181   5.3036084456e+01   3.1697447690e+01    0.2775404    0.2065118  45.02 0.0004479347    1.271    0.213
       209 -11.5026     99.7165    150.9917   5.2421731442e+01   3.0652875288e+01    0.2233586    0.2021745  -3.59 0.0003207388    1.233    0.189
       210 -11.0391     69.9408    158.0373   6.2323471829e+01   3.3680437694e+01    0.2254862    0.1738728 -23.28 0.0007354414    1.693    0.409
       211 -11.8970    108.7457    148.9804   4.9496747015e+01   2.9530893229e+01    0.3247246    0.2759624 -54.43 0.0007386363    1.252    0.201
       212 -11.0634     90.9997    149.9862   5.4768068539e+01   3.2365752662e+01    0.1770137    0.1695154  58.19 0.0009772887    1.034    0.033
       213 -12.9589     28.0626    148.8998   7.4237403873e+01   4.1050214874e+01    0.4311918    0.3447505 -36.68  0.001983131    1.520    0.342
       214 -11.3614    147.0193    148.7278   3.9600546775e+01   2.2484643095e+01    0.2054095    0.1834057  25.95 0.0004167234    1.063    0.060
       215 -11.5192     37.1752    149.3753   7.1385105369e+01   3.9997155777e+01    0.2034482    0.1130192  38.75 0.0005754128    1.635    0.388
       216 -12.0255     19.2101    148.4735   7.7006224679e+01   4.1966001516e+01    0.4142426    0.2112519  50.96  0.001382677    1.799    0.444
       217 -11.3141    166.0036    147.9962   3.5183853717e+01   1.9077732790e+01    0.2021819    0.1765494  85.51 0.0003385538    1.568    0.362
       218 -12.2590    170.9500    145.5261   3.3617563521e+01   1.8615030859e+01    0.2725381     0.242039  23.87 0.0004205175    1.095    0.086
       219 -12.9127    101.9544    142.5598   5.0171963958e+01   3.2234521016e+01    0.6569723    0.3835965  62.18  0.002238418    2.421    0.587
       220 -12.1589     24.3583    144.7834   7.5052792122e+01   4.2452576168e+01     0.365084    0.1873434  26.85  0.001595355    1.910    0.477
       221 -11.4789    187.0360    143.9648   3.0085853488e+01   1.5958546523e+01    0.2044872    0.1858233 -11.06 0.0003623965    1.028    0.027
       222 -11.8555     29.0698    156.1732   7.4572441211e+01   3.9112015891e+01    0.2036073    0.1822191 -45.57  0.000900287    1.315    0.240
       223 -12.0555    209.0891    141.8836   2.5717348529e+01   1.2473591025e+01     0.312884    0.2356812  65.62  0.001514823    2.024    0.506
       224 -11.0115    143.8141    143.2185   3.9195422766e+01   2.4203998663e+01    0.2038389    0.1694532   1.65 0.0004324561    1.326    0.246
       225 -12.5927     77.4337    142.2651   5.7533377124e+01   3.6450586950e+01    0.3382107    0.2057691  54.98  0.001454536    1.775    0.437
       226 -12.7584     50.7944    142.4886   6.6144091022e+01   4.0176785356e+01     0.439787     0.255421  30.80  0.001251722    1.664    0.399
       227 -10.9691    178.8160    142.6067   3.1393697950e+01   1.7685279670e+01    0.1956942    0.1306043  52.12 0.0009574767    1.752    0.429
       228 -12.5681     93.8872    140.7321   5.2194819253e+01   3.4094681877e+01    0.3649375    0.2973748 -33.72   0.00114772    1.401    0.286
       229 -14.1656     39.7228    136.3845   6.9041336059e+01   4.3076496043e+01    0.6846404    0.5438059  51.50  0.001655033    1.190    0.160
       230 -13.0381    122.4089    128.8637   4.1465193887e+01   3.1483454628e+01    0.5075916    0.3975073 -36.00  0.002466906    1.365    0.268
       231 -12.7415    130.1867    128.4769   3.9306551121e+01   2.9998347789e+01    0.3174605    0.2822123  19.77 0.0005190058    1.164    0.141
       232 -13.2407    128.7527    136.4588   4.1489830870e+01   2.8557426435e+01    0.5927786    0.4874811 -84.77   0.00170997    1.551    0.355
       233 -12.8674    123.2699    134.5794   4.2524201783e+01   3.0045269646e+01    0.4441557    0.3394651  10.90 0.0001828959    1.610    0.379
       234 -11.4739     60.0460    139.3045   6.2638035278e+01   3.9776077717e+01    0.2021437    0.1814246  44.77 0.0003557694    1.073    0.068
       235 -12.7537     67.4208    136.0660   5.9680507800e+01   3.9548998991e+01    0.4041295    0.2608383 -87.74  0.001759029    1.895    0.472
       236 -11.1005     54.5026    136.5318   6.4056857963e+01   4.1239950093e+01    0.1464473     0.136991  66.92 2.032031e-05    1.008    0.008
       237 -12.9012    200.5169    132.8769   2.5264095512e+01   1.5384868246e+01    0.3591411    0.2862646  22.23 0.0003773857    1.315    0.239
       238 -11.7980    196.6958    131.2932   2.5584625443e+01   1.6333277082e+01    0.2358699    0.1552304 -45.09 0.0002537464    1.558    0.358
       239 -12.4862    102.8633    133.8315   4.8117313191e+01   3.4127088622e+01    0.3771822    0.2526011  37.57  0.001061322    1.433    0.302
       240 -12.8941     59.8070    133.7929   6.1838629438e+01   4.1230660817e+01    0.4895753    0.1848288  35.31  0.001781284    2.398    0.583
       241 -11.0642     77.9679    132.9727   5.5671888323e+01   3.8693278501e+01    0.1843994    0.1766485  67.37 0.0004551696    1.017    0.016
       242 -11.7673     31.3944    131.1913   7.1284251715e+01   4.5320779368e+01    0.2541138    0.1977278  55.25 0.0003477341    1.224    0.183
       243 -11.9044     50.2736    130.7494   6.4622834766e+01   4.3295320522e+01    0.1962483    0.1695181 -33.99   0.00104302    1.327    0.246
       244 -10.3024    230.4181    130.5327   2.0067227956e+01   1.0679239051e+01    0.1248543    0.1027908 -23.22 0.0001148293    1.017    0.017
       245 -12.6965     83.4168    127.7179   5.2863017487e+01   3.9101147060e+01    0.3491768    0.2568616 -37.00  0.001155602    1.571    0.363
       246 -10.9417     94.3250    128.3059   4.9522064222e+01   3.7024378704e+01    0.1555978    0.1228185 -11.38 0.0004096459    1.646    0.392
       247 -13.3860     56.4094    128.0852   6.2058140597e+01   4.3184420910e+01    0.5196373    0.2860975  23.53  0.002168627    1.986    0.497
       248 -12.4432     59.5040    124.5456   6.0358442440e+01   4.3678288062e+01    0.2127236    0.2017555 -67.89 0.0007143556    1.077    0.072
       249 -12.3352      6.0910    112.2558   7.8641138786e+01   5.2348680463e+01    0.5077043    0.1858197  47.59  0.001999457    2.728    0.633
       250 -12.4234     11.3931    112.2755   7.6601851512e+01   5.2010767591e+01    0.3881918    0.1951178 -69.43  0.001142945    1.768    0.434
       251 -13.8938     14.1024    120.1281   7.6330363212e+01   4.9741732721e+01     0.774489    0.5174036 -70.16  0.002490158    1.382    0.276
       252 -11.8023    174.4803    134.1116   3.0402400354e+01   2.0016467617e+01    0.2597634    0.2067634   2.49 0.0005292591    1.390    0.281
       253 -10.8367    109.4636    127.5234   4.4796318462e+01   3.4350052303e+01    0.1538866    0.1488911  26.40  6.13003e-05    1.041    0.040
       254 -12.7302     65.0050    126.2495   5.8749460079e+01   4.2434389532e+01    0.3565896    0.2192028 -64.98 0.0007520213    1.649    0.394
       255 -14.2529     77.8041    120.2770   5.3166424769e+01   4.1928543292e+01    0.6542729    0.5660068 -20.39 0.0006994442    1.351    0.260
       256 -12.5543     73.5970    114.7587   5.3425529502e+01   4.4036545062e+01    0.2388864     0.228266  -5.97   0.00127372    1.141    0.123
       257 -12.2753     49.2810    124.6631   6.4016458573e+01   4.5022184935e+01    0.5137652    0.1681262 -48.58   0.00162716    3.483    0.713
       258 -11.9335     41.7478    125.2893   6.6823806647e+01   4.5768861121e+01     0.365079    0.1927353  71.48  0.001415039    2.472    0.595
       259 -11.9320     26.4853    125.3188   7.2347910383e+01   4.7344424797e+01    0.2434136    0.2243161  20.55 0.0009808969    1.195    0.163
       260 -11.8687    169.9543    122.8539   2.8739380207e+01   2.2964346058e+01    0.3589335    0.1874806 -35.52  0.001515988    1.917    0.478
       261 -11.5401    125.9837    123.8128   3.9316627644e+01   3.1872809062e+01    0.2376481    0.2070561   8.22 0.0006549733    1.279    0.218
       262 -12.2150    193.5693    121.8370   2.4023445493e+01   1.8484131043e+01    0.2211741    0.1691239  52.48  0.001207345    1.475    0.322
       263 -10.8622    179.0271    121.9024   2.6713974529e+01   2.1311225237e+01    0.2095395    0.1938838 -17.92 0.0004484461    1.018    0.018
       264 -12.4782    104.9071    121.2920   4.4702436794e+01   3.6698828709e+01    0.4518073    0.2646165  48.39  0.001218429    1.730    0.422
       265 -11.8655    100.2456    119.5897   4.5721519677e+01   3.8011463018e+01    0.2668893    0.2255092  38.46 0.0002817634    1.157    0.135
       266 -11.6874     21.0318    122.1648   7.3984081046e+01   4.8660243155e+01    0.2156743    0.1769123 -53.36 0.0007703254    1.273    0.214
       267 -10.4314    212.4592    121.5072   2.0829658570e+01   1.5051805956e+01    0.1322404    0.1140914 -19.44 5.197395e-05    1.042    0.040
       268 -13.3127      9.3376    126.2767   7.8577635038e+01   4.8459142629e+01    0.4987811     0.269429 -18.64  0.002186183    2.671    0.626
       269 -10.5442    224.4378    120.5078   1.8825332533e+01   1.3120827270e+01    0.1279953    0.1077502 -25.32 9.336719e-05    1.008    0.008
       270 -11.8084     94.1068    117.4588   4.7148067460e+01   3.9700811040e+01    0.3221541    0.2159586 -74.71  0.001338528    1.928    0.481
       271 -10.5953     29.5992    116.6979   7.0117523838e+01   4.9344906025e+01    0.1831678    0.1290129 -88.40 0.0002939249    1.400    0.286
       272 -13.2221     83.3398    114.6106   5.0025845332e+01   4.2388925062e+01    0.4621581    0.3289389  87.04  0.001987259    1.874    0.466
       273 -12.0478     65.3538    104.7746   5.4181588983e+01   4.7938293428e+01     0.346453    0.2288375  13.87  0.001074662    1.946    0.486
       274 -13.5635     63.1884    111.7571   5.6534545546e+01   4.6470476406e+01    0.5994785    0.3470902 -68.39  0.001455728    1.844    0.458
       275 -11.6149     58.7486    113.9959   5.8638002433e+01   4.6546130993e+01    0.3441558     0.212659  35.57 0.0005718075    1.583    0.368
       276 -12.2036    167.2779    112.3459   2.6750366401e+01   2.5457066299e+01    0.4887111    0.2092195  38.17  0.001740413    2.851    0.649
       277 -12.3517    115.6195    113.6937   3.9695803867e+01   3.6278752724e+01    0.6854092    0.4189707  11.79  0.001857412    3.351    0.702
       278 -11.1076    198.6511    111.3101   2.0738828381e+01   1.9238116171e+01    0.2295203    0.1507721 -37.60 0.0006449197    1.384    0.277
       279 -12.6989      7.7785    118.0225   7.8483355801e+01   5.0726584051e+01    0.4255665    0.2832107  -5.81  0.001260524    1.871    0.466
       280 -11.6226    105.1022    102.4784   3.9878926929e+01   4.1045860034e+01    0.3742406    0.2630766  39.57 0.0008344388    1.414    0.293
       281 -12.5648    108.7924    107.8449   4.0188937660e+01   3.9039380224e+01    0.2807835    0.2729755  66.01 0.0003720898    1.022    0.022
       282 -12.2365    109.7400    103.9520   3.8869197543e+01   3.9726613988e+01    0.3139293    0.2851351 -62.40 0.0004209785    1.139    0.122
       283 -12.6955      6.0125    100.1318   7.7572911674e+01   5.5557530942e+01    0.5175183    0.2311045  53.00  0.001880192    2.398    0.583
       284 -11.9447      8.9948     97.3258   7.6022794008e+01   5.6130280342e+01    0.4392386     0.250727  28.99  0.001917781    1.815    0.449
       285 -10.4736    139.6761    107.3274   3.1649408837e+01   3.2442541055e+01    0.1575245    0.1232517 -85.81 0.0007049219    1.694    0.410
       286 -12.6751    104.5637    114.9348   4.3273238121e+01   3.8261639696e+01      0.30874    0.2258404  22.02  0.001142179    1.616    0.381
       287 -11.5906      1.9536    107.0208   7.9822194122e+01   5.3953954454e+01    0.2039726    0.1810974 -83.12  0.000510687    1.031    0.030
       288 -12.5706     79.1265    102.3537   4.8515520337e+01   4.6201465189e+01    0.3030879     0.274383  58.83   0.00113747    1.111    0.100
       289 -11.5769    154.1790    101.2046   2.6667412194e+01   3.0410537449e+01     0.321644    0.2717398 -87.35  0.001225621    1.407    0.289
       290 -12.2759     55.9337    101.3882   5.7059489365e+01   5.0248962705e+01    0.2969871     0.232575 -51.53 0.0004430831    1.273    0.214
       291 -11.2469     57.4977     97.5086   5.5543650553e+01   5.1025218662e+01    0.3222261    0.2468252  49.39 0.0009047605    1.342    0.255
       292 -11.0863    185.0936    101.3142   2.0642119457e+01   2.3637365661e+01    0.1877694    0.1801555  58.36  0.000397984    1.124    0.110
       293 -12.2995     85.4825    100.4962   4.5785840840e+01   4.5472842244e+01    0.2722813    0.2690527  15.68 0.0006143283    1.048    0.046
       294 -13.3235     93.8029     98.9762   4.2541895825e+01   4.4198425931e+01    0.6817249    0.3077713  47.79  0.002412934    2.294    0.564
       295 -10.8268    208.5063     99.4969   1.6454447839e+01   1.9189909597e+01    0.1343882    0.1187206 -36.07 -2.361789e-05    1.021    0.021
       296 -11.4487    162.2261     99.3821   2.4480805316e+01   2.8947501263e+01    0.2048912    0.1426271  63.81 0.0008174159    1.647    0.393
       297 -12.0299    178.4726     96.7083   2.0660579370e+01   2.5836370953e+01    0.3395235    0.2263203 -53.66  0.001087536    1.625    0.385
       298 -13.5827     78.2678     92.2666   4.6133455687e+01   4.8839316600e+01    0.4176089    0.3478875  55.59  0.002059938    1.241    0.194
       299 -13.6625     74.9704     90.1621   4.6778356487e+01   4.9962202950e+01    0.4657591    0.3518197  27.60  0.001743488    1.411    0.291
       300 -12.4939     10.3629    105.3484   7.6314777322e+01   5.3916601848e+01    0.5962138     0.345836 -29.41  0.001732467    2.110    0.526
       301 -10.7707     41.1310     91.7695   6.1095274871e+01   5.4737942406e+01    0.2137149    0.1868776  61.84 0.0004887847    1.191    0.160
       302 -10.2871    125.3276     90.9746   3.0785536204e+01   3.9065265012e+01     0.266672    0.1197892 -60.05 0.0007047082    4.460    0.776
       303 -12.1027     88.8754     89.7775   4.1604217908e+01   4.7360135836e+01    0.2414209    0.2185627  -3.39 0.0007573471    1.244    0.196
       304 -10.7293     28.0467     90.4759   6.6635790243e+01   5.6491372243e+01    0.2081968    0.1405968  23.27 0.0009661958    1.564    0.361
       305 -12.3569      3.4212     88.0511   7.7456302815e+01   5.8877705235e+01    0.4266771    0.2718885 -79.76  0.002229206    1.407    0.289
       306 -12.5372     64.2241     88.6378   5.0569833207e+01   5.2219312082e+01    0.3277618    0.2360587  -2.66  0.001002189    1.925    0.480
       307 -10.9946    100.4894     86.4900   3.6725275480e+01   4.5653122703e+01    0.1571025    0.1533136  22.76 0.0008098376    1.058    0.055
       308 -10.3289     36.4870     86.4534   6.2003830139e+01   5.6673525651e+01    0.1433642    0.1370427 -62.16 8.872357e-05    1.008    0.008
       309 -11.4604    134.5798     84.2236   2.6425736740e+01   3.8238429472e+01    0.2813814     0.261689  16.35 0.0008174282    1.183    0.155
       310 -10.4410    236.8756     83.8503   9.2839708204e+00   1.6157573354e+01    0.1646242    0.1240505 -51.19 0.0002507541    1.266    0.210
       311 -12.3141    164.2091     83.0681   1.9681260371e+01   3.1410374347e+01     0.290866    0.1957047 -54.43  0.001012842    1.585    0.369
       312 -12.3102     54.8783     85.7777   5.3691855685e+01   5.4420360445e+01    0.5108173    0.4588703 -10.50  0.002725689    1.213    0.176
       313 -12.9006     88.6997     79.3897   3.8469992233e+01   4.9774224082e+01    0.4780564    0.3029305 -41.15   0.00161614    1.653    0.395
       314 -10.9434      8.5950     77.7132   7.3697914102e+01   6.1322896025e+01     0.307743    0.1526422 -75.53  0.001388494    1.839    0.456
       315 -11.4872      4.5475     80.0882   7.6001873948e+01   6.0911714155e+01    0.2267651    0.2188671 -36.48 0.0004483847    1.116    0.104
       316 -10.4219    207.3184     80.2904   1.2052070680e+01   2.2330695972e+01    0.1282604    0.1028081  12.09 0.0003889217    1.599    0.375
       317 -10.5995     52.5131     79.9917   5.3147109240e+01   5.6230508718e+01    0.2179677    0.1456825 -60.95 0.0004003953    1.498    0.332
       318 -10.7475    182.1523     79.1208   1.5457441001e+01   2.7941051209e+01     0.201451    0.1595162 -62.81 0.0005192289    1.326    0.246
       319 -11.9388    112.7208     78.5829   3.0502747439e+01   4.4559443553e+01    0.4315251     0.307124  89.20  0.001776365    2.051    0.512
       320 -10.4902     11.8046     86.7899   7.3461634630e+01   5.8748778300e+01    0.1886667    0.1479866  62.96 0.0004655621    1.330    0.248
       321 -12.0501    151.6223     81.6700   2.1807033569e+01   3.4635195815e+01    0.3436131    0.2494923  10.05 0.0009441468    2.053    0.513
       322 -11.8110     74.9229     76.3456   4.2617039805e+01   5.3257661746e+01    0.2652999    0.2136164 -62.89 0.0007357692    1.335    0.251
       323 -11.2652    115.8366     75.0989   2.8490726746e+01   4.4522522364e+01    0.2452917     0.215619  86.03 0.0006664122    1.233    0.189
       324 -10.4838    129.6847     73.9543   2.4474769186e+01   4.1383246521e+01    0.2050799    0.1906131 -47.31 0.0002976051    1.088    0.081
       325 -11.2131    104.9634     73.0457   3.1005794640e+01   4.7507738822e+01    0.2390143    0.2285966  76.13 0.0004480161    1.050    0.047
       326 -12.0835     61.6633     73.0933   4.7045014801e+01   5.6445176210e+01    0.2494695    0.2057885  48.09 0.0003357512    1.254    0.203
       327 -11.4017      2.6893     70.9515   7.5729015275e+01   6.3368731164e+01    0.3905181    0.1959227  88.02  0.001698551    2.122    0.529
       328 -11.9644     70.8294     70.0852   4.2178210112e+01   5.5478780224e+01    0.3646964     0.264588   2.41 0.0005104746    1.937    0.484
       329 -10.4820     10.4877     81.9987   7.3401530227e+01   6.0091411878e+01    0.2025998    0.1231976 -74.01 0.0009977344    1.488    0.328
       330 -11.4359    162.9082     68.9112   1.5909917761e+01   3.4100843961e+01    0.2174362    0.1959884  20.87  0.001171416    1.294    0.227
       331 -11.1781    154.1926     68.5719   1.7434851038e+01   3.6286684938e+01    0.2560261    0.1997452 -41.38  0.000266103    1.255    0.203
       332 -12.4149     60.6972     67.9921   4.5789137247e+01   5.7810331477e+01    0.4123177    0.2469392 -57.04  0.001454666    1.759    0.432
       333 -12.5789     54.9298     68.6174   4.8606329266e+01   5.8630873770e+01    0.2806357    0.2603812   8.45 0.0005128497    1.101    0.092
       334 -10.6528    214.5244     73.4642   9.4919797947e+00   2.1848689654e+01     0.131198    0.1150323 -41.23 0.0001291838    1.027    0.027
       335 -11.4407     48.3020     67.4466   5.1352872762e+01   5.9937124539e+01    0.4442168    0.2474064  26.77  0.001897828    1.914    0.477
       336 -10.8545      9.2417     67.5204   7.1716943815e+01   6.3926432150e+01     0.247588    0.1233304  22.15  0.001137965    2.113    0.527
       337 -10.1885    160.3039     65.3002   1.5321927238e+01   3.5320078323e+01     0.144843    0.1160323  22.57 0.0002805596    1.589    0.371
       338 -11.3458    172.8607     62.4937   1.2393880594e+01   3.2709837038e+01     0.234335     0.189814 -41.84 0.0002930861    1.173    0.147
       339 -11.5968    109.8538     60.1457   2.5077134294e+01   4.8834852810e+01    0.2414146    0.2124499 -82.05 0.0007092337    1.234    0.190
       340 -11.9309     41.7115     58.4678   5.1698180458e+01   6.3019784145e+01    0.3065057    0.3017252 -52.58 0.0009315624    1.075    0.070
       341 -11.3092     12.5333     59.9412   6.8383664381e+01   6.5652167137e+01    0.2448941     0.206367   7.40 0.0008232403    1.270    0.213
       342 -12.2025     36.5671     55.4321   5.3417641355e+01   6.4422938038e+01    0.4757469    0.3381624 -29.15  0.001919401    1.499    0.333
       343 -10.7886     31.6862     56.3336   5.6430117153e+01   6.4806646669e+01    0.1920935    0.1347364   9.24 0.0005316467    1.571    0.364
       344 -10.8931    153.9862     57.3134   1.4051679608e+01   3.8154810228e+01    0.2126131    0.1879208  82.59 0.0007778009    1.112    0.100
       345 -10.5433     92.1466     57.1549   2.9452744834e+01   5.3645710144e+01    0.1991214    0.1776822 -81.75   0.00029171    1.253    0.202
       346 -12.2463     23.1600     55.7788   6.1145675909e+01   6.5837323537e+01    0.3853469    0.2635619 -17.93  0.001270049    1.626    0.385
       347 -10.9149    193.5437     56.4601   7.8243007867e+00   2.8753727928e+01    0.1357261    0.1237021 -53.20 5.849219e-06    1.037    0.036
       348 -13.2500    115.5080     53.6869   2.1204166677e+01   4.8562629371e+01    0.5263289    0.4036077  58.86 0.0004076113    1.256    0.204
       349 -10.5837    197.8624     54.8124   6.8640599154e+00   2.8007824796e+01    0.1991653    0.1425313 -62.60  0.001069947    1.387    0.279
       350 -13.0284    109.1258     51.8453   2.2237075042e+01   5.0486650913e+01    0.5473439    0.4116186 -53.57  0.001519192    1.434    0.303
       351 -12.6321    100.4613     50.0984   2.4069754399e+01   5.2941726945e+01    0.4564232    0.3112042 -79.13   0.00187558    2.211    0.548
       352 -12.6138     30.6486     50.1671   5.4951500992e+01   6.6384213629e+01    0.3437973    0.2707017  42.63  0.001391139    1.404    0.287
       353 -10.1459    205.2579     48.3272   4.3721388046e+00   2.7233535982e+01    0.1209273    0.1020653   8.35 0.0002053884    1.557    0.358
       354 -11.5231     19.5178     47.7596   6.0933592826e+01   6.8103251046e+01     0.268072    0.1120587 -56.89  0.001132388    2.077    0.519
       355 -11.6500    173.7845     50.1988   8.7453143147e+00   3.4288640113e+01    0.4244913    0.2318772 -57.60  0.001824854    2.020    0.505
       356 -11.6722    143.1432     42.0973   1.1117698819e+01   4.3198437048e+01    0.2611338    0.1873368 -20.56  0.001247448    1.624    0.384
       357 -11.3121    119.0112     39.9093   1.5231850518e+01   4.9840670699e+01    0.3719049    0.2151023 -34.48  0.001609577    1.792    0.442
       358 -12.1389     35.0703     40.0822   4.8368848916e+01   6.8075785006e+01    0.3570711    0.2547473   8.02  0.001629873    1.551    0.355
       359 -11.6327     32.9950     36.9806   4.8281631778e+01   6.9019872563e+01    0.2062535    0.1901478 -19.83            0    1.029    0.029
       360 -11.2439     88.0757     39.0170   2.3415072394e+01   5.7822777640e+01    0.4674595     0.207309 -25.20  0.001588542    3.172    0.685
       361 -10.8027    113.7697     38.9782   1.6110311421e+01   5.1345253111e+01    0.2009751    0.1933284 -64.63 0.0003033822    1.074    0.069
       362 -11.0817     80.8555     36.3861   2.4726573226e+01   5.9967632792e+01    0.2518305    0.2040277 -47.85  0.001007691    1.345    0.257
       363 -11.5444      9.5192     36.7617   6.4160314691e+01   7.1470014970e+01    0.2262497    0.1738869   9.92 0.0006978354    1.349    0.259
       364 -11.6818     53.0258     33.6102   3.5294683715e+01   6.6399411094e+01    0.2540509    0.2050153 -33.38  0.000329819    1.256    0.204
       365 -11.9704     31.5379     32.1792   4.6985469536e+01   7.0215501224e+01    0.3720958    0.2278536  39.87  0.001846483    1.743    0.426
       366 -10.7425     14.7013     33.0522   5.9067085506e+01   7.1918298069e+01    0.1812464    0.1537663 -38.09 0.0003487419    1.053    0.050
       367 -10.7290    106.5440     32.4593   1.5282948521e+01   5.4157212993e+01    0.1487137    0.1385754  75.21 0.0001709478    1.033    0.032
       368 -12.2551     46.0981     26.1682   3.5079069653e+01   6.9011793506e+01     0.476003    0.2802118 -40.81  0.002290878    1.747    0.428
       369 -10.8235     19.7745     26.2286   5.2325596650e+01   7.2895422459e+01     0.417904    0.1253266 -51.02 0.0008842972    2.917    0.657
       370 -11.6179     76.1232     26.9311   2.1945014919e+01   6.2533972614e+01    0.2131658    0.1994811  42.42 0.0003459947    1.015    0.015
       371 -11.0665     67.7954     25.9911   2.4657541439e+01   6.4591256228e+01    0.2235695    0.1494802  30.62  0.001058989    1.616    0.381
       372 -11.6649     85.3037     24.2035   1.7538538158e+01   6.0689184902e+01    0.2656845    0.2244076  81.53 0.0003822304    1.288    0.224
       373 -10.2043      1.5490     25.5045   6.6597803428e+01   7.4508126819e+01    0.1265381    0.1078796 -39.06 0.0001528632    1.010    0.010
       374 -11.5861     89.8002     21.7361   1.5030919681e+01   5.9879177952e+01    0.2317647    0.2265502 -33.44 0.0003081687    1.110    0.099
       375 -11.1441     70.0518     21.3434   2.1341192116e+01   6.4743447357e+01    0.1972998    0.1746981  45.87 0.0009863952    1.049    0.047
       376 -12.3783    116.5929     18.6533   7.4338791954e+00   5.3217238610e+01    0.2599248    0.2359852  78.89 0.0002789926    1.010    0.010
       377  -9.9016    197.6877     18.2787   3.5736107288e+02   3.2523660230e+01    0.1370202   0.07998714 -60.85 0.0003374487    1.565    0.361
       378 -11.4477    114.5959    248.0087   6.1963339214e+01   9.5149770924e+00    0.2786629    0.1092311 -52.41   0.00139724    3.209    0.688
       379 -12.0373     99.0919    247.2057   6.5146205098e+01   1.1586760300e+01    0.2900172      0.19113   9.21  0.001728355    1.782    0.439
       380 -11.6847     53.7709    248.7632   7.4899592677e+01   1.6689476085e+01    0.2153424    0.1569373  50.67  0.001166049    1.139    0.122
       381 -12.8426     50.7446    245.3422   7.5342658179e+01   1.7615767367e+01    0.5155481    0.3383796 -41.67  0.003173087    2.317    0.568
       382 -11.3791     46.4589    248.5345   7.6428818965e+01   1.7525247413e+01     0.197536    0.1499599  15.00 0.0009273544    1.526    0.345
       383 -10.7513    248.4940    247.9874   3.7533287639e+01  -5.9829096552e+00    0.1063796   0.08197072 -37.84  0.000584633    2.398    0.583
