#   1 NUMBER                 Running object number                                     
#   2 MAG_AUTO               Kron-like elliptical aperture magnitude                    [mag]
#   3 X_IMAGE                Object position along x                                    [pixel]
#   4 Y_IMAGE                Object position along y                                    [pixel]
#   5 X_WORLD                Barycenter position along world x axis                     [deg]
#   6 Y_WORLD                Barycenter position along world y axis                     [deg]
#   7 A_WORLD                Profile RMS along major axis (world units)                 [deg]
#   8 B_WORLD                Profile RMS along minor axis (world units)                 [deg]
#   9 THETA_WORLD            Position angle (CCW/world-x)                               [deg]
#  10 FWHM_WORLD             FWHM assuming a gaussian core                              [deg]
#  11 ELONGATION             A_IMAGE/B_IMAGE                                           
#  12 ELLIPTICITY            1 - B_IMAGE/A_IMAGE                                       
         1 -14.0026    188.2275     22.2722   7.1042546997e+01   3.5014140599e+01     1.956351     1.296899  -2.07  0.007525654    1.894    0.472
         2 -13.7990    194.6281     16.0233   6.8374480864e+01   3.4061238103e+01     1.754198      1.02204 -31.94  0.006022923    1.723    0.419
         3 -13.8628    200.9285      8.9832   6.5640284087e+01   3.3187285339e+01     1.528076    0.7519754  52.13  0.001380949    1.990    0.497
         4 -10.7725     32.8964      8.0085   1.0648388630e+02   6.9082787867e+01    0.5600643   0.06264216 -41.49  0.001326357    9.874    0.899
         5 -11.7662     77.1505    188.2856   1.3583439858e+02   2.6809899840e+01    0.2825034     0.214014 -50.43 0.0005783074    1.596    0.374
         6 -11.4903    248.6340    248.9223   1.1275064312e+02  -9.0720490019e+00    0.3263408    0.2267828  -8.09  0.002396809    1.407    0.289
         7 -11.0541    119.9865    238.5417   1.3334371655e+02   1.1763840212e+01    0.2749041    0.1803744 -82.36  0.001265571    2.024    0.506
         8 -13.1330    126.8917    243.9340   1.3271881700e+02   9.9290236334e+00    0.7163809    0.4322738  34.10  0.004432504    1.640    0.390
         9 -12.9395    106.7374    248.0997   1.3657281727e+02   1.2236740940e+01    0.7088321    0.3240038  36.50  0.003905481    2.141    0.533
        10 -11.9865     98.1985    249.3246   1.3811043873e+02   1.3241176710e+01    0.3793286    0.2684879  57.88  0.001775841    1.105    0.095
        11 -11.2607    101.4823    246.4738   1.3730607964e+02   1.3218632265e+01    0.2252235    0.1732116  73.00 0.0008467447    1.232    0.188
        12 -14.1127     32.2470    246.0880   1.4841107849e+02   2.1822836423e+01     1.651011    0.6733665  43.63   0.01070239    1.986    0.497
        13 -16.4476      9.6408    240.0864   1.5151193778e+02   2.5062092224e+01      16.4777     1.361309 -76.37    0.0365501   10.166    0.902
        14 -11.8263     72.6990    195.1692   1.3748320471e+02   2.6057647624e+01    0.3875138     0.270101 -58.35  0.002465983    1.583    0.368
        15 -10.3071     67.8143    196.8572   1.3861109098e+02   2.6366426652e+01    0.3040151    0.1526441  58.40 0.0008577807    1.923    0.480
        16  -9.3413    125.3984    185.3956   1.2548391713e+02   2.0000160402e+01    0.2569567     0.116081  29.21 0.0009519719    3.382    0.704
        17  -9.4398     94.0374    179.2417   1.3119072960e+02   2.6211318793e+01    0.2168581    0.1222931  63.24  0.001052956    2.043    0.510
        18 -11.1871     85.3817    176.2388   1.3263010048e+02   2.8087728687e+01    0.2287804    0.2047181 -78.33 0.0004256543    1.127    0.113
        19 -13.3622     73.2109    173.7169   1.3490886200e+02   3.0290959919e+01    0.4369613    0.2620852 -44.42  0.001656601    2.186    0.542
        20 -11.8596     50.3821    129.9777   1.3422872862e+02   4.2606646896e+01    0.3676794     0.250774  53.61  0.001210245    1.576    0.366
        21 -13.2653     91.6716    167.7023   1.3006869775e+02   2.8930961593e+01     2.746214    0.5324113  46.49  0.001926773    5.394    0.815
        22 -13.3824     58.0076    131.3171   1.3250011353e+02   4.1430157735e+01     1.954742    0.6496884 -73.93  0.005298718    6.407    0.844
        23 -12.1527     92.0359    150.3212   1.2725762180e+02   3.2575164886e+01    0.2604015    0.2433429 -35.91 0.0005348433    1.245    0.197
        24 -10.4350    103.1369    150.8613   1.2472966000e+02   3.0706023509e+01    0.2763999    0.2503727  15.21 0.0008529775    1.317    0.241
        25  -9.7997    105.2874    147.3322   1.2358651896e+02   3.1109765469e+01    0.3341978     0.208869 -36.35  0.001562576    2.036    0.509
        26 -12.6716     46.7309    148.7099   1.3768175066e+02   3.8855714151e+01    0.5278427    0.2876954 -76.71  0.002839282    1.707    0.414
        27  -9.9274    134.2411    147.5312   1.1683087733e+02   2.5916573930e+01    0.4846728    0.1221321 -50.81  0.001401939    4.384    0.772
        28 -11.7996     54.8952    143.8529   1.3512318949e+02   3.9003331191e+01    0.2681068    0.2239443 -58.75  0.001703392    1.218    0.179
        29  -8.8535    192.3248    144.2353   1.0351440898e+02   1.4793271464e+01    0.1908538    0.1307825 -43.77 0.0003184503    1.560    0.359
        30 -10.2047    112.9704    136.2471   1.1958473599e+02   3.2185044706e+01    0.3562757    0.2681152  -8.57  0.001051026    1.963    0.490
        31 -10.7224    100.4325    133.5841   1.2215396602e+02   3.4901087787e+01    0.2638473    0.2225338 -26.55 0.0005388746    1.403    0.287
        32 -14.0777     10.9557    207.0386   1.4970610111e+02   3.0639909187e+01     1.013908    0.7034481  38.95  0.005344244    1.658    0.397
        33 -12.8380     43.3042    128.9103   1.3586564689e+02   4.3603006233e+01    0.4377093    0.3333981  89.99  0.002749879    1.243    0.196
        34 -13.0831     49.6992    229.0598   1.4459262025e+02   2.2708554844e+01    0.3980992    0.3312283 -85.17  0.000942438    1.311    0.237
        35  -9.5598    109.0103    123.5080   1.1787031478e+02   3.5646194246e+01    0.1973592    0.1857383 -56.24 0.0003331101    1.028    0.027
        36 -11.2287     70.5519    135.0870   1.2994505671e+02   3.9007634205e+01    0.3500516    0.1746693  41.65  0.001673733    2.085    0.520
        37 -11.0609    168.2921    113.5164   1.0118187916e+02   2.5637815278e+01    0.4054968    0.3282265 -77.78  0.001128535    1.642    0.391
        38 -13.8421     67.4839    144.6325   1.3221575844e+02   3.7286269386e+01     1.656722    0.8421989  84.72  0.006195331    3.774    0.735
        39 -15.6680     58.3036    216.0342   1.4212545640e+02   2.3977187568e+01     6.919946     1.655071  45.08   0.02257606    3.149    0.682
        40 -12.6619    140.4949    248.9362   1.3092539335e+02   7.1750076558e+00    0.5703981    0.3095453  50.33  0.003462121    1.538    0.350
        41 -10.7895    192.9080    194.7499   1.1354841539e+02   6.3859527768e+00    0.7712825    0.3970848 -61.57  0.002280201    7.188    0.861
        42 -10.8090    162.6638    248.7756   1.2710658768e+02   3.8123090030e+00    0.2279254    0.1673097  76.53   0.00147057    2.018    0.505
