#   1 NUMBER                 Running object number                                     
#   2 MAG_AUTO               Kron-like elliptical aperture magnitude                    [mag]
#   3 X_IMAGE                Object position along x                                    [pixel]
#   4 Y_IMAGE                Object position along y                                    [pixel]
#   5 X_WORLD                Barycenter position along world x axis                     [deg]
#   6 Y_WORLD                Barycenter position along world y axis                     [deg]
#   7 A_WORLD                Profile RMS along major axis (world units)                 [deg]
#   8 B_WORLD                Profile RMS along minor axis (world units)                 [deg]
#   9 THETA_WORLD            Position angle (CCW/world-x)                               [deg]
#  10 FWHM_WORLD             FWHM assuming a gaussian core                              [deg]
#  11 ELONGATION             A_IMAGE/B_IMAGE                                           
#  12 ELLIPTICITY            1 - B_IMAGE/A_IMAGE                                       
         1 -13.9413     68.4262    144.4646   9.4200006231e+01   3.7458720357e+01     4.115141     2.142869  75.41  0.003306397    4.533    0.779
         2 -13.5629    222.7240     30.0394   3.0826192612e+01   2.7298380903e+01     2.188945     1.444972  26.98   0.01078078    2.985    0.665
         3 -13.4592    208.2409     42.3592   3.5211557809e+01   2.8895064746e+01      1.92873     1.053727  44.26  0.008753322    2.456    0.593
         4 -12.3011    247.3918      6.1478   2.3955706348e+01   2.4984972259e+01    0.6907029    0.4304618 -51.14  0.004565614    1.349    0.259
         5 -10.2629      2.4001      4.1659   8.1486894135e+01   7.3460573621e+01    0.4068323    0.1118883 -38.13  0.001943758    2.880    0.653
         6 -10.2571    117.8887    237.9245   9.5925314349e+01   8.5260732238e+00    0.2148161    0.1765795 -75.44 0.0005321522    1.403    0.287
         7  -9.6370     92.4389    250.0430   1.0259562097e+02   9.9570480080e+00    0.2593362    0.1536825  18.54  0.001265009    2.487    0.598
         8 -14.9649      6.3117    186.1108   1.1522058311e+02   3.3769377815e+01     7.588271     1.182423 -74.30   0.02435061    4.802    0.792
         9 -10.2970     31.5720    205.3039   1.1119084043e+02   2.7023636608e+01    0.2753712    0.1756586  42.35  0.001619128    1.516    0.340
        10  -9.3066    111.1925    203.8083   9.2735791712e+01   1.6612701377e+01      0.18263     0.162552   7.10 0.0003763592    1.295    0.228
        11  -9.2337    122.7165    200.1491   8.9447387634e+01   1.5525046583e+01     0.254346    0.1816985  49.52 0.0007665295    1.381    0.276
        12  -9.9243    191.5454    192.1308   7.2467366792e+01   5.1846019931e+00    0.4775321    0.2844145 -67.88  0.001693462    3.991    0.749
        13  -8.7125     64.8994    191.3893   1.0212007137e+02   2.6321115193e+01    0.2290635    0.1673085  88.42 0.0006478612    1.361    0.265
        14  -8.4592    169.0143    236.0046   8.4841113626e+01   9.2769150922e-01    0.1487796    0.1352464 -12.74 0.0003536454    1.155    0.134
        15  -8.8362     99.4576    180.9124   9.2021505462e+01   2.3779105719e+01    0.2156019    0.1915178  43.30 0.0005871981    1.118    0.105
        16 -14.4826      9.4772    207.7354   1.1599912749e+02   2.8637379822e+01     2.020344     1.194777 -65.71  0.004893848    1.645    0.392
        17 -11.4303     60.6704    172.8103   1.0076887606e+02   3.1370792989e+01    0.4600379    0.2995002 -34.75  0.001922577    2.056    0.514
        18 -11.2260     65.6788    167.8786   9.8759574854e+01   3.1943765434e+01    0.3513502    0.2635493 -40.63 0.0008636635    1.521    0.343
        19  -9.0686    186.2914    173.9640   6.9956052079e+01   9.6675977847e+00    0.2684031    0.2136103  65.79  0.001339593    1.688    0.408
        20  -9.8985     85.9098    172.1609   9.4088942498e+01   2.8014736812e+01    0.3819022    0.2884036 -20.93  0.001862044    1.798    0.444
        21 -11.9563     83.1961    152.7062   9.1479520404e+01   3.3260672106e+01     1.132299    0.6409039 -58.98  0.001474353    1.675    0.403
        22 -12.3831     75.6446    158.4408   9.4582448597e+01   3.2933623002e+01     1.130858     0.697133  58.35 0.0007276574    1.902    0.474
        23 -12.8532     62.7638    154.6944   9.7535667369e+01   3.5626591353e+01    0.5164652    0.3519922 -37.66  0.001294706    1.711    0.416
        24 -11.0431    116.0880    248.5632   9.7599074047e+01   6.8129469127e+00    0.4248852    0.2322275  26.28  0.002096838    2.011    0.503
        25  -8.1405    100.6807    162.2594   8.8449701760e+01   2.8102883694e+01     0.149633    0.1124972  67.74 0.0002572011    1.544    0.352
        26 -10.7602     32.5061    156.2928   1.0603953459e+02   3.8624271871e+01    0.3745874    0.2695512  74.19  0.001141259    1.414    0.293
        27 -12.5550     32.2928    198.0803   1.1041654202e+02   2.8593950423e+01    0.5628142    0.4304889 -41.31  0.001408795    1.723    0.420
        28  -9.8114    134.1281    146.4677   7.6324743154e+01   2.5814955001e+01    0.7461439    0.2055958 -54.79  0.001829413    4.999    0.800
        29 -10.2198     47.7150    169.2840   1.0365597245e+02   3.3804262537e+01    0.3391435    0.2616122 -73.02 0.0008576068    1.160    0.138
        30  -9.9354     29.6676    143.0117   1.0513392006e+02   4.2192275852e+01    0.3523797    0.2541917 -11.81  0.001934603    1.867    0.464
        31 -10.1528     98.6066    138.9585   8.4370475782e+01   3.4201502533e+01    0.5773239    0.3631959 -23.19   0.00226201    2.412    0.585
        32 -11.5978     85.5615    138.1917   8.7991217697e+01   3.6529884563e+01    0.3194768    0.2701069 -48.51 0.0004797209    1.139    0.122
        33 -10.2969    240.9810    169.4924   5.8496449602e+01   1.0291498669e+00    0.2808184    0.1889412  58.68  0.001401008    2.314    0.568
        34  -8.6316    110.4981    167.0615   8.6747311163e+01   2.5268297525e+01    0.2257359    0.1474016 -59.29  0.001013122    1.555    0.357
        35 -16.2610     17.1029    242.5279   1.1658224007e+02   2.0648341147e+01     7.182256     5.597828  39.99   0.05278774    1.426    0.299
        36 -10.2368    107.3145    130.3600   7.9951489066e+01   3.4759962939e+01    0.5434203     0.367071  20.89  0.002038288    1.830    0.454
        37  -9.4993    135.5967    129.7220   7.2039030342e+01   2.9403347971e+01    0.3173294    0.1471434 -43.32  0.001144222    2.152    0.535
        38  -8.9028     82.6407    129.0956   8.6947820271e+01   3.9246030685e+01    0.2408239    0.2030613  55.13  0.000529544    1.297    0.229
        39 -10.8220    137.9262    217.5890   8.8696739907e+01   9.3353556477e+00    0.5697518    0.2050994  30.62  0.001972366    3.190    0.687
        40  -9.0823     43.7832    129.3881   9.8923829080e+01   4.4226409505e+01     0.172853    0.1347374   4.31 0.0008269064    1.568    0.362
        41  -8.9180     96.8784    124.8577   8.1715695015e+01   3.7946646106e+01     0.230302    0.1972796 -23.09 0.0004873556    1.259    0.206
        42  -8.3908    115.3477    124.2902   7.6217762067e+01   3.4699800744e+01    0.1589909    0.1230172  -6.79 0.0003879322    1.663    0.399
        43 -10.9856    120.4468    212.8914   9.1939222449e+01   1.3155720377e+01    0.3774676      0.20349  33.69  0.001717848    1.783    0.439
        44  -9.8318    161.1904    118.2761   6.2863683966e+01   2.6480452485e+01    0.5490606    0.3216999 -67.61   0.00190346    2.949    0.661
        45  -9.8492    231.3801    113.7712   4.8308277887e+01   1.2564095102e+01    0.2696442    0.2479732  57.10 0.0008050286    1.232    0.188
        46  -8.1653     77.4162    112.5001   8.4811268972e+01   4.4098607485e+01    0.1465402    0.1368043 -56.72 0.0003072927    1.066    0.062
        47  -9.1632    205.2076    110.3569   5.1894767031e+01   1.8484516974e+01    0.3225495    0.2204216  38.14  0.001275724    1.705    0.413
        48  -9.0765    106.1102    118.4407   7.7434784756e+01   3.7823078370e+01      0.23929     0.198972 -36.92 0.0004102584    1.196    0.164
        49  -8.1604     32.3123    109.3175   9.9049860454e+01   5.0284435210e+01    0.1418338   0.08619625 -38.32 0.0006022183    1.644    0.392
        50 -10.5132     52.6543    103.5669   9.0959648163e+01   4.9579584527e+01    0.4368525     0.205602 -47.02  0.001883597    1.890    0.471
        51  -9.8204     52.9954     90.7227   8.7763096918e+01   5.2534234518e+01      0.19433    0.1758351 -25.44 0.0006742896    1.056    0.053
        52  -9.9854     74.1661    207.3534   1.0186024276e+02   2.1370879722e+01    0.3973368    0.2301225  85.62  0.001267729    2.169    0.539
        53  -8.0582    184.3546     77.3062   4.7468138617e+01   2.9071893465e+01    0.1462596    0.1140514  21.63 0.0007041622    1.717    0.418
        54  -8.5557     25.9376     68.4442   9.2418508747e+01   6.0179205346e+01    0.1557021   0.09880906  48.12  0.000401631    2.291    0.564
        55  -8.5866     37.8169     63.8127   8.6221302504e+01   6.0041060886e+01    0.1549266    0.1531852 -32.82 0.0004606746    1.292    0.226
        56 -10.8312     13.2790     59.8506   9.5507334048e+01   6.2902539021e+01    0.2839901    0.2132988 -59.81 0.0006237948    1.318    0.241
        57  -9.5609    128.6021    247.2121   9.4845354691e+01   5.1853192910e+00    0.1637997    0.1182433 -40.73 0.0007255775    1.670    0.401
        58 -12.1095    199.6341     48.3728   3.7760398652e+01   3.0022787798e+01    0.6256297    0.4888774 -39.14  0.001705906    1.314    0.239
        59 -14.2449     42.9210    187.8438   1.0698456472e+02   2.9839729160e+01     2.539514     1.472795  70.03   0.01188916    1.837    0.456
        60  -9.7786     41.3755     58.9715   8.3254373385e+01   6.0624586394e+01    0.2522971    0.1806441  32.55   0.00112487    1.575    0.365
        61  -8.6376     23.7976     57.5826   9.0323751304e+01   6.2600289610e+01    0.1556263    0.1110922  29.42 0.0004327133    1.645    0.392
        62 -10.1603      6.6676     50.4475   9.5956197783e+01   6.5205089600e+01    0.1975584    0.1054976  19.91  0.001129052    2.094    0.523
        63  -9.4897    198.1070     23.6424   3.1984165191e+01   3.3541645418e+01    0.2281652     0.186034 -28.81 0.0007956851    1.450    0.310
        64  -8.5750    189.5882     15.1876   3.0908322488e+01   3.6437998462e+01    0.1524683     0.124863 -15.27 0.0007823914    1.592    0.372
        65 -10.8661     95.3810    242.1886   1.0116691775e+02   1.1036129987e+01    0.4534152    0.2242537 -78.21    0.0020178    2.969    0.663
