#   1 NUMBER                 Running object number                                     
#   2 MAG_AUTO               Kron-like elliptical aperture magnitude                    [mag]
#   3 X_IMAGE                Object position along x                                    [pixel]
#   4 Y_IMAGE                Object position along y                                    [pixel]
#   5 X_WORLD                Barycenter position along world x axis                     [deg]
#   6 Y_WORLD                Barycenter position along world y axis                     [deg]
#   7 A_WORLD                Profile RMS along major axis (world units)                 [deg]
#   8 B_WORLD                Profile RMS along minor axis (world units)                 [deg]
#   9 THETA_WORLD            Position angle (CCW/world-x)                               [deg]
#  10 FWHM_WORLD             FWHM assuming a gaussian core                              [deg]
#  11 ELONGATION             A_IMAGE/B_IMAGE                                           
#  12 ELLIPTICITY            1 - B_IMAGE/A_IMAGE                                       
         1 -11.6298    244.9017     80.0214   6.8571148411e+01   1.3939298256e+01     1.373361    0.6193804 -41.30  0.005577253    2.370    0.578
         2  -9.5778    231.7809      2.8670   4.9156337460e+01   2.5770275941e+01    0.4179108    0.2258339 -83.05  0.001106412    2.236    0.553
         3  -9.8876    233.9243     20.0973   5.3758919884e+01   2.3566902484e+01    0.4857258    0.2476369  38.24  0.001816642    2.391    0.582
         4 -11.0569    248.7608     32.1008   5.5499451359e+01   1.8703552769e+01    0.9663189    0.4224013 -26.85  0.004083963    2.037    0.509
         5 -10.2027    250.0812     19.0018   5.1896352577e+01   1.9756528656e+01    0.6069576    0.2188332 -23.54  0.002170349    2.532    0.605
         6 -10.3659    243.9907     22.4132   5.3383801781e+01   2.0863701625e+01    0.3968148    0.3182243  -3.49  0.001515438    1.312    0.238
         7 -10.7293    239.4460     17.9511   5.2614480359e+01   2.2423237123e+01    0.6852543    0.4606933 -49.93   0.00349239    1.495    0.331
         8 -10.9182    246.0851     13.3389   5.0752776313e+01   2.1270082142e+01     1.101687    0.2676324  60.87  0.003790617    3.564    0.719
         9 -10.7253    249.1826      5.2815   4.8362837707e+01   2.1293888057e+01    0.7100018    0.3663418 -16.87  0.003271843    1.975    0.494
        10 -10.3103    233.0907     10.6924   5.1216955897e+01   2.4711633985e+01    0.5721515    0.2999029  14.16  0.002219376    2.939    0.660
        11 -10.5363    238.1951      8.4810   5.0140553757e+01   2.3656421113e+01    0.5831862    0.3050635 -52.10    0.0020127    2.011    0.503
        12 -10.2987    226.0590     18.0216   5.3993857672e+01   2.5755835609e+01    0.4223945    0.1529119 -38.46  0.001568929    2.536    0.606
        13 -10.9343    224.9087     22.8762   5.5514780030e+01   2.5542419961e+01    0.6119822    0.4106711  86.18  0.002940256    1.705    0.414
        14  -9.9228    219.2460     16.6356   5.4328919137e+01   2.7640461923e+01    0.4760567    0.2998489 -79.73  0.002150464    1.943    0.485
        15  -9.7845    221.7696     13.5896   5.3167344539e+01   2.7297064104e+01    0.3860826    0.2559954  84.29  0.001775061    1.648    0.393
        16  -8.7438    201.7471     12.0018   5.4932193974e+01   3.2691870142e+01    0.2091447    0.1407437   0.87 0.0007336361    1.708    0.414
        17 -10.5350     67.8281     11.2199   8.4008274361e+01   6.4654646781e+01    0.4096357    0.2400957  -8.99  0.001938614    2.191    0.544
        18 -10.2325    155.2390      9.2233   6.0605542821e+01   4.5401256910e+01    0.5955828    0.1720467 -25.75  0.001946894    3.175    0.685
        19 -10.1339    213.2014      8.8412   5.2671262478e+01   2.9978957376e+01    0.5815765    0.2757406 -32.80  0.002453645    1.970    0.492
        20  -9.6409    192.9753     11.0617   5.5713151888e+01   3.5125335873e+01    0.2221697    0.2109102  48.14 0.0004737035    1.037    0.035
        21  -9.1083     84.5179     10.4760   7.7891323249e+01   6.1773098449e+01    0.2685183    0.1211451 -29.33 0.0008235212    2.043    0.511
        22  -9.0299    102.8734      7.6016   7.1143334511e+01   5.8362781048e+01    0.2413098    0.1578645 -27.75  0.001222395    1.469    0.319
        23  -9.7901    222.9312      6.4490   5.0982025737e+01   2.7685451208e+01    0.5117464    0.2053326  58.57  0.001239082    2.341    0.573
        24  -9.1262    206.2984      6.7672   5.2787011706e+01   3.1989480425e+01    0.2607756    0.1676499 -25.17  0.001242501    1.535    0.348
        25  -8.6939    116.4816      6.5026   6.7232546554e+01   5.5402134808e+01    0.1413708    0.1295831  12.68 2.402022e-05    1.021    0.020
        26  -8.6485    171.4639      5.4957   5.6721977430e+01   4.1443608559e+01    0.1469876     0.137515  39.22  0.000384572    1.031    0.030
        27  -9.5822    240.3758      2.2180   4.8256301193e+01   2.3699580786e+01    0.3514795    0.2150915  82.34   0.00142406    1.730    0.422
        28  -8.5348    220.4960      2.9255   5.0195152749e+01   2.8634174741e+01    0.2087175    0.1349823 -20.88 0.0004849663    1.543    0.352
        29  -8.5766    183.2332      2.9185   5.4256657998e+01   3.8511731346e+01    0.1916213    0.1195196 -21.39 0.0008750237    1.627    0.386
        30 -10.1247     63.8103      2.3185   8.1011390337e+01   6.6580000634e+01    0.2514203    0.2131938  -4.37 0.0008899963    1.040    0.038
        31  -8.5550    189.8234      2.4029   5.3280374997e+01   3.6784406065e+01    0.2066846    0.1234788  57.44 0.0005137208    1.572    0.364
        32  -9.2472    198.3425     10.1826   5.4767895666e+01   3.3776696827e+01    0.4769606    0.2266794  -5.57  0.001766735    2.722    0.633
        33  -8.9165    219.1299    215.1653   1.0034030754e+02   2.6663289699e+00    0.2204824    0.1218438  38.08  0.001373978    1.371    0.270
        34  -9.1472    210.2196    249.9973   1.0633612767e+02   7.4343862374e-01    0.2199395   0.09354917  33.04  0.001301135    1.968    0.492
        35 -10.5838    214.3824    215.2245   1.0110026535e+02   3.4147388724e+00    0.3085873    0.1880781 -51.09  0.001802788    2.927    0.658
        36  -9.5272    214.6803    209.9772   1.0027999992e+02   3.9103602810e+00    0.1735068    0.1664817 -51.90  0.001355575    1.549    0.354
        37  -8.3660    109.2890    216.6435   1.1875538249e+02   1.9585036394e+01    0.1104262   0.06696052  67.88 0.0007025797    1.680    0.405
        38  -9.8703    232.0813    212.6693   9.7941767858e+01   8.6692117570e-01    0.2497753    0.2165541 -20.40  0.001738853    1.492    0.330
        39  -9.9865    186.5452    213.1480   1.0532118108e+02   8.1282925182e+00     0.228026    0.2017077 -62.67  0.001722589    1.596    0.373
        40  -8.9713    132.4128    214.1768   1.1457559012e+02   1.6557216579e+01    0.1332906    0.1009372 -84.41 0.0008128001    1.629    0.386
        41  -8.6445    205.6307    208.3031   1.0149468340e+02   5.5638687645e+00    0.1091953   0.08304746  61.93 0.0004475386    1.747    0.428
        42 -10.5659    124.0016    206.0023   1.1512141844e+02   1.9008094949e+01    0.1614668    0.1257361  54.82  0.001165264    1.016    0.016
        43  -9.3835    235.8843    203.9229   9.5988033023e+01   1.1065390055e+00    0.1776845    0.1522505  -9.18   0.00133998    1.356    0.262
        44 -10.1744    247.9381    193.9330   9.2477183658e+01   1.3924736756e-01    0.3257401    0.2730298  64.05  0.002217714    1.954    0.488
        45  -8.6498    249.6029    201.7531   9.3524795627e+01  -8.5935953177e-01    0.1829677    0.1299067 -24.65 0.0009291994    1.643    0.391
        46  -8.5939    250.3240    198.3334   9.2850699564e+01  -6.5646040692e-01    0.1846933    0.1040612  18.74  0.001016477    1.693    0.409
        47  -9.0725    218.5819    201.8239   9.8403469854e+01   4.1353685657e+00    0.1350252    0.1099431 -37.62 0.0009441124    1.646    0.392
        48  -8.4955    198.2921    202.6382   1.0186180638e+02   7.4216654500e+00    0.1066825    0.0879228  70.64 0.0007028518    1.700    0.412
        49  -9.4246    193.1597    202.1881   1.0265421939e+02   8.3346014885e+00    0.1549981     0.127226  56.13  0.001071559    1.369    0.270
        50  -9.3777    241.4623    200.2327   9.4525061834e+01   5.7167585520e-01    0.2412042    0.1595237  16.92  0.001004277    1.343    0.255
        51  -8.4914    203.7453    197.9694   1.0023842970e+02   7.0484395252e+00    0.1330434    0.1008291 -25.02 0.0008858361    1.560    0.359
        52  -9.6837    164.5667    201.2297   1.0741695399e+02   1.3237263484e+01    0.1911234    0.1163676 -51.88  0.001143974    2.135    0.532
        53 -10.0344    230.6835    195.7456   9.5482314381e+01   2.7739122821e+00    0.2918211    0.1813984  -7.23  0.001761689    1.856    0.461
        54  -9.3227    184.8736    196.3876   1.0319882297e+02   1.0452591700e+01    0.2048341    0.1758107 -10.12  0.001043445    1.368    0.269
        55  -8.7133    176.4184    197.2215   1.0478605814e+02   1.1782965565e+01     0.143904    0.1148259 -60.43 0.0009537951    1.704    0.413
        56  -9.9715    237.8117    192.5895   9.3826286345e+01   1.9204063908e+00    0.3148951    0.2542241  -8.90  0.001527043    1.308    0.235
        57 -10.0589    237.3232    186.3443   9.2834716199e+01   2.6450700708e+00    0.3221553    0.1648978 -23.04  0.001771066    2.165    0.538
        58  -8.4602    193.6796    188.3137   1.0042242846e+02   9.9569181532e+00    0.1139318   0.09139757  68.48 0.0007038898    1.653    0.395
        59  -9.9184    224.7744    184.7760   9.4587333101e+01   4.9538906589e+00    0.2836667    0.2062783 -37.14   0.00180548    1.734    0.423
        60 -10.2635    226.4524    179.4987   9.3388687902e+01   5.2562832337e+00    0.4555986    0.2534809  43.52  0.002388772    1.552    0.356
        61  -9.2528    249.5509    184.6137   9.0616552988e+01   7.8668952236e-01    0.2489353    0.1842842 -37.78  0.001619818    1.861    0.463
        62  -9.3982    241.5084    179.5172   9.0964961562e+01   2.6537333535e+00    0.3564653    0.1978905 -38.63  0.001955442    2.331    0.571
        63  -9.0169    245.2502    178.2563   9.0148135300e+01   2.1504909521e+00    0.2712866    0.1153052  49.04  0.001294565    2.385    0.581
        64  -9.5778    157.6424    178.9923   1.0543231198e+02   1.7598780948e+01    0.2734276    0.1827328 -16.06  0.001419955    2.531    0.605
        65  -8.8405    219.3369    178.7250   9.4430372824e+01   6.5992900308e+00    0.2242146    0.1345199  51.33  0.001229049    1.735    0.423
        66  -8.9463    152.1603    178.1860   1.0633547772e+02   1.8677893424e+01    0.1680194     0.129658  61.50 0.0004398363    1.299    0.230
        67  -9.3325    197.5969    176.7979   9.7820035225e+01   1.0743903162e+01    0.1581233    0.1186521 -47.78 0.0009506182    1.728    0.421
        68  -9.6171    233.5691    174.8081   9.1382996479e+01   4.5364979186e+00    0.2838067    0.1984806 -26.56  0.001761101    1.568    0.362
        69  -9.8956    225.0943    172.0061   9.2260182380e+01   6.3619235947e+00    0.3879636    0.2316945 -39.30  0.002137235    2.062    0.515
        70  -9.0259    193.5756    173.7713   9.8005967277e+01   1.1878978122e+01    0.1565939    0.1214674 -48.46  0.000948461    1.643    0.391
        71  -8.8873    237.4841    170.0130   8.9864018838e+01   4.3823618744e+00    0.1731361    0.1150047 -23.55  0.001027381    1.583    0.368
        72 -10.1516    212.3288    169.0190   9.3868654573e+01   9.0488453693e+00    0.4244969    0.1888412 -38.30  0.001865846    2.597    0.615
        73  -8.9413    169.8878    169.1118   1.0153700287e+02   1.6898322868e+01    0.1882893    0.1659187  65.52 0.0006492062    1.242    0.195
        74  -9.6277    147.2593    168.2387   1.0572292680e+02   2.1117948137e+01    0.2086005    0.1929058  71.25 0.0004670525    1.122    0.109
        75  -8.6579    249.1845    167.4150   8.7519695369e+01   2.6176698631e+00    0.1664121    0.1093108  51.81 0.0009503763    1.774    0.436
        76  -9.4459    193.0428    165.8651   9.6692730325e+01   1.3060363758e+01     0.264311    0.1854618 -25.76  0.001317355    1.632    0.387
        77  -9.0205    234.1266    164.4310   8.9351123376e+01   5.6169356279e+00    0.2235807    0.1584008 -43.79  0.001288533    1.921    0.479
        78  -8.3678    240.3415    163.3156   8.8131957338e+01   4.6253311194e+00    0.1347883   0.08110584  18.69 0.0007048129    1.708    0.414
        79  -9.0202     46.7057    162.0576   1.2518673215e+02   3.6901530871e+01    0.1527115     0.116187  89.98 0.0005646002    1.120    0.107
        80  -9.9048    246.3633    158.2696   8.6189803177e+01   4.1117688983e+00    0.4086137    0.1849135  42.25  0.001690818    1.945    0.486
        81  -9.8164    226.6308    156.8515   8.9114862788e+01   7.9037968308e+00    0.3643021    0.2025211  16.47  0.001501977    2.351    0.575
        82 -10.1030    249.9163    150.9994   8.4176722160e+01   4.2843743882e+00    0.5003825    0.2933089 -47.25  0.002423974    2.750    0.636
        83  -9.6858    242.7566    153.0109   8.5711854452e+01   5.3632089542e+00    0.2760573    0.2139955 -21.94 0.0009877956    1.338    0.252
        84 -10.7931    244.1188    148.7074   8.4619445030e+01   5.6101850686e+00    0.5017183    0.2804072 -27.95  0.002165254    1.809    0.447
        85  -9.1784    221.9214    153.4403   8.9230809271e+01   9.2231284555e+00    0.2320914    0.1776008 -43.15  0.001031667    1.644    0.392
        86  -8.5150    206.2457    153.0212   9.1875566411e+01   1.2306596715e+01    0.1598212    0.1108834 -28.33 0.0007213344    1.557    0.358
        87  -8.3723    118.3315    153.6812   1.0925919353e+02   2.8635999193e+01    0.1321243   0.09090033  73.90 0.0007048129    1.691    0.409
        88  -9.8585    197.2463    149.7515   9.2848657374e+01   1.4531891910e+01    0.2760451    0.1924898 -38.78   0.00150739    1.606    0.377
        89  -8.1982     35.5153    150.5007   1.2646139326e+02   4.0299483580e+01    0.1101429   0.08558077  81.57 -2.72865e-05    1.005    0.005
        90 -10.0542    232.9829    152.9830   8.7288727943e+01   7.1828531669e+00    0.2924177    0.1960817  18.16  0.001398797    1.474    0.321
        91 -10.2553    229.6032    147.6135   8.6753287295e+01   8.4849432426e+00    0.2326414    0.1530156 -27.70 0.0009080313    1.575    0.365
        92  -9.6727    224.0873    146.2509   8.7398010827e+01   9.7251512006e+00    0.2994454    0.2269109  -7.17  0.001223925    1.330    0.248
        93  -9.4474    206.5659    147.2922   9.0664238986e+01   1.3034286070e+01    0.2456096    0.1459098  29.32  0.001192699    1.750    0.429
        94  -9.0187    111.9570    147.2807   1.0959761202e+02   3.0886838219e+01      0.18453    0.1542558  55.81    0.0011545    1.097    0.089
        95 -10.0887    230.4145    141.0312   8.5241399594e+01   9.1556783132e+00     0.283787    0.2034449 -30.45  0.001027441    1.473    0.321
        96  -9.1070      9.0430    141.7646   1.3131442303e+02   4.4344841941e+01    0.1182535   0.07894444  42.54 0.0008026112    1.593    0.372
        97  -9.2830    250.2377    140.1612   8.1877643180e+01   5.4610759144e+00    0.1987928    0.1514175  12.89 0.0007319417    1.160    0.138
        98  -9.9220    249.0427    135.0381   8.0967004585e+01   6.2851706382e+00     0.382527    0.1933487 -29.03  0.001336057    1.936    0.484
        99  -9.3992    248.7453    130.7480   8.0079334433e+01   6.8508274288e+00    0.3010978    0.2204149  79.87  0.001504892    2.529    0.605
       100  -9.5335    224.8667    138.8874   8.5714386954e+01   1.0526749749e+01    0.3447929    0.1737084 -17.99   0.00149943    2.412    0.585
       101  -9.7017    218.7962    138.6326   8.6697924988e+01   1.1775172223e+01    0.2642273    0.1856683  59.56  0.001141538    1.720    0.418
       102  -8.6930    164.4946    136.4679   9.6474734736e+01   2.3177893780e+01     0.137453    0.1264131  40.65 0.0001948188    1.004    0.004
       103  -8.9675     53.0401    135.9402   1.2114996265e+02   4.1366758332e+01    0.1747712    0.1482598  86.93 0.0005467165    1.054    0.051
       104  -9.9775    232.9907    134.6463   8.3442897036e+01   9.4581839084e+00    0.3180644      0.24638  10.87  0.001838716    1.216    0.177
       105  -9.1873    169.9057    134.5954   9.4988231297e+01   2.2397756265e+01    0.2131306    0.1881095  -4.09 0.0005501865    1.242    0.195
       106  -9.1896    221.4969    129.4940   8.4233972429e+01   1.2459716853e+01    0.2214141    0.1921955 -79.54 0.0006918244    1.671    0.402
       107 -10.7963    242.1313    133.2984   8.1672726603e+01   7.8268290679e+00    0.4053433    0.3643981 -24.51  0.002501511    1.271    0.213
       108  -9.2835    193.0319    127.8359   8.8990871759e+01   1.8666039093e+01    0.2211578    0.1656875  77.50 0.0008117907    1.940    0.485
       109  -9.8097    206.9251    126.8261   8.6195084901e+01   1.5876360390e+01    0.3297738    0.1899939  32.20  0.001339815    1.832    0.454
       110  -9.7761    212.6384    124.1513   8.4566529444e+01   1.5052553644e+01    0.3830448    0.2431628  26.42  0.001510176    1.705    0.414
       111  -8.7798    113.9992    126.9636   1.0558031885e+02   3.4495138150e+01    0.2050939    0.1526112  79.32 0.0004777219    1.565    0.361
       112 -10.1543    241.3909    124.6066   7.9862369977e+01   9.0471934225e+00     0.354286     0.315851  54.08  0.002165376    1.351    0.260
       113  -9.2625    229.3246    125.0875   8.1923823398e+01   1.1436985882e+01    0.2494713    0.1733715  33.36 0.0009827829    1.349    0.259
       114  -8.8348    189.1435    122.8960   8.8612916938e+01   2.0265927960e+01    0.3231855    0.1952142 -24.60  0.001478804    1.894    0.472
       115  -9.0789    161.3313    124.3931   9.4549493549e+01   2.5905576385e+01    0.2325288    0.1706502  56.47 0.0005910437    1.391    0.281
       116  -8.7544    195.4873    122.4887   8.7312223607e+01   1.8965236818e+01      0.14325    0.1291447  22.16 0.0008102704    1.030    0.029
       117  -9.2960    221.5496    121.0772   8.2312466881e+01   1.3597438904e+01    0.2767806    0.1895088  37.71  0.001326208    1.372    0.271
       118  -8.9238    244.0344    119.5405   7.8297528222e+01   9.1468110563e+00    0.2502092    0.1687927 -49.23  0.001251458    2.027    0.507
       119  -8.1986    124.7346    120.0027   1.0169718785e+02   3.3947406945e+01    0.1619351    0.1177931 -51.49 0.0002425023    1.401    0.286
       120 -10.7650    214.6504    115.3656   8.2163832234e+01   1.5873661574e+01    0.5790477    0.1887146  47.36  0.001735342    2.833    0.647
       121 -11.2145    245.1691     98.1518   7.3062216323e+01   1.1597177809e+01    0.6425491    0.4584544 -54.39  0.003249073    1.894    0.472
       122 -10.2888    237.3910     89.9144   7.2177169124e+01   1.4343920505e+01    0.4072721     0.268553  67.06  0.001330501    1.910    0.476
       123  -9.8479    231.9218     83.3167   7.1312615859e+01   1.6440962760e+01    0.5595145    0.3077272 -46.94  0.002375295    2.193    0.544
       124 -10.2343    237.8722     84.2442   7.0661944870e+01   1.4971982703e+01    0.3955589    0.2713446 -66.66    0.0018047    2.264    0.558
       125 -11.2128    242.7838     92.4485   7.2009263860e+01   1.2833408881e+01    0.4407544    0.3042336 -16.15  0.001908084    1.388    0.279
       126  -9.3211    232.9897    247.1478   1.0263207393e+02  -2.2800636599e+00    0.2214094    0.1669334  63.26  0.001600633    2.345    0.574
       127 -11.4270    247.8394    112.1216   7.5999181122e+01   9.2949092312e+00    0.6431628    0.4772986  26.90  0.003603225    1.283    0.220
       128 -10.6900    248.9131    106.6738   7.4556677465e+01   9.7482513755e+00    0.6121949    0.4015692 -13.80  0.003174958    1.476    0.323
       129 -10.7535    230.7885    116.2855   7.9654010756e+01   1.2296419949e+01    0.4557695    0.3232382  51.41  0.002198951    1.469    0.319
       130  -8.6077     52.3286    113.1989   1.1832024084e+02   4.6215121551e+01    0.1721917   0.09760158 -76.75 0.0006278076    1.664    0.399
       131  -9.7183    104.4913    111.8888   1.0485881495e+02   3.9171714873e+01    0.2375596    0.1892513  37.23 0.0004571097    1.360    0.265
       132  -9.9262     14.6123    111.8108   1.2764995172e+02   5.0001025697e+01    0.2550652    0.1380462  54.24  0.001226341    1.856    0.461
       133  -9.0105    183.5152    108.4277   8.6264766408e+01   2.3826806670e+01    0.3009918    0.1431284 -35.33  0.001209714    2.162    0.538
       134  -9.4306    236.0995    107.6928   7.6761773144e+01   1.2303484183e+01    0.2414278    0.1806582 -31.06  0.001080777    1.344    0.256
       135  -9.5619    215.4969    107.9972   8.0239617467e+01   1.6740400031e+01    0.2614263    0.2094495  71.65  0.001189922    1.591    0.372
       136 -10.5548    241.8284    105.8331   7.5424833225e+01   1.1330184600e+01    0.3947602    0.2900074  80.67  0.001959713    2.139    0.533
       137  -9.9993    241.6836    102.6843   7.4687950481e+01   1.1762901561e+01    0.2306342    0.1619707  27.17 0.0007205695    1.430    0.300
       138  -8.5089    196.4608    103.5076   8.2545785433e+01   2.1687100485e+01      0.14477    0.1378958  15.73 0.0001803836    1.034    0.033
       139  -8.7984    235.3865    102.2477   7.5554030596e+01   1.3169666129e+01     0.218057    0.1322741 -24.50  0.001041072    1.586    0.369
       140  -9.7349    236.2719     98.5363   7.4503642984e+01   1.3464264809e+01    0.3969401    0.2085094  61.01  0.001700079    2.300    0.565
       141 -10.1364    221.4305    100.7520   7.7438846358e+01   1.6443487289e+01    0.2890803    0.1906709 -47.47  0.001360106    1.820    0.451
       142  -8.7063    167.4801    100.5225   8.7543707495e+01   2.8757998983e+01    0.1466684    0.1403287  23.78 9.666872e-06    1.013    0.013
       143  -9.4504    130.1287     98.0052   9.5362019185e+01   3.7225236862e+01    0.2127599     0.210361 -41.21 0.0006706827    1.030    0.029
       144  -9.9128    224.6072     95.3692   7.5559879068e+01   1.6475710915e+01    0.3636936    0.1402795 -22.95  0.001265517    2.949    0.661
       145  -9.9056    230.8988     94.2326   7.4266795731e+01   1.5218807982e+01     0.386884    0.2496571 -25.58  0.001387067    1.486    0.327
       146  -9.6421    218.5217     90.4714   7.5299998850e+01   1.8544775297e+01    0.1450154    0.1354271   4.36 0.0003351344    1.021    0.021
       147  -8.9910    215.3362     89.3067   7.5526852033e+01   1.9447359670e+01    0.1555223    0.1062621  20.99 0.0007041154    1.674    0.402
       148  -9.5794    226.1588     86.5166   7.3036282994e+01   1.7332484861e+01    0.3970095    0.2319649 -19.39  0.001233109    1.756    0.430
       149  -9.2123    176.1788     87.4099   8.2250262263e+01   2.8982984624e+01    0.2077788    0.1450466  65.98 0.0008262569    1.680    0.405
       150  -8.4621    134.7403     83.3609   9.0352154297e+01   3.9091525172e+01    0.1474567    0.1136404 -70.99 0.0005746675    1.629    0.386
       151  -8.5752     88.3523     82.2454   1.0235636008e+02   4.8026946175e+01    0.1925593    0.1188131 -60.54 0.0006209732    1.642    0.391
       152  -9.1020    119.4776     78.5076   9.2825782168e+01   4.3178312876e+01    0.1425156    0.1376141 -30.54 -2.808505e-05    1.029    0.028
       153  -9.0965    175.5098     77.0314   7.9457060816e+01   3.0846150568e+01     0.234312    0.1482667 -31.76  0.001030122    1.582    0.368
       154  -9.8535    226.1821     74.2143   6.9777714325e+01   1.8982775586e+01    0.4281919    0.3155682  22.11  0.001493838    1.464    0.317
       155  -9.1389    215.2353     75.5020   7.1841944461e+01   2.1415999622e+01    0.3873479    0.1508899  59.81  0.001361952    2.800    0.643
       156  -8.2215    134.4960     73.9726   8.7694956151e+01   4.0900922239e+01    0.2080645    0.1306962 -13.22 0.0008089264    2.473    0.596
       157  -8.9642    249.7767     71.1014   6.5625316429e+01   1.3956293987e+01    0.2628108    0.1574907  30.48  0.001016546    1.916    0.478
       158 -11.3218    235.9468     74.3634   6.8375402353e+01   1.6684416156e+01    0.9528865     0.385327 -33.11  0.003734175    2.261    0.558
       159 -10.8958    225.8428     66.6292   6.7770641709e+01   2.0065296292e+01    0.5048485    0.4014706  78.76  0.002598783    1.516    0.340
       160  -9.9162    238.5581     65.0915   6.5553989107e+01   1.7253723231e+01    0.2693905     0.210565   9.23  0.001414124    1.343    0.255
       161  -9.6994    250.0994     65.8252   6.4224030668e+01   1.4522438284e+01    0.3265508    0.1861177 -29.82  0.000942308    1.591    0.372
       162  -8.3182    153.6755     66.3310   8.0863621256e+01   3.7872714638e+01    0.1555524    0.1195259 -70.58 0.0003919957    1.704    0.413
       163  -8.2392    214.6640     63.3141   6.8538588022e+01   2.3225367088e+01    0.1529097    0.1127929 -61.56 0.0004419308    1.691    0.409
       164  -8.3266    136.4599     62.5037   8.3659596210e+01   4.2534120177e+01    0.1478589    0.1431932 -16.27 0.0004539582    1.010    0.010
       165  -9.2399    206.5279     60.4573   6.9005157320e+01   2.5636134014e+01    0.3043723    0.1446605 -26.70  0.001180441    2.066    0.516
       166  -8.7864    238.3148     60.3289   6.4313064830e+01   1.7901611449e+01    0.2087925    0.1359685  41.37 0.0008268295    1.604    0.376
       167  -8.8307    234.8576     60.1729   6.4735580547e+01   1.8737701817e+01    0.2698379    0.1839883  56.98  0.001057918    1.525    0.344
       168  -9.1651    171.3131     59.3251   7.4960989847e+01   3.4686405714e+01    0.3379253    0.2468343  52.98  0.001487262    1.361    0.265
       169  -8.9022     47.6694     60.6916   1.0954095631e+02   5.8087108492e+01     0.126982   0.08489978 -33.68  0.000704044    1.665    0.399
       170  -9.4509    213.9352     57.6703   6.7042231658e+01   2.4159181489e+01    0.3339999    0.2099256  38.42    0.0013352    1.695    0.410
       171  -8.6193    126.4751     58.5097   8.4852706974e+01   4.5460862114e+01    0.1461246    0.1408826 -33.94 0.0008096685    1.045    0.043
       172  -9.3779    250.3523     54.7049   6.1297857901e+01   1.5785502130e+01    0.3071837    0.1712567 -28.75  0.001157035    1.614    0.381
       173 -10.6505    244.2150     42.0794   5.8667313216e+01   1.8672941767e+01    0.4472197    0.3904863   3.31  0.001852314    1.161    0.139
       174 -10.1685    237.2456     53.8050   6.2691152702e+01   1.8952439332e+01    0.6092981    0.3175426  74.15  0.002478318    2.528    0.604
       175 -10.6042    229.0370     52.5060   6.3417748323e+01   2.1090548266e+01     0.535979    0.4615282  39.13  0.002285757    1.183    0.155
       176 -10.2797    244.4896     51.3135   6.1110605848e+01   1.7539208542e+01    0.4536732    0.3230674 -74.64   0.00188101    1.849    0.459
       177  -9.6951    250.0399     47.9860   5.9569378241e+01   1.6635629645e+01    0.5856408    0.2419562 -22.73  0.002327231    2.291    0.563
       178 -10.7507    199.6806     53.6978   6.8119085609e+01   2.8291054113e+01    0.4496414    0.4304592 -30.62  0.002481824    1.062    0.058
       179  -8.4244    207.6384     53.8400   6.6896457320e+01   2.6248672817e+01    0.2100178    0.1289465 -36.51 0.0004545329    1.595    0.373
       180  -8.7948    163.2343     53.2443   7.4644475364e+01   3.7643598393e+01    0.2541634    0.1061351 -40.66 0.0008909012    2.442    0.590
       181  -8.6815    238.3206     45.0667   6.0174558225e+01   1.9735417346e+01    0.2006187    0.1770792 -24.30  0.001130634    1.064    0.060
       182  -9.2693    232.7941     44.2248   6.0624782384e+01   2.1173621117e+01    0.3831219    0.1921782  42.31  0.001576364    2.205    0.547
       183  -9.8982    189.5517     43.3677   6.6603713415e+01   3.2290907466e+01    0.3623603    0.2161481 -19.25  0.001538443    1.761    0.432
       184  -8.0953     76.6934     44.2947   9.4607669193e+01   5.7560103217e+01    0.1261869    0.1047398 -77.91 0.0004361328    1.584    0.369
       185  -9.5657    219.4678     42.9305   6.1992451505e+01   2.4639920637e+01    0.3020639    0.1839868 -22.08 0.0009342486    1.611    0.379
       186  -9.7014    216.4647     41.4482   6.1969312480e+01   2.5580428659e+01     0.394835    0.2518951  29.84  0.001754339    1.833    0.454
       187 -10.9193    201.1060     38.8216   6.3372203102e+01   2.9859904467e+01    0.7290902     0.248087 -18.06  0.002150551    3.821    0.738
       188  -8.9178    209.0494     39.5185   6.2429687208e+01   2.7714572395e+01    0.2299205    0.1918993 -22.05 0.0006381923    1.173    0.148
       189  -8.8052    165.5755     39.7752   6.9692106478e+01   3.9010436309e+01    0.2167232     0.136688 -38.18 0.0009444246    1.600    0.375
       190  -9.8154    238.7420     38.3584   5.8288084591e+01   2.0405770837e+01    0.3192682    0.2686485  68.15  0.001386529    1.270    0.213
       191 -10.8556    185.6006     37.6789   6.5439560492e+01   3.4065250123e+01    0.4853307    0.2210035 -35.99  0.001855944    2.128    0.530
       192  -8.0608    233.3255     38.2905   5.8907483279e+01   2.1733823933e+01    0.1475388    0.1035713  28.63 0.0004747699    1.614    0.381
       193  -8.9882    162.1973     37.7489   6.9649165884e+01   4.0159367973e+01    0.2889007    0.1889203  11.95 0.0009676702    1.974    0.493
       194  -9.0615    176.4420    248.0858   1.1120123739e+02   5.8482679200e+00    0.2181984    0.1023758  52.06  0.001320063    1.945    0.486
       195  -9.2497    249.1061    246.3914   1.0020711961e+02  -4.4789688279e+00    0.1598995    0.1279568   6.57 0.0007689416    1.341    0.255
       196  -8.8660    132.6582    247.3155   1.1783827977e+02   1.2222318942e+01    0.1045924   0.06024373  61.36 0.0007048072    1.708    0.415
       197 -10.0262    192.2078    245.1208   1.0846550412e+02   3.8273730867e+00    0.2749713    0.1100663  40.23  0.001605572    1.798    0.444
       198  -9.4113    246.8058    240.2448   9.9708655931e+01  -3.6937402338e+00    0.2033089    0.1520993  10.18  0.001099821    1.256    0.204
       199 -10.2604    240.3234    240.1422   1.0063783908e+02  -2.7651535331e+00    0.2646487    0.1859332  34.98  0.001217142    1.168    0.144
       200  -9.3033    202.5640    242.0519   1.0652322977e+02   2.5889261168e+00    0.2027124    0.1347949  35.91  0.001518339    1.075    0.070
       201  -9.3960    214.9599    240.5424   1.0445781138e+02   8.9209324566e-01    0.1742036     0.149316   5.33  0.001039467    1.350    0.259
       202  -9.9435    225.2037    242.2900   1.0315008385e+02  -7.6213670462e-01    0.2653279    0.1996749 -17.04  0.001851259    1.642    0.391
       203  -9.8779    230.9992    236.5178   1.0152467174e+02  -1.1170955577e+00     0.299482    0.1514819 -22.61  0.001605831    2.498    0.600
       204  -9.4857    236.6548     31.0379   5.6508461939e+01   2.1729809182e+01    0.2925428    0.2525039 -12.08  0.001105209    1.143    0.125
       205 -10.8041    227.1909     33.0666   5.8170687968e+01   2.3850623414e+01    0.6252468    0.3321816 -35.93  0.002746439    1.765    0.433
       206  -9.7106    242.2268     34.3503   5.6801136552e+01   2.0013600973e+01    0.2886001    0.1669778 -35.07 0.0007676258    1.588    0.370
       207  -9.0573     61.2029     38.3047   9.7901249501e+01   6.0996600026e+01    0.2357882    0.1485143 -39.11   0.00086625    1.395    0.283
       208  -9.4224    232.0023     32.1610   5.7348121750e+01   2.2752445761e+01    0.3495704    0.2204664 -78.78  0.001556933    2.100    0.524
       209 -10.0181    212.9909     31.2706   5.9422499612e+01   2.7673371175e+01    0.4283319    0.2239969 -48.06  0.001740673    2.119    0.528
       210  -9.8887    216.4408     30.4737   5.8742635664e+01   2.6874675046e+01    0.3903403    0.2560664  18.49  0.001752528    1.875    0.467
       211 -10.2057    201.5534     27.2902   5.9736497473e+01   3.1115283601e+01    0.4272801    0.1877131 -11.17  0.001460435    2.981    0.665
       212  -8.8012    174.5140     27.1190   6.3771805539e+01   3.8307062665e+01    0.2286139    0.1471269 -23.67 0.0005772754    1.557    0.358
       213 -10.7857    229.4671    226.9488   1.0043496090e+02  -5.2133499288e-02    0.4391212    0.2325651 -31.43  0.002482256    2.373    0.579
       214  -9.9389    227.5069    219.4670   9.9662144074e+01   9.3612506956e-01    0.3149777     0.191761   7.32  0.001996757    1.914    0.478
       215 -10.0242    219.5815    235.8846   1.0315520813e+02   6.2627749422e-01    0.2452483    0.1575881  43.56  0.001763681    1.315    0.239
       216  -8.8399    248.4108    234.2802   9.8648167508e+01  -3.4564345418e+00     0.113329   0.09306613 -14.43 0.0009324773    1.555    0.357
       217  -9.4882    118.8359     25.8068   7.4822945558e+01   5.2436631719e+01     0.196634    0.1726577 -56.93 0.0007463753    1.340    0.254
       218  -9.0463    142.3281     25.6536   6.9300607784e+01   4.6827843003e+01    0.1555592    0.1128902 -60.36 0.0007050049    1.753    0.430
       219  -8.4011    170.3199     29.6830   6.5367288656e+01   3.9100465806e+01    0.1566542    0.1140995 -60.98 0.0007041175    1.660    0.397
       220  -8.4683    128.3392     24.6692   7.2041234612e+01   5.0377806423e+01    0.1502337    0.1128658 -62.33 0.0007051801    1.741    0.425
       221  -9.0150    199.4750     20.5293   5.7897424402e+01   3.2414001218e+01    0.1442074    0.1426056  27.38 0.0001203128    1.003    0.003
       222  -8.3392    151.3321     19.6953   6.5243715625e+01   4.5273618876e+01     0.152172    0.1132604 -62.17 0.0005288521    1.659    0.397
       223  -9.6513    199.8930     15.4657   5.6247607143e+01   3.2835539371e+01    0.2817759    0.2398713 -38.56 0.0009629045    1.179    0.152
       224 -10.5240    238.6241    220.1054   9.8055219242e+01  -8.2658370908e-01     0.296527    0.2793588 -20.60  0.001924538    1.607    0.378
       225  -8.9357    162.4718     15.0058   6.1523379875e+01   4.2885914194e+01    0.2260786    0.1452495 -20.84  0.001026522    1.576    0.365
       226  -8.5758     26.6106     15.2929   1.0340894265e+02   6.9301169434e+01    0.1055953   0.08979995  86.82 0.0007010913    1.773    0.436
       227  -8.3076    207.3471     14.2964   5.4979528172e+01   3.0980927819e+01     0.155265    0.1019786  35.88 0.0007033689    1.675    0.403
       228  -8.6959    172.9890     14.4862   5.9653430430e+01   4.0139865980e+01    0.2235162    0.1423475  63.94 0.0007472215    1.528    0.345
       229  -9.9186    244.5185    231.0285   9.8759049650e+01  -2.6339278882e+00    0.2220461    0.1153959 -32.16  0.001165483    2.491    0.599
       230  -9.5991    238.8902    232.0147   9.9731247153e+01  -1.8937518428e+00    0.3027138     0.130338  52.59  0.001480352    3.321    0.699
       231 -10.4723    205.6881    235.5676   1.0523459111e+02   2.7409217914e+00    0.3299589    0.2628164  42.25  0.002044114    1.233    0.189
       232  -9.1867    113.5182    231.4943   1.1942992988e+02   1.6904160417e+01    0.1055877   0.07698649  54.42 0.0001448313    1.005    0.005
       233 -10.2323    248.3223    226.6992   9.7574722111e+01  -2.8338928518e+00    0.2447602    0.1513986  -9.26  0.001124797    1.758    0.431
       234  -8.7792     58.3093     11.6928   8.7891325942e+01   6.6083247039e+01    0.1157484   0.09767563 -58.65 0.0005303312    1.615    0.381
       235  -8.8723    199.3118    227.8250   1.0522612026e+02   4.4888276752e+00    0.1776581   0.09723133 -45.98  0.001091817    2.710    0.631
       236  -8.7535    190.6262    226.8031   1.0646987876e+02   5.9462534868e+00    0.1239522    0.1047763 -55.52 0.0009499885    1.735    0.423
       237  -9.2194    224.1806    225.3125   1.0101208225e+02   9.0067681805e-01    0.1763221      0.12829   8.62 0.0009839485    1.384    0.277
       238  -8.7654     99.2692    226.2388   1.2127847147e+02   1.9577504142e+01    0.1447412   0.09099245  62.58  0.001037374    1.340    0.254
       239 -10.7172    208.5166    223.7693   1.0323326204e+02   3.4710045292e+00    0.3595403    0.1758846  39.02  0.002168904    1.529    0.346
       240  -8.7841    156.3727    223.7465   1.1164687930e+02   1.1626036249e+01    0.1253336    0.1041533 -26.79 0.0009494498    1.668    0.401
       241  -9.3346    193.6126    219.8997   1.0508334948e+02   6.2274764665e+00    0.2337605    0.1351214  46.92  0.001457497    1.429    0.300
       242 -11.0328    247.2298    215.0397   9.5991744074e+01  -1.6846850570e+00     0.456175    0.2870832 -23.38  0.003163842    1.821    0.451
       243  -8.7950    159.9381    219.0000   1.1049533703e+02   1.1667292537e+01    0.1894242   0.04977718  43.95 0.0007966959    2.903    0.656
       244  -8.3762     56.1899    216.9390   1.2759699134e+02   2.6333697658e+01    0.1113648   0.06631766 -83.08 0.0008167067    1.653    0.395
