#   1 NUMBER                 Running object number                                     
#   2 MAG_AUTO               Kron-like elliptical aperture magnitude                    [mag]
#   3 X_IMAGE                Object position along x                                    [pixel]
#   4 Y_IMAGE                Object position along y                                    [pixel]
#   5 X_WORLD                Barycenter position along world x axis                     [deg]
#   6 Y_WORLD                Barycenter position along world y axis                     [deg]
#   7 A_WORLD                Profile RMS along major axis (world units)                 [deg]
#   8 B_WORLD                Profile RMS along minor axis (world units)                 [deg]
#   9 THETA_WORLD            Position angle (CCW/world-x)                               [deg]
#  10 FWHM_WORLD             FWHM assuming a gaussian core                              [deg]
#  11 ELONGATION             A_IMAGE/B_IMAGE                                           
#  12 ELLIPTICITY            1 - B_IMAGE/A_IMAGE                                       
         1 -14.3196      9.8345     68.6961   8.7178593973e+01   6.2932123163e+01     1.585647     1.379847 -38.66  0.006941294    1.177    0.150
         2 -13.4493    152.4163     61.7125   3.4981258478e+01   3.8450621997e+01     2.233302     1.471982  79.76   0.00382113    1.845    0.458
         3  99.0000    148.5701     45.9573   3.0606020896e+01   4.1903531091e+01     2.485367     1.668143 -25.12   0.01150347    1.631    0.387
         4 -14.6311     40.9060     71.8938   7.3937476573e+01   5.9345454271e+01     2.018993     1.550717  57.32  0.009475431    1.529    0.346
         5 -14.2894     13.4458     37.6899   7.7353787329e+01   6.9866762879e+01     2.238891     1.605714 -74.59    0.0131972    1.568    0.362
         6 -12.6104     51.8331     19.7701   4.7830480466e+01   6.8251795870e+01    0.8773332    0.6021787  43.60 0.0007051497    1.480    0.324
         7 -13.8646     79.3994     44.2241   4.8208600019e+01   5.8892135673e+01     1.163299     1.062242 -23.28  0.002982305    1.079    0.073
         8 -14.0682    116.8481     63.4510   4.3848643789e+01   4.6974796388e+01      2.47523     1.965977  -0.61   0.01172879    1.622    0.383
         9 -13.9006     93.5133     66.6711   5.1940228908e+01   5.1634202606e+01     1.881735     1.566127 -65.48  0.003026633    1.333    0.250
        10 -13.7312     57.0472     63.9364   6.4598233903e+01   5.8972905460e+01     1.842278     0.678618 -49.47  0.006870039    2.494    0.599
        11 -13.2233     39.5820     57.6036   7.0251177593e+01   6.2826926470e+01     1.312197    0.8724126 -52.40  0.004209258    1.359    0.264
        12 -13.5598     50.0336     49.1897   6.2355031853e+01   6.3220905724e+01     1.372138    0.6501176 -36.17  0.005638776    2.349    0.574
        13 -13.4148     74.5610     23.5272   4.0518432721e+01   6.3210455173e+01     1.085961     0.594254  41.46  0.001423507    1.800    0.444
        14 -12.8360     76.1817     11.3930   3.3799441209e+01   6.4382416813e+01     1.315569    0.8138959 -49.72  0.003912365    2.069    0.517
        15  99.0000     30.5045     21.5290   6.0054219302e+01   7.1309757124e+01      1.15428    0.9853811 -68.94  0.007188267    1.635    0.388
        16 -12.4737    226.4124     22.5934   1.4290491577e+01   2.5746304810e+01     0.485108     0.394762 -84.83  0.002045441    1.200    0.166
        17 -12.9333    222.6266     42.5953   1.9543994654e+01   2.4171813683e+01    0.9689934    0.6515179  84.03  0.004324314    1.604    0.377
        18 -12.4202    217.7811     29.9748   1.6829776351e+01   2.6822853754e+01    0.9535154    0.6543656 -36.62  0.003327776    1.319    0.242
        19 -13.8146    190.6878     60.3445   2.8059565832e+01   2.9139893134e+01     2.084516    0.9982817 -40.48  0.006903125    1.893    0.472
        20 -12.3582    198.6157     28.8300   1.8356026969e+01   3.1463818426e+01     1.186102    0.5424415 -62.32  0.004753331    2.572    0.611
        21 -13.3386    194.0682     43.6266   2.2954025499e+01   3.0690361302e+01     1.053459    0.7672053 -40.83  0.003719366    1.267    0.211
        22 -12.7240    187.5998     33.4408   2.0859366831e+01   3.3604381258e+01      1.52185    0.7805763  83.34  0.003691329    2.228    0.551
        23 -12.8276    171.8514     44.1838   2.6138843883e+01   3.6159142284e+01     1.478289    0.7851239 -83.21  0.005362543    2.885    0.653
        24 -11.8861    138.2463     18.9896   2.3004230419e+01   4.8090706697e+01    0.4936557    0.2843826 -13.50  0.001407912    2.152    0.535
        25 -11.9187    130.1167     19.3479   2.4513339960e+01   5.0184344601e+01    0.3905929    0.3383229  82.04 0.0005255372    1.109    0.099
        26 -11.6285    150.4390     22.7236   2.2429384377e+01   4.4462796372e+01    0.6531419    0.3029889  44.59  0.001324872    2.538    0.606
        27 -12.8329    176.2686     23.5113   1.9274513496e+01   3.7658616303e+01    0.3793973     0.333908   4.02 0.0004651321    1.396    0.284
        28 -10.8035    201.3548     19.9835   1.5693647846e+01   3.1826686160e+01    0.2980745    0.2721708 -18.74 0.0007213687    1.286    0.223
        29 -10.2596    151.4032     14.1747   1.9382879170e+01   4.5139072747e+01    0.4821306    0.2706299 -52.48   0.00158423    1.850    0.459
        30 -10.3627    155.0051     12.4961   1.8354814026e+01   4.4364539145e+01    0.3164368     0.240367  65.33  0.001711373    1.251    0.201
        31  99.0000     35.4743     14.4936   5.3245190100e+01   7.1778243094e+01    0.3934738    0.2652386  63.66  0.001920296    2.829    0.647
        32  -9.6071    218.5703      2.4027   9.8976507505e+00   2.9639155984e+01    0.3598638    0.1921774 -32.29  0.001904786    1.711    0.416
        33 -10.4047    227.8387      9.6082   1.1067761780e+01   2.6843460923e+01    0.2859171     0.203753 -86.40 0.0003090123    1.339    0.253
        34 -10.0863    228.8831      4.1888   9.7227871324e+00   2.7167662253e+01    0.4937653    0.3234817  22.47  0.002560023    2.672    0.626
        35 -11.7271    223.7308     14.3524   1.2481226603e+01   2.7251786729e+01    0.3728409    0.2346299 -27.35 0.0008839785    1.599    0.375
        36 -10.7349    221.5400      9.6234   1.1476236391e+01   2.8241550564e+01     0.377052    0.2534451 -33.37  0.001727841    1.404    0.288
        37 -10.2097     92.5719     13.8767   3.0290398287e+01   6.0289629198e+01    0.3135884    0.2649983  19.96 0.0008070754    1.219    0.180
        38  -9.2718    233.8055      6.3225   9.9401019892e+00   2.5885994691e+01    0.6716101    0.2112286 -33.42  0.002968518    2.468    0.595
        39 -12.6278    249.5332     12.0358   1.0344753158e+01   2.2017683844e+01    0.3323443    0.2088457 -33.09  0.001509926    1.425    0.298
        40 -13.6360    244.2029      8.8034   9.9231687185e+00   2.3443191847e+01    0.7865995    0.4224999 -74.61  0.003138954    1.819    0.450
        41 -11.1619    145.1045      9.3389   1.8547729912e+01   4.7274924423e+01    0.5373512    0.4094514  63.87  0.001876484    1.231    0.188
        42 -10.0409    123.5098     12.0574   2.2853699475e+01   5.2676612452e+01    0.2876643    0.1875097 -13.43   0.00139696    1.779    0.438
        43  -9.3233    124.5587      8.5095   2.1274881367e+01   5.2745365086e+01    0.1997695    0.1503684 -62.36 0.0007818975    1.426    0.299
        44 -11.5947    115.5417      9.0789   2.3080353493e+01   5.5029217781e+01    0.7264637    0.3509616  33.10   0.00285054    2.738    0.635
        45 -14.1497     60.5004     34.9001   5.1548779369e+01   6.4219474263e+01     3.957771     2.165943 -42.50   0.01258785    1.813    0.449
        46 -10.6872    131.5547     11.6389   2.1351158500e+01   5.0615109829e+01    0.4647178    0.2330217  89.75  0.001821127    2.530    0.605
        47 -10.4324     84.6719      7.9586   2.9525143399e+01   6.2790845898e+01     0.581984    0.3252974 -51.44  0.002602693    2.393    0.582
        48 -12.0602     85.8852      1.8727   2.6136721361e+01   6.3068933891e+01    0.5280663    0.1723219  55.40  0.002073805    2.467    0.595
        49 -11.3762     48.3521      9.3573   4.3469325465e+01   7.0343655794e+01    0.4642161    0.3359066 -26.41    0.0017281    1.355    0.262
        50 -11.9978     48.0695      1.8141   3.8862041974e+01   7.1300862746e+01    0.4948103    0.1642493  46.77  0.002053735    2.686    0.628
        51  -9.9070    171.1071     10.6744   1.5938921262e+01   4.0363352197e+01    0.2159883    0.1480656 -80.00 0.0002346356    1.413    0.292
        52 -11.8253    193.7939      7.7173   1.3003414782e+01   3.4957970996e+01    0.2762352    0.2312671  66.44 0.0008149039    1.279    0.218
        53 -12.6067    173.6217      3.9605   1.3652203798e+01   4.0364915024e+01    0.4425844    0.2337142 -17.37  0.001466137    2.229    0.551
        54 -10.0852     27.6558      9.2602   5.4723552622e+01   7.3731974748e+01    0.2127987    0.1642791  27.07  0.001354182    1.298    0.230
        55  -9.5561    157.2333      7.5551   1.6453980990e+01   4.4263207145e+01    0.1946968    0.1136523  60.46 0.0009277722    1.622    0.383
        56 -10.5775    100.1164      6.1294   2.4881802364e+01   5.9215292926e+01     0.283596    0.2098827  84.20  0.001507882    1.461    0.316
        57 -10.2031    102.6473      4.2947   2.3515387342e+01   5.8746071745e+01    0.2330488    0.1967705 -86.61 0.0007116882    1.263    0.208
        58 -10.5673      3.0823      6.4188   7.0913690081e+01   7.6917460181e+01    0.2750601    0.1815637  -3.09  0.001743129    1.529    0.346
        59 -10.1952    210.9127      6.0336   1.1292256650e+01   3.1038141377e+01    0.1846422    0.1673581 -65.27 0.0005668305    1.120    0.107
        60  -9.6968    136.8173      4.7682   1.8018221182e+01   4.9873113542e+01    0.3051447   0.09768504 -43.13  0.001074919    3.197    0.687
        61 -10.8080    183.4550      3.5019   1.2663458849e+01   3.7923684678e+01    0.3440165    0.1945436 -54.30 0.0009219835    1.639    0.390
        62 -10.4342    111.0600      3.7723   2.1665215179e+01   5.6658042740e+01    0.3635816    0.1945124  77.26  0.001030173    1.913    0.477
        63 -11.2963     11.8977     97.3476   9.0827613062e+01   5.5694671545e+01    0.2756899    0.2103205 -67.70 0.0007987179    1.133    0.117
        64 -10.7887    248.9530    249.8017   5.7686163230e+01  -7.7720337750e+00    0.2071478    0.1265189   9.44  0.001540323    1.264    0.209
        65 -11.7410     73.6829     96.6606   6.7848254736e+01   4.8624601062e+01    0.3740775    0.2747038  44.27  0.001838245    1.407    0.289
        66 -12.6423     47.6571     94.9096   7.6849284902e+01   5.2870602431e+01     0.607505    0.3174069  52.09  0.002565488    2.299    0.565
        67 -10.3878    224.0027     94.9985   3.2209578524e+01   1.6435042568e+01    0.2861719    0.1481253 -52.11  0.001241515    2.210    0.548
        68 -11.2604    223.4846     90.9400   3.1315322293e+01   1.7156819214e+01    0.3655891    0.1964798 -49.79  0.001460093    1.925    0.480
        69 -10.7661     16.9613     93.9551   8.8428072754e+01   5.6185113236e+01    0.3865139    0.2001272  88.59  0.001751544    2.124    0.529
        70 -10.6290    232.9964     94.7606   3.0941079703e+01   1.4688372850e+01    0.2138345    0.1622428 -33.89 0.0004349719    1.140    0.123
        71  -9.7108    212.2970     95.3632   3.3987197811e+01   1.8791223379e+01    0.1417362     0.106795   3.61 0.0007032633    1.716    0.417
        72  -9.8729    206.8305     94.8394   3.4692390436e+01   2.0036705498e+01    0.2031589     0.158831 -58.47  0.001074587    1.366    0.268
        73 -12.3026    190.3983     93.7027   3.7091630977e+01   2.3843276365e+01    0.5660774    0.3673737  43.89  0.001989573    1.690    0.408
        74  -9.5943    210.2150    111.9773   3.8303755628e+01   1.6546989255e+01    0.2355869    0.1783188  70.22 0.0009433749    1.675    0.403
        75 -10.8226     67.7640     94.9135   6.9479384617e+01   5.0012644452e+01    0.2585114    0.2203777  36.51  0.000401927    1.242    0.195
        76 -13.4046     62.4500     91.3517   7.0496328020e+01   5.1706019655e+01    0.8262098    0.5059959  63.72  0.003486105    2.254    0.556
        77 -12.3955     52.4467     86.3904   7.3016420919e+01   5.4358184140e+01    0.4322535    0.3097735  17.57  0.001190385    1.675    0.403
        78 -12.2609     47.7326     85.7597   7.4703290262e+01   5.5135190574e+01    0.3982942    0.2511086  33.52  0.001915947    1.699    0.411
        79 -10.5282     89.2103     93.9671   6.1906231936e+01   4.6491678427e+01    0.2359144    0.2168535  46.90 0.0002320559    1.113    0.102
        80 -13.2758    197.6114     83.5265   3.3255309584e+01   2.3900116066e+01     1.147278    0.7135367 -12.33  0.003414004    2.314    0.568
        81 -12.9627    190.1151     80.2743   3.3595205860e+01   2.6151347341e+01     1.072467    0.5110638 -19.45  0.003538428    3.524    0.716
        82 -12.7262    168.5823     79.5617   3.7193970864e+01   3.1397214261e+01    0.7136201    0.4552677 -54.54  0.001335345    1.698    0.411
        83 -12.0429    162.2100     84.3847   3.9824733716e+01   3.2079330332e+01    0.7393181    0.5339206  79.66  0.002843905    1.707    0.414
        84 -10.4089    154.6024     85.7350   4.1802315685e+01   3.3662128220e+01    0.3380969    0.2099317  39.98 0.0009562845    1.822    0.451
        85 -11.6829    173.8322     88.1283   3.8595768796e+01   2.8636686576e+01    0.9474669    0.6556684   4.61  0.003959054    2.305    0.566
        86 -11.0824    180.7735     83.6383   3.6094811351e+01   2.7779162717e+01    0.3953952    0.3810287  76.91  0.001547193    1.074    0.069
        87 -11.5441    184.2479     79.5445   3.4373545663e+01   2.7647799961e+01    0.3301652    0.2856372 -23.82   0.00136951    1.207    0.172
        88 -10.3326     79.5623     90.9365   6.4293051530e+01   4.8982751065e+01      0.24172    0.2109535   9.37 0.0004612354    1.341    0.254
        89 -10.2890     87.2801     89.7693   6.1355989258e+01   4.7834590785e+01     0.331767    0.1895496  48.49 0.0008206609    1.846    0.458
        90  -9.9256     22.5126     90.5358   8.5712661718e+01   5.6603921528e+01     0.134338    0.1161214 -67.64 3.654155e-05    1.029    0.028
        91 -11.8101    236.1266     85.9576   2.8504491685e+01   1.5362627777e+01     0.502402     0.283762  71.78  0.002412243    2.412    0.585
        92 -11.3589    232.6797     79.0133   2.7297622929e+01   1.7048637995e+01    0.3895864    0.2526701 -71.05  0.001951184    2.025    0.506
        93 -10.2411    250.5491     74.5545   2.4269768184e+01   1.4182105056e+01    0.2766598    0.1224214 -42.50 0.0009045705    1.870    0.465
        94 -10.8499    247.6113     82.0927   2.6279478970e+01   1.3703289095e+01    0.6236328     0.187682 -34.56  0.002456595    2.633    0.620
        95 -10.0075    249.3105     77.6757   2.5100875485e+01   1.3991073524e+01    0.2348123    0.1738319 -65.69   0.00110699    1.505    0.336
        96 -11.5033     29.9056     81.1684   8.0895996268e+01   5.8276276055e+01    0.5480501    0.2879335 -77.11  0.002439779    2.052    0.513
        97 -10.7444     26.3333     81.2675   8.2413605088e+01   5.8587005413e+01    0.2209625    0.1518703  66.89 0.0002568483    1.723    0.419
        98 -14.0442    128.2391     90.3451   4.9405932253e+01   3.8991698308e+01     1.259485     1.029346 -17.30 0.0006033494    1.465    0.318
        99 -10.0477     23.7426     84.9372   8.4210373883e+01   5.7902519514e+01    0.1942306    0.1482345 -70.03 0.0005547547    1.150    0.130
       100  -9.8415    212.4455     83.4781   3.1029076209e+01   2.0619865957e+01    0.1396541    0.1260013 -38.28 3.795675e-05    1.026    0.025
       101 -13.0853     78.6568     58.9442   5.4301181700e+01   5.6238554168e+01    0.9173804    0.4413237  38.81   0.00365543    2.214    0.548
       102  -9.9447    230.2211     83.2090   2.8592533073e+01   1.6937878145e+01    0.1906779    0.1570509 -40.16 0.0005971482    1.052    0.049
       103 -11.9683    216.8229     84.9428   3.0778563355e+01   1.9456853354e+01    0.4045256    0.2633333  17.79  0.001797275    2.502    0.600
       104 -10.5956    138.8004    112.2041   5.2750451504e+01   3.2024810325e+01    0.2144886    0.1873294   1.38 0.0006011399    1.352    0.260
       105 -13.2672    203.7804     69.9444   2.8786892178e+01   2.4619460958e+01     1.101671    0.5176353 -58.97   0.00399061    3.055    0.673
       106 -11.0594    210.0280     21.9952   1.5463433627e+01   2.9542375918e+01    0.4551688    0.2998595 -80.97  0.001597577    1.503    0.335
       107 -11.3962    242.2076     60.8237   2.1988883984e+01   1.7647463394e+01    0.5786905    0.3277395 -60.91  0.002590149    1.960    0.490
       108 -11.2010    229.0968     57.3675   2.2516020477e+01   2.0818758073e+01     0.317772    0.2583724 -31.33 0.0008328313    1.183    0.155
       109 -11.5852    234.0900     37.1584   1.7175440631e+01   2.2360051289e+01    0.5545055    0.3983549  85.89  0.003045722    1.474    0.321
       110 -13.0464    220.4726     58.3801   2.3713336432e+01   2.2545219518e+01     1.462961     0.812026 -80.62  0.006298573    2.626    0.619
       111 -12.8164    234.7286     62.1058   2.3056902026e+01   1.8995764664e+01    0.8207759    0.5911095  -8.07  0.004451823    1.786    0.440
       112 -11.5750    237.4210     52.7547   2.0570964269e+01   1.9685655130e+01    0.4831026    0.3205774 -17.58  0.002241878    1.750    0.429
       113 -12.1317    232.4850     47.1880   1.9717883548e+01   2.1441971722e+01    0.8303821    0.5419328  32.41  0.003749266    2.355    0.575
       114 -10.2892    118.3903    110.7624   5.7685618285e+01   3.6746376106e+01    0.2211957    0.1450376 -38.78 0.0008297717    1.641    0.391
       115 -10.2458     97.0203    109.4907   6.3534746194e+01   4.1345197955e+01    0.2272203    0.1507865  40.91 0.0004283841    1.531    0.347
       116 -11.3261    226.3599     30.6659   1.6261662276e+01   2.4819237672e+01    0.3308538    0.2480035 -37.80 0.0005886829    1.209    0.173
       117 -12.9358    203.5358     60.5265   2.6337659167e+01   2.6071626611e+01    0.8717006    0.5731314 -75.32  0.003256977    1.831    0.454
       118 -11.9140    209.6839     58.5692   2.5040976820e+01   2.4936234574e+01    0.4797451    0.2552564 -47.16  0.000300641    1.733    0.423
       119 -10.1506    208.0155     84.9971   3.2050197959e+01   2.1347418158e+01    0.2156766     0.169837   9.33 0.0005481013    1.631    0.387
       120 -10.7839    155.3720     76.5862   3.8951187494e+01   3.5148556901e+01    0.3202711    0.2732518  48.81 0.0007018239    1.210    0.173
       121 -11.0492    105.5447     74.4985   5.0821464149e+01   4.7417964262e+01    0.4254053    0.3482254  30.44  0.001780781    1.345    0.256
       122 -11.8938    176.6781     70.3259   3.3087833063e+01   3.0984432822e+01    0.7693757    0.4270678 -60.40  0.001742995    2.339    0.572
       123 -11.7680    165.1962     65.2822   3.3642884637e+01   3.4646331842e+01    0.8218747     0.468937  52.24  0.002012468    1.784    0.440
       124 -10.7085    151.2744     73.0208   3.8732834517e+01   3.6795134414e+01    0.3068796     0.245256 -33.92 0.0006193751    1.271    0.213
       125  -9.6169    244.1630     72.8724   2.4562859158e+01   1.5633179793e+01    0.1898321    0.1680349 -42.76 0.0005970238    1.060    0.056
       126  -9.8338    240.4953     73.5542   2.5118848198e+01   1.6257882208e+01     0.233767    0.1310252  64.48 0.0006494952    2.096    0.523
       127  -9.4957    235.2026    108.6186   3.3804428719e+01   1.2213107799e+01    0.1563292    0.1215153  35.10 0.0001940098    1.471    0.320
       128 -10.7405    182.1032     61.6602   2.9721330946e+01   3.1027784323e+01     0.355802    0.2621718  64.38  0.001066847    1.394    0.283
       129 -11.8494    173.5297     54.6307   2.9025860827e+01   3.4223879447e+01    0.8886541    0.5721672 -89.56  0.003459209    1.922    0.480
       130 -10.6176    195.5023    106.9836   3.9566332886e+01   2.0450293395e+01    0.3905478    0.2281726 -48.77  0.001741318    1.783    0.439
       131 -10.8149    161.9742    107.4622   4.6180976323e+01   2.7793330584e+01    0.2486653    0.2009379 -39.00 0.0007787952    1.217    0.178
       132 -10.7556     15.1417    105.5988   9.0699620416e+01   5.3382971962e+01     0.312023    0.1323152  88.63  0.001235138    2.722    0.633
       133 -11.9171    209.4940     46.1619   2.1826802706e+01   2.6685636977e+01     1.133014    0.5022866 -62.85  0.004151418    3.180    0.686
       134 -11.2571    201.9366     45.7975   2.2598105255e+01   2.8507385622e+01    0.4538541    0.2950346 -19.59  0.001247466    1.778    0.438
       135 -10.4118    183.3202    105.0541   4.1281132860e+01   2.3447588960e+01    0.2526243    0.2132931  73.75 0.0003384105    1.351    0.260
       136 -12.4541    160.7315     37.8473   2.5861526972e+01   3.9886707982e+01    0.7507587     0.500466  -5.53  0.003184914    2.083    0.520
       137 -11.9042    162.5725     29.4892   2.2903088192e+01   4.0481840077e+01    0.5250075    0.3285895 -86.31  0.001628346    1.795    0.443
       138  -9.4877    249.9520     65.0024   2.2181607678e+01   1.5573798468e+01    0.1608483    0.1254644 -39.99  0.001000377    1.055    0.052
       139 -11.6250    175.2556     39.1000   2.4107590087e+01   3.5983407565e+01    0.5254063    0.4199234  55.58  0.001770741    1.315    0.239
       140 -10.0062    161.1567     49.6678   2.9554072248e+01   3.8108713500e+01    0.6328655    0.3089066  38.17  0.002231857    3.027    0.670
       141  -9.9300    162.4842     59.5102   3.2383137730e+01   3.6258780016e+01    0.3118099    0.2441141  71.65 0.0006558001    1.305    0.234
       142 -11.4693    162.1563     54.8236   3.0993556300e+01   3.7074535172e+01    0.5059413    0.3732464 -68.45  0.001590065    1.491    0.329
       143 -11.1423    247.6069     56.2234   2.0414876780e+01   1.7179359746e+01     0.391405    0.2952304 -65.34  0.002201484    1.321    0.243
       144 -10.7246     99.8010     54.0518   4.5345264336e+01   5.2681927066e+01    0.6282271    0.3467723  50.19  0.002652095    1.798    0.444
       145 -10.5421    109.1895     56.4239   4.3466036527e+01   5.0075487249e+01    0.3527798     0.268375 -51.35  0.001504935    1.381    0.276
       146  -9.9798    124.9326     53.4930   3.8271416259e+01   4.6754635785e+01    0.2232766     0.202395 -40.35 0.0005096121    1.116    0.104
       147  -9.6566    111.6386     52.1626   4.1212871887e+01   5.0239919637e+01    0.1934563     0.180335 -30.29 0.0003129219    1.097    0.088
       148 -11.0457     90.3452     51.0058   4.7177171473e+01   5.5344269740e+01    0.2560762    0.2055366  46.20   0.00062324    1.244    0.196
       149  -9.7380    245.0030     50.2457   1.9284586742e+01   1.8464854370e+01    0.1652328    0.1407863 -70.23 0.0008571667    1.171    0.146
       150  -9.7493    119.2301     50.3433   3.8547411685e+01   4.8693456848e+01    0.2253214    0.1705708  44.66 0.0005784582    1.339    0.253
       151 -10.7168     99.6012     47.3958   4.2834951778e+01   5.3898713555e+01    0.3303737    0.2682092  25.74 0.0009711519    1.358    0.264
       152  -9.9210    105.4472     44.1351   3.9852430109e+01   5.3063921877e+01    0.3768702        0.263 -12.37  0.001271146    1.812    0.448
       153  -9.9491     91.8036     45.8955   4.4661837198e+01   5.5928969349e+01    0.3019407    0.1881492 -59.72  0.001261629    2.210    0.548
       154  -9.5966     93.7689     42.2163   4.2533543025e+01   5.6106309435e+01    0.5149821    0.2440443 -33.42  0.002050078    2.189    0.543
       155 -11.1681    248.3180     43.1939   1.7393198308e+01   1.8685733563e+01     0.568453    0.2543046 -63.73  0.002365868    2.792    0.642
       156 -10.0070    241.9979     41.5771   1.7545520533e+01   2.0163295899e+01     0.336138    0.1414237 -38.13  0.001589249    1.870    0.465
       157  -9.3528    246.2560     46.6517   1.8351998727e+01   1.8667926803e+01     0.134628    0.0750094 -52.22 0.0002669512    1.596    0.373
       158 -10.2315    100.6800     40.7019   3.9834215858e+01   5.4746376581e+01     0.290113    0.1978022  53.35  0.001382637    1.431    0.301
       159 -10.0797    125.0421     36.9989   3.2208118934e+01   4.9273501280e+01     0.231342    0.2185369  49.52  0.001285993    1.062    0.059
       160 -11.5246    110.3408     35.5278   3.5114841655e+01   5.3188949414e+01    0.4118105    0.2965712   5.60 0.0009217258    1.826    0.452
       161 -11.7900     92.3936     33.1247   3.9100927522e+01   5.7846785265e+01    0.4371531    0.3621006   8.26  0.002340134    1.335    0.251
       162 -10.4276    169.1281     33.1923   2.3151223289e+01   3.8320817825e+01    0.3101958     0.241433  50.48  0.001625895    1.381    0.276
       163  99.0000    131.6410     31.6130   2.8823343377e+01   4.8302802352e+01    0.5565785    0.4006161 -18.66  0.002721342    1.571    0.363
       164  -9.4532    134.6788    105.2903   5.1956116242e+01   3.4399686840e+01     0.156639    0.1230702 -89.64  0.000350154    1.605    0.377
       165  -9.9710    140.5871     28.3321   2.5973169595e+01   4.6382983175e+01    0.2504216    0.1764849 -39.11 0.0009081105    1.430    0.301
       166 -11.1795    133.2889     24.7411   2.5966583362e+01   4.8732545204e+01    0.6141143    0.3137738  83.65  0.002246113    2.544    0.607
       167 -10.6366    120.0947     21.4650   2.7238484533e+01   5.2548180666e+01    0.6614339    0.1730251  55.02  0.002156548    3.144    0.682
       168 -10.2896    102.9492    104.8010   6.0550906421e+01   4.1282700309e+01    0.2197445    0.2059564   1.91 0.0002428526    1.205    0.170
       169 -10.5356     75.0786     33.4989   4.5078616941e+01   6.1603100922e+01     0.293412    0.2152806  55.05  0.000835688    1.455    0.313
       170 -11.3223    156.0731     24.0419   2.2052352027e+01   4.2831599989e+01    0.2784752     0.233271 -49.63 0.0002887028    1.174    0.148
       171 -10.0036    122.0459     33.0558   3.1368719057e+01   5.0586339745e+01     0.211291    0.2018461  58.91 0.0004323469    1.024    0.024
       172 -10.5222    237.4262     30.7148   1.5383616481e+01   2.2427609512e+01    0.2641582    0.2003939 -89.92  0.001141596    1.356    0.263
       173 -10.8487    104.3251     28.7902   3.3881573851e+01   5.5610385048e+01    0.3193167    0.2049091 -43.96 0.0008432962    1.668    0.400
       174 -10.1924    240.6336     69.3565   2.4130586049e+01   1.6809071178e+01    0.2734328    0.1853352  14.25  0.001356711    2.389    0.581
       175  -9.7769    146.3754     28.2255   2.4956237570e+01   4.4876754823e+01    0.4331178    0.1981497 -42.87   0.00173714    2.178    0.541
       176 -11.8613     69.7591    102.8634   7.0725224120e+01   4.7742418813e+01    0.4360433    0.1890321 -51.97  0.001158885    2.173    0.540
       177 -11.6075    124.1986     26.0746   2.8216673204e+01   5.0936573214e+01     0.443275    0.3997858  -5.35  0.002483389    1.224    0.183
       178 -11.1099    113.9050     27.7232   3.1097609206e+01   5.3362843563e+01    0.5392108    0.2749197  59.41  0.001885597    1.833    0.455
       179 -11.9026     86.2826     28.3837   3.8883848010e+01   5.9937091951e+01    0.3812488    0.2615761  62.20 0.0007535141    1.564    0.361
       180 -10.3912    244.4924     19.5463   1.2317058483e+01   2.2231469817e+01    0.2584127    0.1707163  83.09  0.001320124    1.586    0.369
       181 -10.5060    246.4689     23.0096   1.2969313597e+01   2.1440780231e+01    0.2825517    0.1884299  78.87  0.001720836    1.610    0.379
       182 -11.6357    241.0869     22.9674   1.3320843983e+01   2.2554287200e+01     0.244655    0.2146896  82.28 0.0003328098    1.280    0.219
       183 -10.3461    233.4847     26.5358   1.4700191445e+01   2.3754431435e+01    0.2745529    0.1654349  71.72 0.0009531376    1.768    0.434
       184 -11.2275    236.2586     23.5269   1.3787855350e+01   2.3506845775e+01    0.3582586    0.1766757  60.27 0.0007583719    2.290    0.563
       185 -12.3734    144.6935    102.8873   4.8860587606e+01   3.2634862317e+01    0.7159728    0.3582439  54.86  0.002707109    2.164    0.538
       186  -9.4987    160.3969     24.2242   2.1507758203e+01   4.1679383391e+01    0.1993335    0.1201845 -42.65 0.0004408148    1.608    0.378
       187  -9.9438    184.9207     22.9139   1.8127775481e+01   3.5536233922e+01    0.2396426    0.1423567 -62.78  0.001129661    1.709    0.415
       188  -9.3199     98.5062     21.8528   3.2388443301e+01   5.7925594910e+01    0.3972357    0.3068759  62.57  0.002115076    1.266    0.210
       189 -10.0736     89.3714     22.7337   3.5331571518e+01   5.9993287399e+01    0.2210541    0.2071603 -62.98 0.0006180959    1.193    0.162
       190 -10.2067    205.4718     18.3721   1.4904594889e+01   3.1021786503e+01    0.1714433    0.1107354 -43.98 0.0005871407    1.361    0.265
       191 -11.2982    141.7366     98.1303   4.8259646338e+01   3.4280575953e+01    0.4091926    0.2864963 -63.36 0.0009015141    1.703    0.413
       192 -10.0100    199.9625     15.7625   1.4679521684e+01   3.2625001499e+01    0.1785226    0.1133183 -86.56 0.0003842199    1.547    0.354
       193 -10.1338    163.0282     20.3257   1.9901686003e+01   4.1436955754e+01    0.3133895    0.1771625 -52.10 0.0008470296    1.784    0.439
       194  -9.5095    159.4787     18.5671   1.9788552586e+01   4.2556823501e+01    0.2520558     0.108637  58.48 0.0007256267    2.163    0.538
       195 -11.3780    194.4191     18.6430   1.5964195947e+01   3.3659313356e+01    0.3047152    0.2545476  75.67 0.0009985837    1.206    0.171
       196  -9.8754    169.9210     18.6727   1.8538232426e+01   3.9832026055e+01    0.3328919    0.1403353  59.23  0.001358434    2.242    0.554
       197 -10.4421    114.0954     17.7005   2.6944002176e+01   5.4515023908e+01    0.4351376     0.257003 -80.63    0.0017964    2.443    0.591
       198 -10.3020    107.4676     17.1115   2.8131888057e+01   5.6261409282e+01    0.2010261    0.1745124  63.53 0.0003386703    1.090    0.082
       199  -8.6462    211.7484     15.3051   1.3597838118e+01   2.9880741463e+01    0.2012761    0.1117109 -86.53 0.0002781187    1.851    0.460
       200 -14.2074     67.8783     80.8605   6.5611746463e+01   5.3364581117e+01     1.614372     1.344402 -18.34  0.004540632    1.395    0.283
       201 -12.7026    127.3139     58.7692   3.9539514862e+01   4.5264586274e+01     1.914815    0.9258729  30.02  0.005312901    4.777    0.791
       202 -10.1579    103.0125     15.1610   2.8299324354e+01   5.7590939489e+01    0.2032207    0.1900323  -3.83 0.0003109277    1.130    0.115
       203 -13.2872      4.7640     54.7581   8.6843194724e+01   6.6551618740e+01    0.9377249    0.6243502 -64.34  0.004481262    1.247    0.198
       204 -13.6813    220.3292     71.6557   2.7035158323e+01   2.0690223227e+01      1.36551     0.979049 -49.81  0.004872136    1.286    0.222
       205 -14.2162    121.7688     84.9073   4.9494361540e+01   4.1602840270e+01     2.430523     1.589077  23.60  0.003614664    2.266    0.559
       206 -11.3569    112.9988    246.8054   8.1323102524e+01   1.0281166185e+01    0.3164172    0.1966939 -35.36  0.001724969    2.458    0.593
       207 -13.6829    136.0023     82.7540   4.5181405742e+01   3.8698829781e+01     1.856601    0.8981804  51.30  0.007046753    2.072    0.517
       208 -10.0821     36.0000    248.4600   9.6279285498e+01   1.9630137427e+01    0.2055668   0.05697865 -76.73 0.0009434196    4.005    0.750
       209  -9.5198    227.0000    241.9837   6.0009157280e+01  -4.4495437758e+00    0.1491944   0.05546618 -33.83 0.0006995715    2.866    0.651
       210  -9.6544    173.0168     14.9821   1.7054613098e+01   3.9431207901e+01    0.1690381    0.1444651 -89.01 0.0008556468    1.073    0.068
       211 -11.5530    249.6767    239.3128   5.6049708498e+01  -6.8311358344e+00     0.262097   0.08271538 -33.31  0.001365198    3.202    0.688
       212 -10.2319     15.8962    238.6094   9.9628130882e+01   2.3458698334e+01    0.1666575    0.1265711 -89.94 0.0005672766    1.379    0.275
       213  -9.6073    159.6239    219.7601   6.8873097145e+01   7.6988146716e+00    0.1407048    0.1198837 -57.62 0.0003360263    1.542    0.351
       214  -9.6905    174.2408    131.2482   4.9447773412e+01   2.0586331209e+01    0.1887717    0.1694675 -77.98 0.0004024768    1.315    0.239
       215  -9.6744    166.4952     13.8664   1.7431536003e+01   4.1229193467e+01    0.1897626    0.1327161 -32.37 0.0003673305    1.451    0.311
       216 -12.4278     25.2220     43.9946   7.2863907633e+01   6.7450497734e+01    0.8233873    0.7102343  35.12  0.005225881    1.332    0.249
       217 -12.0451     26.1946     35.8598   6.9235162782e+01   6.9072017982e+01     0.319759    0.2510806 -29.66 0.0005859513    1.159    0.137
       218 -10.9957    152.8940    124.0857   5.2375174929e+01   2.6495111302e+01     0.227328     0.224206 -68.33            0    1.033    0.032
       219  -9.8957    108.0621     12.7397   2.6116706062e+01   5.6578388114e+01     0.198446    0.1804409 -87.52            0    1.144    0.126
       220 -10.5102    204.0599    116.4588   4.0380000980e+01   1.7057031948e+01    0.4724635    0.3147822 -86.14  0.001958978    2.920    0.657
       221 -10.3321    181.5102    115.5029   4.4237061636e+01   2.1960068023e+01    0.2922308    0.2114579 -88.62  0.001299238    2.129    0.530
       222  -9.9258    178.1799    114.6062   4.4665742884e+01   2.2845366341e+01    0.2457257    0.2030853  13.28  0.001254301    1.405    0.288
       223  -9.3096    242.0517    114.2171   3.4113363785e+01   1.0146790267e+01    0.1462171     0.105969  48.19 0.0004390841    1.599    0.375
       224  -9.7329    143.4270    113.1973   5.1881676908e+01   3.0796370664e+01    0.2108978     0.145493 -54.45 0.0009344398    1.539    0.350
       225 -11.7526    133.2785    111.9911   5.4074958426e+01   3.3280905266e+01     0.349479    0.3233015 -72.08  0.001539576    1.112    0.101
       226 -10.0238    236.9157    102.4864   3.2191544594e+01   1.2799803933e+01    0.3140638    0.1330602  55.74  0.001372767    2.770    0.639
       227 -10.2125    165.0182    101.4838   4.3963614833e+01   2.8243473303e+01    0.2402532    0.2052344 -41.15 0.0007291367    1.140    0.123
       228 -10.1145    101.8393     10.5190   2.6494804895e+01   5.8366454551e+01    0.2072932    0.1304297  68.06  0.001004808    1.537    0.349
       229 -11.1876    100.6804     93.3086   5.8089541171e+01   4.4376382662e+01    0.2449091    0.2184956 -79.91   0.00051035    1.184    0.155
       230 -11.3367     95.7676     89.6049   5.8552840259e+01   4.6212100258e+01    0.5188455     0.396847  81.44  0.001273616    1.678    0.404
       231 -11.3842     96.7354    100.5462   6.1311174455e+01   4.3502855458e+01    0.3104421    0.2644024 -34.48 0.0007073549    1.269    0.212
       232 -12.1178     86.5530     98.9468   6.4121001360e+01   4.5815207461e+01     0.554599    0.4092897  29.94  0.001424573    1.515    0.340
       233 -10.1349    219.0810     99.6341   3.4011904599e+01   1.6716935530e+01    0.2215127     0.174913  44.85 0.0008528999    1.410    0.291
       234 -11.2723    169.7683     97.4068   4.1904990637e+01   2.7909585839e+01    0.3744643    0.3649053  61.75 0.0006289038    1.057    0.054
       235  -9.5526    165.6965     95.7056   4.2269429706e+01   2.9170821134e+01    0.2344563    0.1857626 -24.93 0.0008448132    1.359    0.264
       236 -11.6879    153.4006     96.4222   4.5089115370e+01   3.1908754181e+01    0.5848168    0.4402274  43.56  0.001086587    1.380    0.275
       237 -12.8492    106.6299     95.2703   5.6852536406e+01   4.2701076161e+01    0.7773774    0.4651797 -37.56  0.002017876    1.845    0.458
       238 -11.3438    199.6643     95.7718   3.6066349574e+01   2.1437376318e+01    0.3965508    0.2652605 -53.21  0.000991607    1.587    0.370
