#   1 NUMBER                 Running object number                                     
#   2 MAG_AUTO               Kron-like elliptical aperture magnitude                    [mag]
#   3 X_IMAGE                Object position along x                                    [pixel]
#   4 Y_IMAGE                Object position along y                                    [pixel]
#   5 X_WORLD                Barycenter position along world x axis                     [deg]
#   6 Y_WORLD                Barycenter position along world y axis                     [deg]
#   7 A_WORLD                Profile RMS along major axis (world units)                 [deg]
#   8 B_WORLD                Profile RMS along minor axis (world units)                 [deg]
#   9 THETA_WORLD            Position angle (CCW/world-x)                               [deg]
#  10 FWHM_WORLD             FWHM assuming a gaussian core                              [deg]
#  11 ELONGATION             A_IMAGE/B_IMAGE                                           
#  12 ELLIPTICITY            1 - B_IMAGE/A_IMAGE                                       
         1  -8.8283    247.8458     11.6527   5.8021268999e+01   2.3006213536e+01    0.1680467    0.1383161 -63.02 0.0009502032    1.161    0.138
         2  -9.8782    241.7390      9.0090   5.7988495309e+01   2.4642401719e+01    0.4186474    0.2905468  32.65  0.002291776    2.623    0.619
         3  -8.8127    220.6669    234.3164   1.0940387889e+02  -7.9415011876e+00    0.1153232   0.09971599  66.90 0.0005127253    1.689    0.408
         4 -10.4125    203.9762    218.9906   1.0989431597e+02  -2.7463410190e+00    0.3798719    0.2849818 -35.05  0.002172654    1.424    0.298
         5  -9.0326    168.7775    219.6137   1.1702861524e+02   3.5448728461e+00    0.2012624    0.1163921  49.56 0.0009509237    1.653    0.395
         6  -8.9375    182.6795    217.6819   1.1388340924e+02   1.3266060378e+00     0.137825     0.103002   7.63 0.0003003293    1.663    0.399
         7  -9.5142    195.2346    215.7010   1.1102432228e+02  -6.2687207016e-01    0.2593246    0.2337626 -32.22  0.001583278    1.200    0.167
         8 -10.0668    235.5322    210.8489   1.0242320251e+02  -6.8692269980e+00    0.6524301    0.3641084  -5.22  0.002711576    3.034    0.670
         9  -8.6817    243.5566    214.2533   1.0160824194e+02  -8.6811333067e+00    0.1753441    0.1097844 -21.51 0.0008934103    1.615    0.381
        10 -10.0954    205.4672    205.0343   1.0703867015e+02  -6.6213811620e-01    0.3921503    0.1920572 -56.00  0.001479916    3.352    0.702
        11  -8.8129    184.3200    202.6615   1.1085226427e+02   3.7387833632e+00    0.1404171    0.1118756  80.82 0.0007049908    1.711    0.416
        12  -9.1094    230.1407    200.1233   1.0136653457e+02  -4.2558818019e+00    0.4018619    0.2137994 -23.88  0.001786075    2.266    0.559
        13 -10.2221    213.1618    198.1540   1.0421285588e+02  -8.8514078278e-01    0.4767038    0.3681513 -85.83  0.002362395    2.205    0.546
        14  -9.3455    249.2577    196.5512   9.7211049884e+01  -6.9094069699e+00    0.2933469    0.1675368 -51.41  0.001372585    2.442    0.591
        15  -8.4222    243.6518    198.2854   9.8543641402e+01  -6.2580603015e+00    0.1177793    0.1066938  88.81 0.0004154264    1.653    0.395
        16  -9.1145    226.5634    191.0922   1.0025627856e+02  -2.1153785169e+00    0.3245185    0.1856713 -19.24  0.001408409    2.303    0.566
        17  -9.6437    233.6708    189.5357   9.8623994282e+01  -3.1233292428e+00    0.3513587    0.2560508  67.65  0.001753807    2.187    0.543
        18  -9.6373    206.9383    187.7808   1.0338293145e+02   2.1349907851e+00     0.225631    0.1686458  72.79  0.001079147    1.982    0.495
        19 -10.6665    181.7064    186.1801   1.0823050170e+02   7.4159381627e+00    0.3472031    0.2797308  89.83  0.001737243    1.647    0.393
        20  -9.6427    242.2208    183.9210   9.5944030186e+01  -3.6886634444e+00    0.5573642    0.3484569 -46.67  0.002816218    1.747    0.428
        21  -9.6731    246.6896    182.0408   9.4772586328e+01  -4.1515931596e+00    0.3625849    0.1885257  33.10  0.001610576    2.129    0.530
        22  -9.0316    221.2448    182.7594   9.9578217590e+01   3.1606137207e-01    0.2295943    0.1553829   2.49  0.001054098    2.013    0.503
        23  -8.9565    194.1391    181.7164   1.0473960638e+02   5.7926772834e+00    0.2770556        0.169 -56.89  0.001062497    2.053    0.513
        24  -8.4751    169.4696    181.4759   1.0991509312e+02   1.0844780851e+01    0.1473552    0.1418121  33.50 0.0008091346    1.036    0.035
        25  -8.9296    143.0209    176.5230   1.1484604101e+02   1.7269077723e+01    0.2207925    0.1224635  63.45 0.0008099157    2.527    0.604
        26  -9.2299    222.3578    170.6755   9.6850522156e+01   2.2829165950e+00    0.2706268    0.2260211 -72.83  0.001434665    1.573    0.364
        27  -9.4362    208.9372    168.9209   9.9071943678e+01   5.2703062117e+00    0.2832342    0.2461377 -65.24  0.001518627    1.341    0.254
        28 -10.1501    183.5562    163.7036   1.0316391531e+02   1.1586270092e+01    0.2965265    0.1468438 -39.29  0.001139448    2.119    0.528
        29  -8.3840    242.4879    163.5086   9.1670139780e+01  -2.5251223049e-01    0.1386969    0.1248674 -20.18 0.0008104952    1.008    0.008
        30  -9.1536     43.0006    163.2124   1.3634358476e+02   3.6618651447e+01    0.2031467    0.1274403  85.79   0.00107272    1.625    0.385
        31  -9.8676    166.5374    159.6152   1.0599827375e+02   1.6091462940e+01    0.4322971    0.2790281 -29.73  0.001808429    1.933    0.483
        32 -11.4644    178.9327    155.9170   1.0244510798e+02   1.4204032838e+01    0.6506621    0.4361133   1.03  0.002448459    2.745    0.636
        33 -11.6393    171.3130    153.9583   1.0368014366e+02   1.6278108697e+01    0.6904982    0.4229464  63.67  0.002742938    2.125    0.529
        34  -9.4714    232.0981    158.2626   9.2391657029e+01   2.6527222779e+00    0.4297583     0.243498  56.19  0.001880664    2.198    0.545
        35  -9.5256    155.7851    159.3734   1.0838897935e+02   1.8439649148e+01    0.2233933    0.1443101  35.66 0.0006618142    1.683    0.406
        36 -10.3632    217.7809    156.8117   9.4727620119e+01   5.7788216469e+00    0.5877132    0.3583357  38.85  0.002669177    1.748    0.428
        37 -10.6500    213.1454    149.3967   9.3965613683e+01   8.1623434168e+00    0.4286985    0.3305368 -31.17  0.001963164    1.298    0.229
        38  -8.4898    126.4768    156.4682   1.1473440300e+02   2.5130122138e+01    0.1508686     0.145995 -85.69 0.0008090215    1.041    0.040
        39  -8.9735    141.4212    151.7653   1.1010805013e+02   2.3178207229e+01    0.3333769    0.2411606  -2.58  0.001356278    2.317    0.568
        40  -9.0499    114.4576    148.8080   1.1612180539e+02   2.9250788468e+01    0.4231521     0.244602 -87.32  0.001351545    3.728    0.732
        41  -8.7467     88.7602    149.9948   1.2291331862e+02   3.3487798436e+01    0.1985532    0.1142353 -58.65 0.0008205263    1.619    0.382
        42 -11.5918    187.5312    145.7947   9.8304257631e+01   1.4435358767e+01     0.601401    0.3949337 -27.94  0.002252822    1.808    0.447
        43 -10.0596    247.0375    147.5108   8.7474703207e+01   1.7097192002e+00    0.3005793    0.2384814  51.22  0.001257835    1.424    0.298
        44 -10.3419    196.7826    145.7844   9.6383463250e+01   1.2398982981e+01    0.4366642    0.2964748 -55.30  0.001956165    1.608    0.378
        45  -9.3298    156.3550    145.4977   1.0516244214e+02   2.1396152533e+01    0.4657042    0.2113699  59.14  0.001445588    3.276    0.695
        46 -10.5013    169.9384    142.4556   1.0135161707e+02   1.9059854707e+01    0.5547339    0.2558607 -44.91   0.00203045    2.157    0.536
        47  -8.2209    230.3046    144.3430   8.9660211454e+01   5.5675730970e+00    0.1473687    0.1118172  -2.46 0.0003516755    1.685    0.406
        48  -9.0646    200.6917    155.9725   9.7894647197e+01   9.5071471073e+00    0.3394189    0.1831528 -35.12  0.001371674    1.961    0.490
        49 -10.0908    205.7627    143.5493   9.4072286157e+01   1.0887195551e+01    0.3211481    0.2273139 -66.47  0.001430116    1.815    0.449
        50 -11.0029    183.4308    142.7306   9.8463497318e+01   1.5985549243e+01    0.5407777    0.2287925  39.69  0.001827087    2.714    0.632
        51 -10.7261    239.2012    139.2612   8.6989507775e+01   4.7100452805e+00    0.4846888    0.4542059  39.28  0.002863713    1.162    0.140
        52 -10.0098    208.7292    140.2317   9.2730911483e+01   1.0897459147e+01    0.4601836     0.195704 -52.21   0.00154495    2.901    0.655
        53  -8.7131    223.3018    139.6467   8.9864785236e+01   7.8937642370e+00    0.1509935     0.113377 -70.34 0.0007038775    1.703    0.413
        54  -9.2692    218.1796    133.9685   8.9503475725e+01   1.0066399202e+01    0.3577532    0.2373527 -57.53  0.001612486    1.705    0.414
        55  -9.2976    149.2276    133.7480   1.0408459920e+02   2.5577341060e+01    0.2494101    0.1239105 -36.23 0.0007787438    2.404    0.584
        56  -8.7502    176.6219    129.8327   9.6856417839e+01   2.0240453547e+01    0.2320263    0.1433357 -53.09 0.0009484974    1.710    0.415
        57 -10.4974    198.4702    127.9778   9.1859690120e+01   1.5616589820e+01    0.3961903    0.2240793  41.79  0.001613156    1.930    0.482
        58  -9.2941    221.3989    125.2914   8.6912275314e+01   1.1022903937e+01    0.4044278    0.2389731 -15.09  0.001271696    3.109    0.678
        59  -9.9391    216.8024    120.8088   8.6684647117e+01   1.2886993499e+01    0.3672092    0.1633426  54.52  0.001377848    2.439    0.590
        60 -10.1404    206.9467    126.1606   8.9777341368e+01   1.4058877427e+01    0.4417248     0.230104  59.50   0.00170514    2.278    0.561
        61  -9.3547    226.4251    124.5756   8.5864327412e+01   1.0069431217e+01     0.293738    0.2294879  31.34  0.001144991    1.517    0.341
        62 -11.4817    244.5819    119.3246   8.1683403541e+01   7.2177509382e+00    0.7576395    0.4105565 -51.71  0.003343784    1.884    0.469
        63  -8.5518    188.2487    122.7431   9.2655100633e+01   1.9023049706e+01    0.2529467    0.1298036 -30.81 0.0008963543    2.430    0.588
        64 -10.0655    199.6651    119.8793   8.9668211965e+01   1.6955028696e+01    0.4258839     0.283775 -27.85  0.001825679    1.732    0.423
        65 -10.2947    232.0084    117.8065   8.3361712174e+01   1.0124548251e+01    0.4655752    0.2963684 -89.01  0.001868681    2.717    0.632
        66  -9.2085     96.0135    118.5073   1.1423769307e+02   3.9726052996e+01    0.2040156    0.1233371  63.60 0.0008089796    2.423    0.587
        67  -8.7943    207.9563    111.1940   8.5988074949e+01   1.6729244912e+01    0.2502022    0.1756466  26.13  0.001086314    1.988    0.497
        68 -11.1550    171.8089    107.8370   9.2361131183e+01   2.5922774828e+01    0.6447421    0.4509065 -89.59  0.002649221    2.064    0.515
        69 -10.0803    243.6250    103.7194   7.8336330882e+01   1.0178600762e+01    0.6414299    0.2118996 -47.81  0.002195269    3.008    0.668
        70 -10.4325    184.8268    105.6698   8.9069012002e+01   2.3249859986e+01    0.4642835    0.3783295 -58.59  0.002276341    1.249    0.199
        71 -11.2381    242.7265    108.4073   7.9524908343e+01   9.5426655679e+00    0.3594446     0.319294  26.79  0.001587306    1.366    0.268
        72 -11.2296    218.6594     96.2945   8.0517702100e+01   1.7023611830e+01    0.8377289    0.4073747  68.08  0.003107816    2.736    0.634
        73 -10.2094    212.4240    101.1407   8.2745230330e+01   1.7583150441e+01    0.4943916    0.3567118  28.55  0.002265945    1.887    0.470
        74 -10.5220    214.3009     97.3393   8.1499262148e+01   1.7843780558e+01    0.5868016    0.3279096  59.10  0.002518651    1.882    0.469
        75  -9.1121    250.1196    102.2156   7.7057193445e+01   9.0840752237e+00    0.3486434    0.1804998 -23.97  0.001327768    2.959    0.662
        76  -9.0541    206.8846     98.6370   8.3103760693e+01   1.9342295147e+01    0.2516479    0.2077779 -31.59 0.0007403608    1.284    0.221
        77  -9.3596    186.4149     98.4856   8.6901923365e+01   2.4260962627e+01    0.4056977    0.2678859   2.73  0.001446201    3.113    0.679
        78  -9.8061    161.2438     99.1605   9.2397633960e+01   3.0176110540e+01    0.4616024     0.219026  41.97  0.001664348    2.332    0.571
        79  -9.7374    203.2881     92.0164   8.2094005984e+01   2.1410528606e+01    0.3437842    0.2456172 -35.50  0.001633605    1.437    0.304
        80 -10.7793    231.2406     90.0507   7.7060282917e+01   1.5262626433e+01    0.7561178    0.3704536 -58.48  0.002902257    2.549    0.608
        81  -8.8042    177.6812     93.6779   8.7399342717e+01   2.7289688167e+01    0.1553936    0.1241155  14.31 0.0005346199    1.669    0.401
        82 -10.4100    164.3835     90.2377   8.9277228640e+01   3.1161096213e+01    0.6472896     0.283047 -57.26  0.001886958    3.919    0.745
        83 -10.9102    188.1252     89.2988   8.4184161143e+01   2.5568025138e+01    0.5460625    0.3688992  87.09   0.00231252    1.989    0.497
        84  -9.6748    242.8516     89.3971   7.5227384065e+01   1.2816035683e+01    0.2170621    0.2001926   3.56  0.001001043    1.381    0.276
        85  -9.5724    245.9903     85.4950   7.3922551256e+01   1.2796800775e+01    0.3598918    0.1852953 -40.30  0.001635638    1.755    0.430
        86  -9.8955    209.8678     86.7394   7.9650070249e+01   2.0787871796e+01    0.4135637    0.3686882 -32.92  0.002248203    1.209    0.173
        87 -10.3656    205.2725     84.9019   7.9968071611e+01   2.2209051129e+01    0.4420566    0.3511452   1.66  0.002131243    1.801    0.445
        88 -10.3630    187.9895     83.2255   8.2621587478e+01   2.6700331007e+01    0.5806177    0.2880107  72.52  0.001955401    3.085    0.676
        89  -9.0365    142.9736     84.0027   9.2423291243e+01   3.7410856063e+01    0.2471543    0.1878553  15.73  0.001129404    1.712    0.416
        90  -9.3816    232.6351     82.5163   7.5107999117e+01   1.6236938474e+01    0.3102601    0.1971903 -72.95  0.001107253    1.928    0.481
        91 -10.6149    239.5294     80.2847   7.3631135032e+01   1.5071792727e+01    0.5738857    0.3310666 -89.39  0.002398547    2.558    0.609
        92 -11.2252    240.5238     75.3410   7.2381818961e+01   1.5664200204e+01    0.4966021    0.4839842  48.40  0.003086128    1.262    0.208
        93  -9.0928    167.7426     80.3762   8.5846770186e+01   3.2169024630e+01    0.2954472    0.1796725 -48.79  0.001264004    1.712    0.416
        94  -9.2332    228.5082     78.4808   7.4764048784e+01   1.7851576801e+01    0.2971643    0.1368595  59.51  0.001226762    2.233    0.552
        95 -10.4615    182.3947     74.4356   8.1336023126e+01   2.9611231765e+01    0.6789801    0.3188306 -42.47   0.00266522    2.110    0.526
        96 -11.1806    210.1153     71.6636   7.5884337085e+01   2.3304149302e+01    0.5249177    0.3985943 -82.16  0.002676362    1.396    0.284
        97  -9.0886    188.9808     74.4293   8.0128379088e+01   2.7989981202e+01    0.2781056    0.2138623 -20.24 0.0009868577    1.595    0.373
        98  -9.4825    197.9577     80.5244   8.0121088168e+01   2.4743489400e+01    0.3978798    0.2261326 -66.23  0.001516147    2.486    0.598
        99  -9.9516    238.3976     66.8692   7.0752379294e+01   1.7495463303e+01    0.2736312    0.2456292 -75.43  0.001466426    1.059    0.055
       100 -10.3818    243.2272     65.6703   6.9877912224e+01   1.6609841547e+01    0.3840257    0.2996927  85.31  0.002022859    1.267    0.211
       101  -9.5451    221.0169     65.5175   7.2775706004e+01   2.1704996586e+01    0.3257034    0.2883263  29.64  0.001838673    1.462    0.316
       102 -10.6097    212.6397     60.9883   7.2883220977e+01   2.4408149966e+01    0.3677056    0.2472578  77.90  0.001810877    1.532    0.347
       103  -8.2534    232.4882     60.4753   7.0059545600e+01   1.9829794976e+01    0.1358314    0.1240611 -74.59 0.0008085837    1.087    0.080
       104  -9.7879    182.0511     59.7348   7.7442333637e+01   3.2097574713e+01    0.2912648    0.2074748 -88.21  0.001380768    1.631    0.387
       105  -9.5457    121.2048     58.9862   9.0258494496e+01   4.6683646339e+01    0.2213324    0.1504442  29.17  0.001052978    1.637    0.389
       106 -11.0838    227.2434     55.5309   6.9595666010e+01   2.1791072239e+01    0.6082128    0.3608269  42.19  0.002768902    2.344    0.573
       107  -9.1467    243.5721     56.6612   6.7854335132e+01   1.7914712296e+01     0.287549    0.1614139  75.70  0.001389946    1.895    0.472
       108  -9.6433    206.6089     57.1942   7.2831549026e+01   2.6447758088e+01    0.2661006     0.237311 -76.07    0.0015279    1.027    0.026
       109 -10.0011    202.9939     54.2783   7.2638644290e+01   2.7767549894e+01    0.3860533    0.2718349  69.29  0.001976924    1.357    0.263
       110  -8.2197    155.4891     56.5167   8.1579233446e+01   3.9132295015e+01    0.1452367    0.1369617  71.87 0.0008047092    1.029    0.028
       111  -9.1135     86.7665     52.9909   9.8046252689e+01   5.4459158274e+01    0.1771395    0.1059625 -35.31 0.0008802925    1.633    0.388
       112 -10.1247    213.4923     52.4593   7.0692625495e+01   2.5497556164e+01    0.4463532     0.132475  64.04  0.001501133    3.329    0.700
       113  -9.6638    249.3087     48.0181   6.5354099797e+01   1.7927064091e+01     0.291619    0.1956867  41.74  0.001510476    2.208    0.547
       114  -9.1088    197.5072     48.4780   7.1987588743e+01   2.9961203622e+01    0.2695844    0.1780529 -73.34  0.001283286    1.717    0.418
       115 -10.2064    170.7671     48.5935   7.6375600442e+01   3.6555133810e+01    0.3590513    0.1873724  75.03  0.001415055    2.382    0.580
       116 -10.5807    224.1565     45.3449   6.7631042365e+01   2.3999874862e+01    0.4163691    0.3223784  20.94  0.002189524    2.056    0.514
       117  -9.5910    163.0194     43.9949   7.6472043237e+01   3.9106018040e+01    0.2234191    0.2080662  69.47  0.001305004    1.014    0.014
       118  -8.5208    217.4571     42.5089   6.7799490577e+01   2.5978477402e+01    0.1377578    0.1191039 -80.46 0.0003477047    1.004    0.004
       119 -10.1750    243.4714     36.1703   6.3448710798e+01   2.0865650796e+01    0.3017999     0.251224  61.61  0.001892829    1.394    0.283
       120  -9.7088    212.6688     45.3431   6.9088802456e+01   2.6724341818e+01    0.4734677    0.2215734 -52.78  0.002002194    2.225    0.551
       121  -9.0046    234.1333     45.2978   6.6438966799e+01   2.1700043479e+01    0.2179095    0.1827869 -37.65  0.001166692    1.338    0.253
       122  -9.7313    163.5939     35.8612   7.4036163089e+01   4.0036446117e+01     0.242989     0.161077  69.58  0.001213228    1.444    0.308
       123  -8.4064    218.6646     34.6736   6.5823654257e+01   2.6754649920e+01    0.1300271    0.1008263  39.14 0.0005983405    1.720    0.418
       124  -9.0505    175.9382     34.4946   7.1607678104e+01   3.7173331793e+01    0.2183806    0.1243428  63.04  0.001027117    1.580    0.367
       125 -10.1282    237.0923     31.3876   6.3074790690e+01   2.2929604962e+01    0.3859573    0.2368271 -54.55  0.002108941    1.466    0.318
       126  -8.9142    143.3287     34.6657   7.7469900452e+01   4.5077722600e+01    0.1407116    0.1043135 -73.70 0.0006245926    1.723    0.419
       127  -8.8439    246.3100     28.1193   6.1487351844e+01   2.1306485163e+01    0.1755705    0.1637638 -20.66  0.001116954    1.501    0.334
       128  -8.8567    182.2291     26.3913   6.8491944581e+01   3.6615670898e+01    0.2023293    0.1186124  78.93 0.0009054562    1.715    0.417
       129  -9.2889    225.8122     22.7946   6.2353654560e+01   2.6597055238e+01    0.3010916    0.1718163  51.66  0.001522851    2.051    0.512
       130  -9.5642    164.3414     20.9589   6.9681721981e+01   4.1605265780e+01    0.3804586    0.1415865 -20.89  0.001375452    3.891    0.743
       131  -8.8853    142.3238     22.5084   7.3910059318e+01   4.6720842726e+01    0.2173489    0.1256303 -26.14  0.001073227    1.954    0.488
       132  -9.1282    209.4707     21.1516   6.3733705973e+01   3.0630269213e+01    0.2789038    0.1540289 -88.04  0.001321385    1.948    0.487
       133  -8.3764    194.0020     20.9796   6.5531214860e+01   3.4371416244e+01    0.1617056    0.1426562 -85.99 0.0005320699    1.051    0.048
       134  -8.9313    247.3344     17.3178   5.9194047400e+01   2.2439513486e+01    0.1130918   0.09223752  48.17 0.0007048408    1.696    0.410
       135  -8.4530    248.7797    234.0287   1.0426414028e+02  -1.2248920174e+01    0.1505888   0.09043586 -31.15 0.0008683254    1.659    0.397
