#   1 NUMBER                 Running object number                                     
#   2 MAG_AUTO               Kron-like elliptical aperture magnitude                    [mag]
#   3 X_IMAGE                Object position along x                                    [pixel]
#   4 Y_IMAGE                Object position along y                                    [pixel]
#   5 X_WORLD                Barycenter position along world x axis                     [deg]
#   6 Y_WORLD                Barycenter position along world y axis                     [deg]
#   7 A_WORLD                Profile RMS along major axis (world units)                 [deg]
#   8 B_WORLD                Profile RMS along minor axis (world units)                 [deg]
#   9 THETA_WORLD            Position angle (CCW/world-x)                               [deg]
#  10 FWHM_WORLD             FWHM assuming a gaussian core                              [deg]
#  11 ELONGATION             A_IMAGE/B_IMAGE                                           
#  12 ELLIPTICITY            1 - B_IMAGE/A_IMAGE                                       
         1 -12.3899    101.6277     25.7691   5.1035448612e+01   5.5518070942e+01    0.2585427    0.2061996  68.46 0.0009167903    1.347    0.258
         2 -12.2442    216.8732     14.2958   3.0768539222e+01   3.0431513047e+01    0.2683456    0.1695647  74.99  0.001246097    1.461    0.315
         3 -11.4596    210.2577      7.4814   2.9868761458e+01   3.2551382883e+01     0.199701    0.1500845 -46.60 0.0007063744    1.329    0.247
         4 -10.7989    143.6246      4.7153   3.6137988031e+01   4.7866649859e+01    0.1321959    0.0784385  46.55 0.0007015725    1.716    0.417
         5 -11.4347    233.3582      3.1998   2.7364243662e+01   2.8263434313e+01    0.1777036    0.1299832  79.55 0.0006458508    1.324    0.245
         6 -11.1394    131.2548      3.3333   3.7511789410e+01   5.0862014589e+01    0.1982303    0.1232043 -67.24 0.0008007878    1.980    0.495
         7 -10.3858    169.2878    243.2977   8.7918838478e+01  -7.4631271258e-01    0.1284311   0.08992548  -2.04 0.0002345675    1.553    0.356
         8 -15.4824     27.4112    146.2194   1.0924765292e+02   4.1675554687e+01     2.882655     1.437136 -43.39    0.0127978    2.174    0.540
         9 -11.4329    111.3591    215.3008   9.6659326362e+01   1.3537911087e+01    0.2686104    0.1793485 -55.13 0.0006539352    1.594    0.373
        10 -11.1342     19.8264    233.1104   1.1898366868e+02   2.1502571682e+01    0.1934811    0.1478564  49.50 0.0009747689    1.208    0.172
        11 -11.2469    232.8896    215.1885   7.0612583947e+01  -5.0126692770e+00    0.1728679    0.1477477  -8.00 0.0003054302    1.154    0.133
        12 -14.6618    182.1246    213.6767   8.0319040044e+01   2.5642383725e+00    0.9495151    0.3520466  26.87  0.003295439    3.432    0.709
        13 -13.7036    180.7173    210.6367   8.0075438873e+01   3.3493042347e+00    0.4172351    0.2243309 -29.77  0.001627242    2.079    0.519
        14 -13.6400    155.4694    212.2617   8.5911994166e+01   7.0922148447e+00    0.4937008    0.4376519 -67.50  0.002835812    1.391    0.281
        15 -12.4815    164.6531    210.7021   8.3584850940e+01   5.9098400113e+00    0.3945247     0.191903 -27.63   0.00146017    3.061    0.673
        16 -11.2881     13.7131    211.8049   1.1889575409e+02   2.6781606677e+01    0.2318498    0.1508987  23.66  0.001360486    1.858    0.462
        17 -12.1980    209.2621    211.5647   7.4402057645e+01  -1.1558970895e+00    0.2385899    0.1199474  37.79  0.001131232    2.080    0.519
        18 -11.5928    143.3991    210.7355   8.8414472885e+01   9.3732196760e+00    0.2477272    0.1776903 -37.74  0.000850016    1.475    0.322
        19 -11.8427    229.3295    206.6503   6.9706711004e+01  -3.1684512568e+00    0.2687961    0.1574218 -39.61  0.001444029    1.608    0.378
        20 -14.5146    168.2514    204.6152   8.1700326698e+01   6.5210570565e+00    0.7099842    0.4882706  68.57  0.002613123    2.687    0.628
        21 -11.6481    219.4548    206.4562   7.1503611193e+01  -1.7561899378e+00     0.289907    0.1452301  29.37  0.001392717    2.067    0.516
        22 -13.1980    146.4125    202.9829   8.6385621387e+01   1.0495979762e+01    0.4521976    0.3690113  41.83 0.0007720636    1.232    0.189
        23 -11.8786    114.9173    204.0518   9.4104957874e+01   1.5469162770e+01    0.3032207    0.2527654 -19.13  0.001150947    1.398    0.285
        24 -12.8505    114.3645    199.7315   9.3552759319e+01   1.6539390518e+01    0.5428056    0.3607229 -59.10   0.00260864    1.593    0.372
        25 -11.2665     18.2883    205.6140   1.1746218636e+02   2.7770871649e+01    0.2139545    0.1005869  37.11 0.0008499559    2.011    0.503
        26 -11.4057    207.2878    201.9513   7.3012180805e+01   8.1233244510e-01    0.1893681    0.1534395 -22.46 0.0003086917    1.099    0.090
        27 -11.5972    172.8121    201.8624   8.0189584953e+01   6.3126429890e+00    0.1767356    0.1708816  86.25 0.0004020377    1.310    0.237
        28 -10.6892    105.2716    242.2638   1.0160064447e+02   8.8597485717e+00     0.117404   0.09765434  -1.56 0.0003299196    1.467    0.318
        29 -10.6124     14.1360    201.7599   1.1811190175e+02   2.9055498984e+01    0.1999959    0.1369014  29.27  0.001191932    1.646    0.392
        30 -12.1284    212.6374    200.2765   7.1652476124e+01   3.0265435980e-01    0.2768807    0.2262266  74.83  0.001286165    2.234    0.552
        31 -12.1279    121.6970    200.5291   9.1881713674e+01   1.5158047407e+01    0.3289194    0.2364375 -27.77  0.001582039    1.688    0.407
        32 -13.3711    125.4045    196.0295   9.0216023437e+01   1.5556889341e+01    0.4991711    0.3001088  39.29  0.001445045    1.594    0.373
        33 -11.7195    154.7518    230.3159   8.9023891542e+01   3.7203868334e+00    0.2459437    0.1472731  34.50  0.001195196    1.507    0.337
        34 -10.9705      6.3737    201.2374   1.1980135607e+02   2.9861446134e+01    0.1995415   0.09556525  29.87  0.001031988    2.210    0.547
        35 -13.2811    192.5120    198.9575   7.5435258762e+01   3.6618956726e+00    0.2722342    0.2210497 -29.56 0.0007858559    1.160    0.138
        36 -13.9185    190.4637    195.0459   7.5115777209e+01   4.7330912770e+00    0.4408176    0.2754314  23.46  0.001978348    1.697    0.411
        37 -12.0026    138.0588    199.0673   8.7673963559e+01   1.2745302147e+01    0.2408555    0.2145007 -55.34 0.0005160024    1.206    0.171
        38 -13.4850    141.3243    196.5753   8.6452255749e+01   1.2733626259e+01    0.3807243    0.3303131  32.52  0.001933302    1.112    0.100
        39 -12.5268    224.5224    197.1248   6.8810311000e+01  -9.0062081702e-01    0.3565224    0.1604869 -31.22  0.001572984    2.167    0.538
        40 -10.4635    127.0000    229.8744   9.5136530497e+01   8.0773413902e+00    0.1976742   0.07821319 -54.56 0.0007833078    2.811    0.644
        41 -12.1813    112.5832    228.5125   9.8219817109e+01   1.0548755663e+01    0.2574877    0.2240501  68.54 0.0005996831    1.232    0.189
        42 -11.0383    116.9013    228.5575   9.7241962343e+01   9.8855997871e+00    0.2620127    0.1686699  30.89 0.0003777937    1.449    0.310
        43  99.0000      9.9496    229.0570   1.2072405126e+02   2.3333714937e+01    0.4482788    0.1609745  57.89  0.002091033    2.524    0.604
        44 -10.2230    238.6801    196.3291   6.6119758438e+01  -2.7579788632e+00    0.1142755     0.100517 -59.25    0.0006039    1.688    0.408
        45 -13.5163    184.1831    194.3961   7.6317724827e+01   5.8925524706e+00     0.392797    0.2516966   8.57  0.001563362    1.986    0.496
        46 -11.3275    212.7248    194.5581   7.0547407330e+01   1.3012772541e+00    0.2235545    0.1613403 -54.84  0.000939036    1.813    0.448
        47 -10.9978     12.6386    194.6975   1.1793832985e+02   3.0853196046e+01    0.2172929    0.1560833 -42.90  0.001278488    1.772    0.436
        48 -11.4388      7.5754    193.0995   1.1898424259e+02   3.1666956663e+01    0.4707215    0.3114371 -47.48  0.002726305    1.832    0.454
        49 -11.3958      6.3990    188.2283   1.1891110126e+02   3.2923145033e+01    0.1763653    0.1513376 -79.93 0.0005494552    1.146    0.128
        50 -14.9304    160.6334    191.8698   8.1054215820e+01   1.0411659097e+01    0.6861479    0.5660007  78.29  0.003491426    1.709    0.415
        51 -13.7553    166.8806    191.2586   7.9515007192e+01   9.4578272308e+00    0.5523053    0.2495352  46.10  0.002107996    2.538    0.606
        52 -12.3755    201.7799    192.6152   7.2327324855e+01   3.3636617181e+00    0.1933105    0.1571775 -20.40 0.0004171233    1.104    0.094
        53 -11.8677    228.1767    192.1798   6.7200730959e+01  -5.8487955914e-01    0.1646883    0.1462565 -36.31 0.0002723309    1.293    0.226
        54 -11.4305     21.0879    190.2883   1.1560512306e+02   3.1142113019e+01    0.2477898    0.1629838  86.45  0.001119723    1.368    0.269
        55 -13.6174    169.6479    181.5996   7.6996276737e+01   1.0985767523e+01    0.6233879    0.2268261  29.76  0.001900509    3.829    0.739
        56 -12.7949    174.1944    189.8235   7.7603999296e+01   8.4913891992e+00    0.2793539    0.1971981 -40.00 0.0007371993    1.384    0.277
        57 -13.3952    177.0871    186.4882   7.6314174143e+01   8.6700825189e+00    0.3305687    0.2530027  32.88 0.0009734464    1.311    0.237
        58 -12.6918    176.3071    183.0272   7.5798436321e+01   9.5126117990e+00    0.2683409    0.2116424  22.43  0.000493486    1.278    0.218
        59 -12.7484    178.2901    176.6626   7.4075087122e+01   1.0471714884e+01    0.2882214    0.2206872 -62.70  0.001271998    1.649    0.394
        60 -13.4012    174.5223    174.8540   7.4534405780e+01   1.1525402318e+01    0.4407253    0.2794145 -32.74  0.001145011    1.612    0.380
        61 -14.0274    187.6360    223.9058   8.0949810497e+01  -1.0693636284e-01    0.4843561    0.2626128 -29.89  0.001597351    1.966    0.491
        62 -12.7868    192.6669    225.0436   8.0111453584e+01  -1.0431576710e+00    0.2428344    0.1957136  -4.49  0.001473335    1.102    0.092
        63 -10.9772    248.7271    185.6267   6.2397084948e+01  -2.3747527146e+00    0.1465193    0.1186953  36.17 0.0007556939    1.538    0.350
        64 -11.1348    152.4542    225.4991   8.8770684926e+01   4.9840802435e+00       0.1361    0.1220042  17.76 7.560598e-05    1.015    0.015
        65 -11.9448     17.8307    183.1448   1.1578157633e+02   3.3181260946e+01    0.2357578     0.190041   3.73 0.0009978113    1.661    0.398
        66 -11.3211     22.3873    180.5620   1.1442165930e+02   3.3403330046e+01     0.207969    0.1981048  70.04 0.0007298705    1.177    0.150
        67 -12.8297    180.1266    180.5777   7.4470637101e+01   9.3428968415e+00    0.3096738    0.2179461 -40.62  0.001300569    1.366    0.268
        68 -12.4673     31.5776    181.6138   1.1220660932e+02   3.2251114450e+01    0.5665277    0.2252505  49.62  0.002335999    2.608    0.617
        69 -17.4472     58.7180    123.0835   9.5419316990e+01   4.4272573118e+01     4.971673     1.753857  36.40   0.01778077    2.908    0.656
        70 -10.7102      9.1441    182.3924   1.1782747495e+02   3.4106294738e+01    0.1564651    0.1033839  49.03 0.0004471354    1.489    0.328
        71 -13.8079    192.0002    178.1253   7.1448576808e+01   7.7652645609e+00     0.460621     0.290345 -37.42  0.002211672    1.487    0.328
        72 -11.1950    116.5493    239.5397   9.8781699088e+01   7.7456333011e+00    0.1853288    0.1451165  71.20   0.00105884    1.524    0.344
        73 -10.8114    212.4810    224.5082   7.6082584682e+01  -3.7603146867e+00    0.1290749     0.105922  -4.01 1.041632e-05    1.018    0.018
        74 -11.3384    187.3118    170.3178   7.0820206336e+01   1.0154453815e+01     0.151142    0.1094207  -8.42 0.0006304282    1.643    0.391
        75 -13.4007     32.8161    168.2593   1.1043115657e+02   3.5494908503e+01    0.8092358    0.1800816 -58.85  0.002710941    3.404    0.706
        76 -12.4548     28.4042    166.2176   1.1139041038e+02   3.6445191400e+01    0.2760024     0.242606  45.58 0.0005078084    1.232    0.189
        77 -11.3962    180.7645    167.9371   7.1720481434e+01   1.1830810295e+01    0.1949328    0.1178467 -41.37 0.0002947374    1.569    0.363
        78 -12.8583    202.9972    167.4613   6.7021496087e+01   7.9485667203e+00    0.2687876    0.1874447  33.62 0.0009643334    1.534    0.348
        79 -13.6030    171.5779    166.6534   7.3476302718e+01   1.3801503921e+01    0.3766379    0.2781049 -46.67  0.001660878    1.340    0.254
        80 -10.3187    144.6503    224.6818   9.0382858137e+01   6.3628179721e+00    0.1428095    0.1019496  -4.30 0.0007048012    1.735    0.424
        81 -11.3384      4.4743    158.8325   1.1705329917e+02   4.0272046779e+01    0.3244773    0.1523916 -48.30   0.00153215    2.244    0.554
        82 -13.7744    155.3852    158.1318   7.5396082026e+01   1.8755607800e+01    0.4791846    0.3215646 -33.53  0.002125528    1.564    0.361
        83 -13.2665    159.9045    157.2106   7.4119910960e+01   1.8084685294e+01    0.2979796    0.2631987  -7.40 0.0006225307    1.181    0.154
        84 -11.4820    124.0720    206.2973   9.2246277516e+01   1.3485678324e+01    0.5325844    0.3322054  24.15  0.001875299    1.730    0.422
        85 -11.9724    211.9705    154.0276   6.2470486400e+01   8.9636682692e+00    0.2159489    0.1924485 -34.74 0.0004117918    1.060    0.056
        86 -19.0925     70.9332    198.7879   1.0425404276e+02   2.3308805179e+01     7.573091     5.659693 -42.85   0.03949887    1.555    0.357
        87 -13.2061    180.2827    150.7366   6.8085620875e+01   1.5517797318e+01     0.351391    0.3038542  82.23  0.001052579    1.483    0.326
        88 -13.2995    159.3612    149.0849   7.2430496432e+01   1.9998173782e+01    0.3619561    0.2837191  74.57  0.001628642    1.726    0.421
        89 -12.8753    155.0213    145.3343   7.2605483985e+01   2.1705476624e+01    0.3108754    0.2552663 -77.21 0.0008011498    1.519    0.341
        90 -13.5492    171.8468    150.4991   6.9881932089e+01   1.7216479175e+01    0.3220652    0.3022925  16.84  0.001743593    1.092    0.084
        91 -10.8990    114.6947    223.3553   9.7026236996e+01   1.1300202836e+01    0.2534342    0.1848111 -63.47 0.0007653913    1.539    0.350
        92 -13.4896    165.0579    148.6411   7.1001669345e+01   1.8962322683e+01    0.4585685    0.3379875  73.72  0.002008961    1.991    0.498
        93 -10.9546    224.4830    149.4273   5.9260330115e+01   7.6502894027e+00    0.1387212    0.1191056 -27.50 0.0001371764    1.041    0.039
        94 -12.3964    189.7655    144.9659   6.4804966681e+01   1.4871699777e+01      0.26135    0.2230364  37.89 0.0006864258    1.257    0.204
        95 -12.8539    171.6290    144.3574   6.8534625475e+01   1.8579142076e+01    0.3173439    0.2444311  -5.98 0.0005787053    1.609    0.378
        96 -11.5287    117.3535    219.9351   9.5921500565e+01   1.1610557827e+01    0.4261511    0.2182043  50.43  0.001333334    2.161    0.537
        97 -13.3428    140.9382    134.2439   7.3477600061e+01   2.7094633903e+01    0.6263047     0.373032  21.83   0.00193815    2.469    0.595
        98 -11.5964    137.8644    130.9885   7.3476752773e+01   2.8474649413e+01    0.2874686    0.2306492  30.50 0.0004661232    1.322    0.244
        99 -14.5309    131.6169    131.8694   7.5333140973e+01   2.9547938622e+01    0.7454257    0.6102448 -22.13  0.001980829    1.352    0.260
       100 -15.4365    117.8502    132.6253   7.9285684586e+01   3.2105280240e+01     1.421974     0.914763  86.09  0.004807446    3.257    0.693
       101 -13.5252    119.2916    123.9664   7.6752314592e+01   3.3884235774e+01    0.3721492    0.3190922  22.98 0.0003718942    1.243    0.195
       102 -12.9313     51.2060    137.9911   1.0070850124e+02   4.1353327269e+01    0.3554078    0.2390884  85.25   0.00114354    1.838    0.456
       103 -13.5255    125.0194    220.5508   9.4230686995e+01   1.0283537174e+01    0.4121706    0.4022169  36.88  0.001513479    1.070    0.065
       104 -12.0758    159.9036    136.7174   6.9427912010e+01   2.2625776105e+01    0.2841387    0.2048415 -34.78  0.001297302    1.398    0.285
       105 -13.0299     17.2453    136.3924   1.1102688855e+02   4.5041601615e+01    0.3247894     0.234959  29.89 0.0009264486    1.584    0.369
       106 -13.0551     20.4884    133.9785   1.0971188318e+02   4.5409944644e+01    0.3133779    0.2629324  25.42 0.0004973887    1.388    0.280
       107 -11.9143      3.2202    136.4505   1.1523650213e+02   4.5973738830e+01    0.2481465    0.1481034 -73.75 0.0007225971    1.364    0.267
       108 -13.5627     10.6402    131.6207   1.1245091322e+02   4.6725937624e+01    0.2996463    0.2965514  59.44  0.002028275    1.202    0.168
       109 -14.6297    154.8650    127.7939   6.8460877243e+01   2.5638484448e+01    0.9581006    0.7103084  53.96  0.003165828    1.471    0.320
       110 -12.8009    124.3087    213.5628   9.3336197837e+01   1.1871112333e+01    0.6874762      0.47189 -52.20  0.003504025    1.552    0.356
       111 -11.9277    170.9688    127.7325   6.4764274534e+01   2.2254259877e+01    0.2075708    0.2044645  43.84 0.0004487319    1.072    0.067
       112 -12.6246     13.4881    126.9866   1.1096799103e+02   4.7709232504e+01    0.3100416    0.1718205  87.29   0.00144206    2.056    0.514
       113 -12.9973     29.1002    129.2412   1.0629842303e+02   4.5907034713e+01    0.3431484    0.2441825 -20.02  0.001612166    1.693    0.409
       114 -13.2910    120.4564    120.4496   7.5532451384e+01   3.4473699714e+01    0.4326255    0.2874188 -32.16  0.001711191    1.680    0.405
       115 -13.8228     23.0685    124.5774   1.0753681602e+02   4.7610615215e+01    0.5504588    0.3069674   4.09  0.002571051    2.384    0.581
       116 -12.2140    195.7628    121.9420   5.8344396342e+01   1.8282797813e+01    0.2300172    0.2125121  46.58 0.0004406759    1.181    0.154
       117 -11.9838      4.9617    119.9841   1.1278363965e+02   5.0007343955e+01    0.2040779    0.1641837 -63.25  0.000574014    1.033    0.032
       118 -13.1587     11.2965    116.1383   1.1017852974e+02   5.0589643654e+01    0.5954408    0.2102536 -40.62  0.002312628    3.010    0.668
       119 -12.8239    155.2039    117.0394   6.5688078750e+01   2.7892165860e+01    0.3093118     0.282796 -35.53 0.0003788317    1.073    0.068
       120 -10.8561    194.1928    115.7625   5.7186697978e+01   1.9804529847e+01    0.1943698    0.1654344 -17.98 0.0003690265    1.301    0.231
       121 -11.8641    206.6675    236.5663   7.9266962746e+01  -4.8844974522e+00    0.2733494    0.1976976  52.39  0.001513831    2.255    0.557
       122 -13.8685    173.4584    219.9494   8.3262441428e+01   2.7545689665e+00    0.4114729    0.2725202 -40.79  0.002046673    1.553    0.356
       123 -13.3107    115.0512    111.5835   7.4753917306e+01   3.7608335852e+01    0.5206602    0.2863273 -42.92  0.002076517    1.796    0.443
       124 -12.5832    177.2232    234.4154   8.4866213185e+01  -3.8940477794e-01    0.2169424    0.2108432  -9.46 0.0005677197    1.282    0.220
       125 -13.3782    142.5085    107.6746   6.6316262136e+01   3.2656044853e+01    0.5717825    0.4122837  26.71  0.002116854    1.659    0.397
       126 -12.4602      1.8829    105.1882   1.1182400523e+02   5.3830538206e+01    0.2675435    0.1592921 -72.43 0.0004723584    1.428    0.300
       127 -12.2828    212.9223    104.0578   5.1234268657e+01   1.8143438999e+01    0.2236711    0.2124065 -76.04 0.0003932251    1.104    0.094
       128 -12.6587     78.6699    105.0904   8.4433596468e+01   4.5811896201e+01    0.2740483    0.2201436  19.01 0.0003897158    1.328    0.247
       129 -13.5755     14.2002    107.0895   1.0778737817e+02   5.2655276785e+01    0.4320455    0.3179294 -35.59  0.002321246    1.334    0.251
       130 -13.3507    109.5576    109.4316   7.5784627440e+01   3.9197432808e+01    0.3608201    0.3120494 -88.84  0.000628176    1.406    0.289
       131 -11.3049    105.8828    221.0825   9.8759507080e+01   1.3126202316e+01    0.4679103    0.2016714 -47.70  0.001437166    2.612    0.617
       132 -11.7900    106.9959    214.7555   9.7616641900e+01   1.4332074859e+01     0.305612    0.1973781  50.78 0.0007151921    1.566    0.361
       133 -11.6026    103.5477    213.5142   9.8262571877e+01   1.5135428080e+01    0.2371879    0.1907035 -16.76  0.000740593    1.568    0.362
       134 -13.9710     69.3241     96.0593   8.5255448803e+01   4.9397901078e+01    0.5878354    0.3244821 -63.00  0.002054369    2.246    0.555
       135 -14.0623     80.8401     98.3007   8.1865592985e+01   4.7037111172e+01    0.7329166    0.3273069 -35.83  0.002559428    2.724    0.633
       136 -12.7326     76.5065     97.5226   8.3136399852e+01   4.7931734605e+01    0.2913654    0.2623678  17.39 0.0007650231    1.134    0.118
       137 -12.7107     73.3174     97.7002   8.4294384606e+01   4.8400397373e+01    0.2916368     0.260459  81.26 0.0004783353    1.390    0.280
       138 -14.9430     54.2696     85.2899   8.7842581586e+01   5.3990154451e+01    0.9788218     0.650405  64.92  0.004255948    2.648    0.622
       139 -12.6283     58.2251    100.3912   9.0381329968e+01   4.9961343573e+01    0.3603202    0.2535664  48.84  0.001282714    1.719    0.418
       140 -13.3883     60.0459     96.1966   8.8639939036e+01   5.0708497569e+01    0.4567423    0.2972493 -39.31 0.0004636898    1.455    0.313
       141 -12.8094     86.1816    100.0282   8.0550672683e+01   4.5725023380e+01    0.2682351    0.2206162  32.59 0.0006762767    1.249    0.200
       142 -10.8672    194.1870     99.4099   5.3278314567e+01   2.2887390285e+01    0.1913827    0.1385334  71.73 0.0005136829    1.619    0.382
       143 -11.3563    152.8566    220.9534   8.7949704883e+01   5.7973429141e+00    0.2037387    0.1686065  -8.31 0.0002676039    1.250    0.200
       144 -11.4997     37.3365    249.7340   1.1656853918e+02   1.6189168311e+01    0.2021857    0.1214049  84.13  0.001197851    1.623    0.384
       145 -12.6577     38.5330     95.9889   9.6623072517e+01   5.3339332593e+01    0.2692944    0.1862542 -10.86  0.001112511    1.656    0.396
       146 -11.8398    214.8209     92.0052   4.8199157318e+01   1.9867687978e+01    0.2878712    0.2091848  79.89  0.001523798    1.625    0.385
       147 -11.2820     11.7046    220.4379   1.1986622314e+02   2.5039113254e+01     0.221145    0.1761232  82.91   0.00151292    1.067    0.063
       148 -10.8508    223.4154    220.2544   7.3257034229e+01  -4.5601747597e+00    0.1542658    0.1110584 -39.46 0.0002556823    1.484    0.326
       149 -11.6944     20.7609     91.1838   1.0240240103e+02   5.6062102525e+01    0.2028166    0.1784525  27.91 0.0006490013    1.337    0.252
       150 -11.8478      2.8702     91.3745   1.0933000709e+02   5.7114196597e+01    0.2049823    0.1514428 -16.75  0.001000352    1.467    0.318
       151 -12.6680     79.5375     88.7843   7.9594208865e+01   4.9391001015e+01    0.2904059    0.2035023  32.56  0.001400846    1.459    0.315
       152 -10.6841    156.5397    243.4217   9.0625515601e+01   1.0900080369e+00    0.1880218    0.1286832 -46.84 0.0005444172    1.660    0.398
       153 -11.6183    159.6969    242.1001   8.9758614921e+01   8.5642140671e-01    0.2373853    0.1645512  27.78 0.0004961519    1.260    0.206
       154 -12.9491     30.7687     87.5100   9.7645336902e+01   5.6098181796e+01    0.2862666    0.2261388  10.02  0.001218048    1.371    0.271
       155 -12.8185    194.2041    219.2400   7.8789646848e+01  -2.6867009427e-01     0.266726    0.1832365  -7.60  0.001427257    1.535    0.349
       156 -13.1176     71.8053     87.0734   8.1823251613e+01   5.1040197641e+01    0.3445587    0.2200427  35.77  0.001225095    1.620    0.383
       157 -12.5236     68.5655     83.7296   8.2010892367e+01   5.2280790054e+01      0.23466    0.1871659  45.17  0.001117042    1.432    0.302
       158 -11.2725    206.9888     86.5142   4.8112324010e+01   2.2433895220e+01    0.2045589    0.1363918  59.30  0.001039167    1.611    0.379
       159 -12.9471    107.2681     81.8667   6.8518868143e+01   4.5567413441e+01    0.4261328    0.3919906 -75.10  0.001362398    1.263    0.208
       160 -12.3631     62.5689     82.7295   8.3943520867e+01   5.3403922245e+01    0.2800788    0.1259475 -46.13  0.001125785    2.052    0.513
       161 -11.5748    153.0475     80.1197   5.6289717339e+01   3.5679828020e+01    0.2202929     0.212372 -84.47 0.0004740985    1.023    0.023
       162 -13.4293    166.7879    219.1254   8.4567187885e+01   3.9493862657e+00     0.365132     0.288923  -7.63  0.001859753    1.287    0.223
       163 -11.4983    214.3101     78.9513   4.5300879825e+01   2.2152041729e+01    0.2309006    0.1702088 -73.64 0.0004204129    1.434    0.302
       164 -12.7199     53.6839     76.3317   8.5461247080e+01   5.6032539873e+01    0.3465354    0.2041599 -69.52  0.001404796    2.853    0.650
       165 -11.1669    189.5545     77.5130   4.8701442553e+01   2.7753115468e+01    0.1412519    0.1290924 -65.86 4.507216e-05    1.006    0.006
       166 -12.9639     75.3852     75.8911   7.7109524008e+01   5.2819987314e+01    0.2958698    0.2777962 -35.66 0.0004726782    1.136    0.119
       167 -11.8706     59.1232     76.8554   8.3490964447e+01   5.5166890345e+01    0.2004767    0.1977505 -88.21 0.0005232953    1.253    0.202
       168 -12.1110     21.7398     76.3388   9.8635622392e+01   5.9424777856e+01    0.2025737    0.1876467 -58.73  0.000430595    1.212    0.175
       169 -11.2526    159.4511     76.5616   5.3959907699e+01   3.4819911110e+01    0.1442245    0.1395094 -87.93 5.094619e-05    1.008    0.008
       170 -11.8570     15.5051     76.0537   1.0120195438e+02   5.9945737724e+01    0.2673782    0.1762891  18.55  0.001139841    1.695    0.410
       171 -12.2824    116.0544     74.6677   6.3758696615e+01   4.5071837289e+01    0.2979594    0.2173452 -29.94 0.0009970291    1.450    0.310
       172 -12.8460     32.0635     74.6838   9.3845529570e+01   5.8888831681e+01    0.3410681    0.2194599  -3.15  0.001772708    1.739    0.425
       173 -11.4204    125.2841     73.3681   6.0883806740e+01   4.3262892377e+01    0.2517671    0.2186207  19.92 0.0005911142    1.238    0.192
       174 -10.5597      1.6715     74.3083   1.0667020018e+02   6.1128787993e+01    0.1146654   0.09201911  67.60 0.0007039201    1.659    0.397
       175 -11.4926    230.0279     72.4124   4.1819518825e+01   1.9984629435e+01    0.2799563    0.1767833 -76.47   0.00144909    1.868    0.465
       176 -12.0089    139.0046    217.8764   9.0592387771e+01   8.6164272445e+00    0.2093958     0.198087 -35.60 0.0004182326    1.135    0.119
       177 -11.8820    195.9655     67.7597   4.5304191863e+01   2.7902857028e+01    0.2188882    0.1952353 -69.75 0.0009901656    1.012    0.012
       178 -11.6054    198.7012     65.6675   4.4400051831e+01   2.7622005920e+01     0.178397    0.1715214  89.94 0.0003241752    1.139    0.122
       179 -12.9632     99.3036     67.0683   6.6214842978e+01   5.0003888050e+01    0.3849966    0.3224584 -80.47  0.001840712    1.631    0.387
       180 -11.5449     78.0325     67.9903   7.3577679017e+01   5.3916095766e+01    0.1707578    0.1555001  -1.76 0.0003113314    1.001    0.001
       181 -12.2354     48.0804     66.8770   8.4788317491e+01   5.8742333878e+01    0.1934397    0.1892764   2.64 0.0005420676    1.245    0.197
       182 -10.7533    250.0210     66.2947   3.8348977695e+01   1.7074897530e+01    0.1589838    0.1316071 -70.05 0.0002298418    1.105    0.095
       183 -11.6298     74.0930     65.8906   7.4286557325e+01   5.5003581333e+01    0.1995147     0.195337  59.74 0.0003248814    1.260    0.206
       184 -11.4067    188.0267     65.0462   4.5837982912e+01   3.0111471086e+01     0.221567    0.1529598 -70.60 0.0004485439    1.603    0.376
       185 -12.0133    159.2846    233.2697   8.8499130798e+01   2.4872649727e+00     0.402306    0.2271598  24.21  0.001950401    1.746    0.427
       186 -12.4392    114.3392     63.7802   6.0774612371e+01   4.7370513471e+01    0.3675999    0.2372638 -64.39 0.0009130638    2.398    0.583
       187 -10.9568    229.1751     62.7886   3.9855768701e+01   2.1609651863e+01    0.1534702    0.1472567 -35.22 0.0002646447    1.304    0.233
       188 -12.5329     86.7797     69.6232   7.1097006047e+01   5.2004160591e+01    0.3997873    0.1929357 -34.90   0.00160884    2.207    0.547
       189 -12.1845    102.5431     62.9612   6.3868993780e+01   5.0051853036e+01    0.2643499    0.1895697  29.85  0.000402701    1.443    0.307
       190 -12.9604     44.1320     60.5035   8.4366892519e+01   6.0517843307e+01    0.4455189    0.2186245  33.45  0.002081072    2.124    0.529
       191 -12.2405    109.3366     59.8705   6.0877310443e+01   4.9117546054e+01    0.2431188    0.1965407  57.79 0.0005955262    1.296    0.228
       192 -12.3180      2.9735     59.2984   1.0273987830e+02   6.4357472183e+01    0.3099357    0.1984539 -26.77  0.001306006    1.394    0.283
       193 -11.5254    193.4848     58.0621   4.3302969117e+01   2.9938612291e+01    0.2038225    0.1272904 -38.44  0.001027384    1.576    0.366
       194 -11.0442    153.3003     57.9001   4.9946956770e+01   3.9307480541e+01    0.1898132    0.1821867 -44.67 0.0003527766    1.101    0.092
       195 -12.4275     98.9765     57.1609   6.2974558704e+01   5.1771522580e+01    0.2917321    0.2203363 -27.04  0.000492862    1.380    0.275
       196 -12.8458     30.8905     57.2530   8.9161644733e+01   6.2663079402e+01    0.3489612     0.183188  17.25  0.001728191    2.028    0.507
       197 -11.1308    224.6009     55.7879   3.8864510838e+01   2.3558785198e+01    0.1865262    0.0988533 -48.45  0.000516471    1.635    0.388
       198 -12.3209    127.0347     56.0377   5.5049137827e+01   4.5751385577e+01    0.2318979    0.1763615 -76.64  0.001141508    1.728    0.421
       199 -12.2276    110.6306     53.8067   5.8497829248e+01   4.9800833566e+01    0.4066325    0.1974759  49.21  0.001721826    1.921    0.479
       200 -11.7419    162.3701     54.9889   4.7444456240e+01   3.7598811959e+01    0.3211709    0.2005491  55.83  0.001402321    1.536    0.349
       201 -10.6291     65.5652     52.4505   7.2725668688e+01   5.8873191546e+01    0.1362365    0.1194954   0.50 0.0001365499    1.007    0.007
       202 -12.1493     95.0262     49.6342   6.1540196348e+01   5.3784838090e+01    0.3666523    0.2021633 -20.95  0.001193308    2.316    0.568
       203 -11.7433     17.5143     50.8788   9.3411423701e+01   6.5143344583e+01    0.2383246   0.09591274 -48.84  0.001124189    2.020    0.505
       204 -12.4515     38.7568     50.2475   8.3174955760e+01   6.3130497869e+01    0.3299748    0.1706617  36.16  0.001430709    2.122    0.529
       205 -11.2400      1.3741     46.7628   1.0018558335e+02   6.7022318254e+01    0.2011564    0.1014089 -61.22 0.0005011996    1.899    0.473
       206 -12.0857    103.3857    233.4503   1.0094338217e+02   1.0901344507e+01    0.2553047    0.2113384 -27.63 0.0007942774    1.479    0.324
       207 -10.9575    153.1827     44.7883   4.6211399897e+01   4.1218668926e+01    0.1815197    0.1592031  26.69 0.0005218903    1.330    0.248
       208 -11.3475    101.9309    228.8496   1.0069351131e+02   1.2068069532e+01    0.2030157    0.1743144  49.52  0.001051625    1.068    0.063
       209 -11.4902    195.7359     44.5506   3.9731955312e+01   3.1345288286e+01    0.1810396    0.1164659  84.88 0.0009421401    1.605    0.377
       210 -11.9079     99.9839     44.1404   5.8119882511e+01   5.3549324386e+01    0.2049415    0.1849281  32.02  0.000372835    1.007    0.007
       211 -11.3183    188.9882     43.2483   4.0287385760e+01   3.3046208251e+01    0.1895516    0.1571016  86.22 0.0006278537    1.108    0.097
       212 -11.6489     51.7234     42.9853   7.4719354087e+01   6.2645045666e+01    0.1844085    0.1521899 -13.44 0.0003871815    1.082    0.076
       213 -11.4956    145.9988     39.6760   4.6025726499e+01   4.3599599620e+01     0.189331    0.1621801  66.96  0.001103164    1.071    0.066
       214 -11.0184    104.4277     39.7588   5.5333007148e+01   5.3189332356e+01    0.1741958    0.1311059 -10.68 0.0003515153    1.512    0.339
       215 -11.6462     60.1533     37.7549   6.9162874476e+01   6.2133819775e+01    0.2221101    0.1745977 -39.32   0.00131642    1.463    0.316
       216 -12.4652     11.2763     36.8429   9.1839905357e+01   6.8291505478e+01    0.3068529    0.2113256 -16.36  0.001967365    1.236    0.191
       217 -11.0667    231.9697     37.5018   3.4266612021e+01   2.4549582464e+01    0.1770896   0.08603941 -79.06 0.0008097895    2.598    0.615
       218 -11.3614    110.4634     37.4721   5.2965590380e+01   5.2149534634e+01     0.136513     0.123091  41.86 9.046333e-05    1.003    0.003
       219 -12.1573     26.6042     36.8857   8.3929804686e+01   6.6885878921e+01    0.3000963    0.1311216 -29.10  0.001359539    2.425    0.588
       220 -10.9232    117.6428     36.2116   5.0801122090e+01   5.0681672422e+01    0.1765574     0.129328 -11.85 0.0004427397    1.626    0.385
       221 -12.0976    222.1833     35.0094   3.4661184217e+01   2.6869198510e+01    0.1953853    0.1577437 -89.44  0.000382584    1.140    0.123
       222 -12.2664     44.1298     34.3492   7.4541802286e+01   6.5121535284e+01    0.2453279    0.2003269  25.90 0.0007135032    1.265    0.209
       223 -11.1490    143.5352     33.0692   4.4508665101e+01   4.5005125573e+01     0.183464    0.1339084 -31.45 0.0003719908    1.513    0.339
       224 -11.6263    106.7419     32.5036   5.2162074906e+01   5.3602021678e+01     0.232229     0.181921 -26.57 0.0006832489    1.397    0.284
       225 -11.3693     22.9408     33.3063   8.4368591206e+01   6.7875510781e+01    0.1711476    0.1313631  -5.33 0.0003394627    1.094    0.086
       226 -11.7249     31.6186     32.2399   7.9553495466e+01   6.7088783830e+01     0.178337   0.09760965 -30.67 0.0009534744    1.679    0.404
       227 -10.7714    155.9754     30.0284   4.1546695633e+01   4.2413659991e+01    0.1550205    0.1439499 -87.47 0.0003545462    1.063    0.059
       228 -11.8717     39.2152     29.0095   7.4523325828e+01   6.6612517389e+01    0.2167845    0.1573704  16.97 0.0006551578    1.220    0.181
       229 -11.9926    238.0308    248.5499   7.5395892155e+01  -1.0512319905e+01    0.1982557    0.1391753 -22.82 0.0003599478    1.260    0.206
       230 -10.5972     20.4422     22.7709   8.1229000200e+01   6.9828235511e+01    0.1681589   0.09077708 -28.79 0.0009436287    1.649    0.393
       231 -10.7693    172.4682     21.4855   3.6935713571e+01   3.9501911199e+01    0.1282003    0.1102622  88.85 9.123235e-05    1.003    0.003
       232 -11.7244    118.0469    213.5195   9.4810553800e+01   1.2876373210e+01    0.2380691    0.1958973  60.54  0.001303446    1.306    0.234
       233 -12.5692     83.6217     23.2844   5.5068400640e+01   5.9626967115e+01    0.3142981    0.2363844 -59.66  0.001744563    1.983    0.496
       234 -12.1233    186.5800    244.3613   8.4525880225e+01  -3.3708327233e+00    0.3111674    0.2252925  39.00  0.001858481    1.500    0.333
       235 -11.5384    180.0756    244.2030   8.5825646721e+01  -2.4358484996e+00    0.2023239    0.1714055 -22.41 0.0006546081    1.222    0.181
       236 -11.1136    174.2129    244.1538   8.7025467125e+01  -1.5962713148e+00    0.1694707     0.145994  42.96 0.0009553248    1.388    0.280
