#   1 NUMBER                 Running object number                                     
#   2 MAG_AUTO               Kron-like elliptical aperture magnitude                    [mag]
#   3 X_IMAGE                Object position along x                                    [pixel]
#   4 Y_IMAGE                Object position along y                                    [pixel]
#   5 X_WORLD                Barycenter position along world x axis                     [deg]
#   6 Y_WORLD                Barycenter position along world y axis                     [deg]
#   7 A_WORLD                Profile RMS along major axis (world units)                 [deg]
#   8 B_WORLD                Profile RMS along minor axis (world units)                 [deg]
#   9 THETA_WORLD            Position angle (CCW/world-x)                               [deg]
#  10 FWHM_WORLD             FWHM assuming a gaussian core                              [deg]
#  11 ELONGATION             A_IMAGE/B_IMAGE                                           
#  12 ELLIPTICITY            1 - B_IMAGE/A_IMAGE                                       
         1 -14.3806    198.8421     16.9253   6.5905072713e+01   3.3145074470e+01     2.801503      1.61767  29.04   0.01203095    2.606    0.616
         2 -13.6133      4.7830     10.6896   1.1910472163e+02   7.2364143361e+01     1.766454    0.7407029 -37.59   0.01009998    1.827    0.453
         3  -8.8747    180.2600    232.6447   1.1961154126e+02   2.2542607738e+00    0.1102012   0.09011128  69.75  0.000482745    1.617    0.382
         4 -10.8544    248.5309    249.9049   1.1051899707e+02  -1.0162423533e+01    0.2861988    0.1275514  44.35   0.00157054    2.368    0.578
         5 -11.2483    139.0083    250.0063   1.2922526933e+02   6.4018940013e+00    0.2546811    0.1680644  41.32  0.001660038    1.220    0.181
         6 -12.3154    126.8395    244.5770   1.3077647971e+02   9.0876273975e+00    0.3882504    0.2322432  49.18  0.002397623    1.322    0.243
         7 -11.5757    120.4786    239.1578   1.3132592974e+02   1.0912941391e+01    0.4553795    0.2416734  85.61  0.001890957    4.333    0.769
         8 -11.3827     99.0073    248.8144   1.3608695747e+02   1.2571311828e+01    0.3838414    0.1938415  52.28  0.001583747    1.560    0.359
         9 -11.0414    100.8740    245.8320   1.3548773114e+02   1.2777063245e+01    0.2897814    0.1895562  76.99  0.001350613    1.629    0.386
        10 -14.8224     31.9255    247.7991   1.4714975274e+02   2.1313501255e+01     8.352582     2.690283  31.10   0.03133193    6.751    0.852
        11  -9.2841    229.9979    230.0350   1.1045984532e+02  -5.3584487400e+00    0.1443158     0.111562  20.43 0.0004186883    1.010    0.010
        12 -10.0841     33.2232    228.9090   1.4586938162e+02   2.4445429554e+01    0.1931841    0.1624569 -88.32  0.000563741    1.355    0.262
        13 -10.5387     35.7654    225.2707   1.4520937695e+02   2.4820343109e+01    0.2124203    0.1607364  42.89  0.001008748    1.498    0.333
        14 -14.8377     50.9369    219.7855   1.4214828578e+02   2.4056600806e+01     2.043226     1.509991  68.67  0.008991467    1.027    0.026
        15 -11.1044     23.2679    225.2115   1.4733303004e+02   2.6188461015e+01    0.3178916    0.1465981 -89.68  0.001940391    1.940    0.485
        16 -11.1941    106.4123    246.7109   1.3460293205e+02   1.1829967169e+01     0.249661    0.1529027  60.45  0.001198948    1.444    0.307
        17 -15.6263      3.0800    233.1799   1.5099004609e+02   2.6776545619e+01     11.42039    0.1376453 -74.25   0.03663598    8.770    0.886
        18  -9.3474     94.5550    216.8388   1.3372455491e+02   1.8691254321e+01    0.2007694    0.1315367  62.28  0.000577362    1.363    0.266
        19  -8.9265    152.6714    213.0279   1.2193090309e+02   9.9077761114e+00    0.1618652    0.1511089  46.39 0.0003373649    1.097    0.089
        20 -10.8794     41.4312    206.4912   1.4287577590e+02   2.7723987589e+01    0.2086166    0.1591289  76.05 0.0002416993    1.019    0.018
        21 -10.5974    192.9090    194.9101   1.1115938377e+02   5.6545043700e+00    0.7972235    0.3769459 -59.81  0.002229923    7.429    0.865
        22 -11.5025     68.6252    196.0273   1.3661999646e+02   2.6419606617e+01    0.3394241    0.2417613 -46.97  0.001288667    1.917    0.478
        23 -11.6836     73.7397    188.6835   1.3475804386e+02   2.7225937857e+01    0.2677814    0.2273046 -56.76 0.0008119018    1.420    0.296
        24  -9.2718    120.3129    188.2822   1.2481893878e+02   2.0031578083e+01    0.2379702    0.1548344  31.07  0.001102534    1.762    0.433
        25  -9.0894    126.6805    185.7261   1.2306785256e+02   1.9428772010e+01    0.2810782    0.1131412  35.44  0.001060884    2.818    0.645
        26 -11.0090     82.5525    176.4435   1.3133786227e+02   2.8546651202e+01    0.2334851     0.207791  83.46 0.0002504294    1.064    0.061
        27 -13.2750     70.0813    173.9903   1.3378573362e+02   3.0849460594e+01    0.4721225     0.269255 -46.06   0.00181857    2.307    0.567
        28 -12.3438     88.9824    167.4225   1.2861364189e+02   2.9530812155e+01     1.378194    0.5719816  53.64  0.005518937    2.689    0.628
        29 -12.9756     67.2715    144.2416   1.3029483203e+02   3.7898392358e+01     1.146899    0.6338161  86.38  0.004940613    2.552    0.608
        30 -12.5733     58.3398    133.0892   1.3082317897e+02   4.1637408646e+01     1.797416    0.6145674 -75.59  0.004695931    6.507    0.846
        31  -9.3187    103.9892    146.9917   1.2161556862e+02   3.1618433216e+01    0.3065774    0.1799516 -35.05  0.001281563    2.460    0.593
        32 -11.9820     90.0211    150.5641   1.2568258366e+02   3.3120580900e+01    0.2620755    0.2418547 -41.22 0.0005266726    1.275    0.216
        33 -10.2962     35.4207    150.7725   1.3895082645e+02   4.0177026149e+01     0.174943   0.09470765 -63.35 0.0007886234    1.623    0.384
        34 -11.5877     44.2294    149.1646   1.3666027663e+02   3.9599118307e+01    0.3650441    0.2623298  -7.17  0.001996892    2.451    0.592
        35  -9.3494    134.3550    148.2453   1.1455969009e+02   2.5722609451e+01    0.2050794    0.1359933 -60.31 0.0006743741    1.651    0.394
        36  -8.6343    192.2228    144.0407   1.0098864303e+02   1.4489651074e+01    0.1844528     0.119462 -36.68 0.0004037212    1.560    0.359
        37  -9.9174    111.5373    136.7263   1.1771229793e+02   3.2581766089e+01    0.3291937    0.2425338 -18.85  0.001401762    2.019    0.505
        38 -14.3161     10.2108    207.1013   1.4857785222e+02   3.0867862839e+01     2.304948     1.543484 -42.96   0.01343041    2.737    0.635
        39 -11.3769     50.0660    129.9308   1.3250886972e+02   4.3363044802e+01    0.2727327    0.2346273  76.39 0.0007149674    1.145    0.127
        40 -10.5356     99.1807    133.7200   1.2024317893e+02   3.5446438378e+01    0.2677296    0.2160559 -33.59 0.0004068385    1.464    0.317
        41 -10.9349     43.6956    126.9901   1.3375636955e+02   4.4754689698e+01    0.1884084    0.1473556 -71.97 0.0006115736    1.080    0.074
        42  -9.4753    108.0913    123.6563   1.1576903059e+02   3.6152893057e+01    0.1926332    0.1803131  45.29 0.0003538906    1.119    0.106
        43 -13.3613     45.6160    230.2449   1.4384034000e+02   2.2783286808e+01    0.6805574     0.297574  50.71  0.001508479    1.777    0.437
        44 -11.0262    168.3370    113.4549   9.8593766124e+01   2.5613623083e+01    0.3827674    0.3179907 -84.50 0.0008210054    1.477    0.323
        45 -10.0950    101.2243    151.3036   1.2308032083e+02   3.1124752919e+01    0.2900062    0.2717471 -62.92 0.0009132662    1.128    0.113
        46 -10.7490     42.2450    109.1423   1.3124383878e+02   4.9049225031e+01    0.2702541    0.1414156 -67.18  0.001167227    1.667    0.400
        47 -11.8097     80.4651    247.8355   1.3918187269e+02   1.5315883757e+01    0.3679705    0.1765969  63.47   0.00208631    2.014    0.503
