#   1 NUMBER                 Running object number                                     
#   2 MAG_AUTO               Kron-like elliptical aperture magnitude                    [mag]
#   3 X_IMAGE                Object position along x                                    [pixel]
#   4 Y_IMAGE                Object position along y                                    [pixel]
#   5 X_WORLD                Barycenter position along world x axis                     [deg]
#   6 Y_WORLD                Barycenter position along world y axis                     [deg]
#   7 A_WORLD                Profile RMS along major axis (world units)                 [deg]
#   8 B_WORLD                Profile RMS along minor axis (world units)                 [deg]
#   9 THETA_WORLD            Position angle (CCW/world-x)                               [deg]
#  10 FWHM_WORLD             FWHM assuming a gaussian core                              [deg]
#  11 ELONGATION             A_IMAGE/B_IMAGE                                           
#  12 ELLIPTICITY            1 - B_IMAGE/A_IMAGE                                       
         1 -15.0361    187.1267     94.6461   8.4101488515e+01   2.4607351151e+01      10.2147     5.332243 -61.52   0.03550088    3.024    0.669
         2 -16.6625    244.9931     25.7851   6.0114255575e+01   2.1596984302e+01     3.057787      2.86658 -17.32   0.01926753    1.512    0.339
         3 -14.7001    129.1822     27.1607   7.6857151042e+01   4.8511331059e+01     4.927327      3.98027  15.28    0.0292343    1.350    0.259
         4 -13.9336    230.2566     18.5323   6.0026062518e+01   2.5680718189e+01    0.8069161    0.5459148  29.62  0.002819072    2.677    0.626
         5 -14.0821    249.2821      3.9948   5.5577648081e+01   2.3218581980e+01    0.6110816    0.4249412 -18.63  0.003720826    2.280    0.561
         6 -15.7168    205.7688     62.0927   7.2798210749e+01   2.5557363967e+01     9.907222     4.872894 -65.18   0.03549161    3.295    0.696
         7 -14.5365    234.0783      8.2318   5.7598674026e+01   2.5997726763e+01     1.046505    0.6651778  56.92  0.003054574    1.742    0.426
         8  -9.8851    202.2949     17.8751   6.2804915028e+01   3.2160382535e+01      0.49346     0.286807  86.47  0.002540194    1.702    0.412
         9 -10.5146    180.6166     24.9425   6.7278125342e+01   3.6545719708e+01    0.4182771    0.3574165   5.48  0.002075898    1.527    0.345
        10 -14.6492    217.4007     32.1966   6.4305668365e+01   2.6948064524e+01     1.413751    0.7677006 -71.57   0.00659931    2.183    0.542
        11  -8.6139     56.8453     17.3327   9.3400761320e+01   6.3561163050e+01    0.1871355    0.1382303 -24.34 0.0006561939    1.394    0.282
        12 -10.1806    178.8019     12.1037   6.4284452983e+01   3.8339576480e+01    0.3556066    0.2013157 -29.71  0.001168999    2.047    0.511
        13 -10.9741    207.7888      9.7355   6.0374643080e+01   3.1751498609e+01     0.354896    0.2215895  80.91  0.001334711    1.389    0.280
        14 -10.1061    164.5162      7.5105   6.5023514585e+01   4.2178567671e+01    0.3002917    0.2278639 -14.84  0.001458672    1.671    0.402
        15 -10.3925      9.0135      9.2681   1.0981983695e+02   7.0182047770e+01    0.1519792    0.1084415  -6.24 0.0006969844    1.083    0.077
        16  -8.4873    171.5256      8.5622   6.4342967514e+01   4.0415183933e+01    0.1294051    0.1072924  74.77  7.04975e-05    1.016    0.015
        17  -8.0805    184.2144      5.6786   6.2035826365e+01   3.7674799745e+01    0.1190269   0.08323252 -65.24 0.0002263103    1.490    0.329
        18  -9.1201    171.8941      2.6872   6.2799143429e+01   4.0861018344e+01    0.2435887    0.1652707 -42.17 0.0008778619    1.651    0.394
        19  -8.8531    111.6229    155.1322   1.1642281939e+02   2.8324368705e+01    0.1993421    0.1761886 -53.60 0.0003960318    1.129    0.114
        20 -12.9026    247.5736    239.7957   1.0346091885e+02  -1.2365874173e+01     1.639434    0.8068911 -21.22  0.008296673    2.302    0.566
        21 -12.2335    229.2068    249.0259   1.0835354000e+02  -1.0889031678e+01     1.174527     0.503585  33.98  0.005814813    2.031    0.508
        22  -8.6804    196.4848    250.4749   1.1473189342e+02  -5.9636062218e+00    0.1270175    0.1037971  26.05 0.0008099589    1.002    0.002
        23  -9.7875    133.2407    143.2345   1.0840239471e+02   2.6831225869e+01    0.6759683    0.1903816 -52.97  0.001799386    4.357    0.770
        24 -12.6003    169.6658     70.7176   8.1255450586e+01   3.2939094306e+01    0.7918806    0.7053949  -9.66  0.001603141    1.298    0.230
        25  -9.0213    143.4126    146.1841   1.0656036435e+02   2.4058730386e+01    0.2253483      0.14732 -59.41 0.0008734459    1.731    0.422
        26 -11.1468    176.3980    142.8899   9.8146255113e+01   1.7606200072e+01    0.5851421     0.393644  -2.14  0.002241022    2.580    0.612
        27  -8.4700    109.7264    140.0051   1.1372523916e+02   3.2173597248e+01     0.197635    0.1805941 -61.75 0.0002282011    1.076    0.071
        28  -9.8172    167.7583    138.3337   9.9009370509e+01   2.0469687785e+01    0.3722463    0.2316975 -89.35  0.001145317    3.985    0.749
        29  -9.0210    157.8012    140.5655   1.0182787533e+02   2.2192351611e+01    0.2134048    0.1479125  56.99 0.0006160362    1.560    0.359
        30 -11.8521     46.6195    166.3367   1.3457808528e+02   3.5488824788e+01    0.4677047    0.3946299 -11.01  0.001120929    1.655    0.396
        31 -11.4588    160.2647    128.8680   9.8459717844e+01   2.4134554902e+01    0.5263883    0.4327264  15.16  0.002520489    1.453    0.312
        32 -10.5758    135.1183    124.6452   1.0353102817e+02   3.0556960268e+01     1.109598    0.3479205 -50.91  0.003199402    3.690    0.729
        33  -9.8581    148.7287    115.9377   9.7967260349e+01   2.9434066516e+01    0.6548337    0.3828277 -78.54  0.001761329    5.258    0.810
        34 -10.1732    170.9455    126.9572   9.5565343671e+01   2.2117840674e+01    0.2476541    0.1934137 -83.26 0.0005162736    1.662    0.398
        35 -11.7280    167.4327    114.1703   9.3172222174e+01   2.5521460356e+01    0.6195167    0.4967434  34.32  0.001085524    1.332    0.249
        36  -9.8570    135.0000    107.9888   9.9309008046e+01   3.4120062356e+01     0.632993     0.192742 -47.35  0.001872975    3.516    0.716
        37  -9.6552    156.4853    112.3694   9.5209949568e+01   2.8408527920e+01    0.3119934    0.2208195 -65.41    0.0013431    1.775    0.436
        38  -9.4098    127.0588    111.7071   1.0233425952e+02   3.5040266109e+01    0.3508554    0.2122339 -59.30 0.0009920249    2.041    0.510
        39  -8.2894     89.4502    112.5092   1.1296114170e+02   4.1996366510e+01     0.142695    0.1358231 -66.81  0.000259775    1.098    0.089
        40  -8.6316     17.2359    233.2051   1.4696995322e+02   2.4343508213e+01    0.1531445    0.1231852  86.19  0.000510686    1.183    0.154
        41  -9.1087    140.0904    104.9505   9.7222184575e+01   3.3621503624e+01    0.3953705     0.222543  47.37  0.001625394    1.757    0.431
        42 -10.3574    123.0927    103.1568   1.0112385515e+02   3.7655427561e+01    0.6367917    0.3974583  60.91  0.002647064    2.057    0.514
        43  -9.6587    147.0267    101.1205   9.4500434204e+01   3.2825107169e+01     0.410676    0.3223923  83.17  0.001648055    1.630    0.386
        44  -8.6777     91.8094    100.1634   1.0912966558e+02   4.4264380599e+01    0.3508376    0.2148914 -66.25  0.001217732    2.363    0.577
        45  -9.1535    133.4074     97.1833   9.6808249521e+01   3.6651863592e+01     0.287556    0.2329657  66.26 0.0006117524    1.400    0.286
        46  -7.9061    201.3047    222.2926   1.0908387826e+02  -2.4359821407e+00    0.1342744   0.09588944   8.07 0.0002653486    1.576    0.365
        47 -10.5501    156.6533     94.9962   9.0600707690e+01   3.1781879284e+01    0.4905686    0.3371423  38.94  0.002224079    1.524    0.344
        48 -10.0929    140.2216     91.1773   9.3443261368e+01   3.6295370413e+01    0.4552032    0.2755648 -50.90  0.001937591    1.840    0.457
        49 -11.1292    170.5108     86.1977   8.5234769020e+01   3.0102821425e+01    0.6582367    0.4896934   6.32  0.002966452    1.944    0.486
        50 -11.3413    153.7800     85.0779   8.8552805690e+01   3.4288746645e+01    0.5029113    0.3831493  73.30 0.0004481315    1.527    0.345
        51 -10.2917    158.0446     83.7330   8.7230930582e+01   3.3520777514e+01    0.4529338    0.3798664 -74.89  0.001656624    1.373    0.272
        52  -9.2590     76.9888     88.5529   1.1051220045e+02   4.9088111704e+01    0.2625778    0.1916772 -61.28 0.0009660786    1.621    0.383
        53  -9.9623    163.9287    211.9456   1.1493694133e+02   6.1769971472e+00    0.2115982     0.198576 -41.00 0.0003610006    1.175    0.149
        54  -9.0832    206.9716     82.9517   7.7645454154e+01   2.1944971493e+01    0.2229299    0.1958358 -74.88 0.0004549964    1.118    0.106
        55  -9.6276    191.6210    192.7480   1.0553731561e+02   4.5100550470e+00    0.6598521    0.3250565 -62.66  0.001871058    5.675    0.824
        56  -8.0732    164.0233    196.6742   1.1217359898e+02   9.1137741545e+00     0.247056    0.1058098  57.72 0.0007049082    4.424    0.774
        57  -8.9377    203.7703    160.9683   9.6448917391e+01   8.1306931882e+00    0.2232386    0.1976979 -67.31 0.0007189133    1.316    0.240
        58  -9.2932    123.0799     64.8307   9.0074036295e+01   4.4758074174e+01    0.2023197    0.1895522  73.39            0    1.203    0.169
        59 -12.9368     17.5391    184.3900   1.4309408445e+02   3.4473103420e+01    0.8367294    0.6398404 -89.49  0.003869826    1.035    0.034
        60  -9.8374    164.3092     40.4855   7.3986494277e+01   3.8634115456e+01    0.2299826    0.2168916 -73.51 0.0002744123    1.119    0.107
        61  -8.8762     69.5090     34.5567   9.5642550521e+01   5.9456885177e+01    0.2749025    0.1135431 -36.70  0.001262498    2.471    0.595
        62  -9.7935    197.7954     28.9742   6.5952817186e+01   3.1952028159e+01    0.2057323    0.1945051 -60.84 0.0005260482    1.185    0.156
        63 -10.0932    202.2210     23.9103   6.4208514415e+01   3.1496864272e+01    0.3123772    0.2494752 -83.55 0.0008449056    1.135    0.119
        64  -9.9857    221.9690    177.8816   9.6464949550e+01   1.4252232260e+00    0.3516067    0.2709157  61.28   0.00130443    1.679    0.405
        65 -10.5294    214.5701    188.3759   1.0003239634e+02   9.4877664126e-01    0.4408815    0.2575958  51.25  0.001241688    1.981    0.495
        66  -8.8357    179.5291     20.5548   6.6316288811e+01   3.7291209195e+01     0.192461    0.1734329  71.94 0.0001930803    1.080    0.074
        67  -8.0411    160.2550     28.2606   7.1304310183e+01   4.1086896590e+01    0.1269481   0.09371302  38.93 0.0002744783    1.437    0.304
        68  -9.8752    228.1067    172.6473   9.4224621960e+01   1.2036580396e+00    0.2428926    0.1882305 -44.55  0.001312422    1.341    0.254
        69  -9.1643    159.8651     18.4548   6.8661152777e+01   4.2233930737e+01    0.2010715    0.1850348   0.56   0.00128878    1.299    0.230
        70  -8.2713    155.4556    159.5277   1.0664603728e+02   1.8599912636e+01    0.1527645    0.1474869  69.54 0.0002335909    1.049    0.047
        71  -8.2676    147.0217    157.7366   1.0824466732e+02   2.0752456558e+01    0.2112902    0.1996566  48.25 0.0004813037    1.036    0.035
        72 -10.3054    217.2225    169.0007   9.5521622155e+01   3.9315547771e+00     0.826564    0.3353521  58.37  0.002202522    5.989    0.833
        73  -8.0115    210.6196     16.1835   6.1503123840e+01   3.0405067614e+01     0.134223    0.1229237 -31.66 0.0004701383    1.374    0.272
        74  -9.2732     12.5193     17.4691   1.1150501897e+02   6.8783422653e+01    0.1106353   0.07814023 -15.31 0.0001555814    1.046    0.044
        75 -12.2910     69.3454    146.1854   1.2570134867e+02   3.7305323009e+01     1.437286     1.063194 -55.93  0.005208825    1.250    0.200
        76 -12.5242     53.3372    161.4245   1.3226464898e+02   3.5824614399e+01    0.8278543    0.6835381  82.34  0.002699076    1.166    0.142
        77 -11.8737     59.4957    156.9770   1.3005926274e+02   3.6089045917e+01    0.6418856     0.447766 -88.06  0.001754919    1.532    0.347
        78  -9.9853    230.2332    166.7174   9.2592376811e+01   1.8525336631e+00    0.3333927    0.1737194 -51.08  0.001390076    2.332    0.571
        79  -8.8657    190.8464    180.4351   1.0322968741e+02   6.9972553049e+00    0.2398318    0.1705014 -36.15  0.001139228    1.450    0.310
        80  -8.2623     41.9955    247.2639   1.4370061068e+02   1.8786921782e+01    0.1353562   0.08261433  48.15 0.0003343762    1.449    0.310
        81 -10.0018    177.8557    149.0190   9.9232966393e+01   1.6019823989e+01    0.4543141    0.2210433  42.09   0.00130314    2.077    0.519
