#   1 NUMBER                 Running object number                                     
#   2 MAG_AUTO               Kron-like elliptical aperture magnitude                    [mag]
#   3 X_IMAGE                Object position along x                                    [pixel]
#   4 Y_IMAGE                Object position along y                                    [pixel]
#   5 X_WORLD                Barycenter position along world x axis                     [deg]
#   6 Y_WORLD                Barycenter position along world y axis                     [deg]
#   7 A_WORLD                Profile RMS along major axis (world units)                 [deg]
#   8 B_WORLD                Profile RMS along minor axis (world units)                 [deg]
#   9 THETA_WORLD            Position angle (CCW/world-x)                               [deg]
#  10 FWHM_WORLD             FWHM assuming a gaussian core                              [deg]
#  11 ELONGATION             A_IMAGE/B_IMAGE                                           
#  12 ELLIPTICITY            1 - B_IMAGE/A_IMAGE                                       
         1 -14.7934      2.8104    127.1931   1.4198151011e+02   4.8534409528e+01     6.652068    0.5747219 -70.44   0.01613113    8.440    0.882
         2 -12.7468      4.1453     48.7467   1.2740429849e+02   6.4783519654e+01    0.6641073    0.2937239 -55.28   0.00343795    1.788    0.441
         3 -13.4129    214.6727      9.1533   6.0899589779e+01   3.0834242883e+01    0.9999593      0.78898  72.38  0.003180101    1.193    0.162
         4 -13.5234    198.9420     27.4826   6.7021943820e+01   3.2485393280e+01     1.446659     1.306554  24.77  0.007240474    1.429    0.300
         5  -9.2387    192.8270    194.6616   1.0810068385e+02   3.6894269312e+00    0.3025052    0.1678191 -64.56  0.001086812    3.487    0.713
         6 -11.6376    246.1301    249.0680   1.0779672969e+02  -1.3682134956e+01    0.5179396    0.2121092  40.95  0.002596077    2.312    0.568
         7 -12.3631     34.9709    245.0171   1.4604457566e+02   2.0059704878e+01    0.6127868    0.4575738 -80.64  0.004520744    1.349    0.259
         8 -11.9040      4.9296    249.2659   1.5106845539e+02   2.2627454363e+01     0.593819    0.2682062  49.92  0.002952683    1.806    0.446
         9 -11.0045    198.0286    246.2088   1.1606568083e+02  -5.8151676926e+00    0.2085529    0.1855299 -18.18  0.001269614    1.256    0.204
        10 -10.2030     81.4158    249.4364   1.3837965846e+02   1.2966247630e+01    0.2109716    0.1314292  56.29  0.001285795    1.283    0.221
        11  -8.9734     66.2559    250.2553   1.4112661934e+02   1.4994699506e+01    0.1665224     0.102999  66.97 0.0006871973    1.320    0.242
        12 -10.8498     17.8663    241.3730   1.4860951146e+02   2.2724511492e+01    0.1875499    0.1110733  81.61 0.0006856163    1.278    0.218
        13 -10.3012    181.4107    245.6263   1.1911543363e+02  -2.9242565402e+00    0.2186203    0.1174435 -61.60 0.0009632379    3.303    0.697
        14 -10.8737     12.1987    240.0393   1.4944096879e+02   2.3589940025e+01    0.1869524    0.1287411  60.41   0.00139965    1.255    0.203
        15 -11.7064    119.4969    238.1061   1.3002681034e+02   9.0402228180e+00    0.4211012    0.2143893 -72.38  0.001921273    2.710    0.631
        16 -12.6860    118.1237    231.7194   1.2948556788e+02   1.0476613287e+01     1.239057     0.158299  42.90  0.003246749    5.996    0.833
        17 -10.4873     28.9465    248.6533   1.4727131923e+02   2.0092304548e+01    0.3102028    0.1482493 -72.04  0.001474365    1.946    0.486
        18 -11.0317     50.4345    235.8780   1.4270182966e+02   1.9888722392e+01    0.2830853    0.1727065 -79.85  0.001538236    1.482    0.325
        19 -12.8776     45.7588    215.2100   1.4177221089e+02   2.4701707834e+01     1.053017    0.7080867  85.04  0.005704217    1.235    0.190
        20 -12.8533     30.4565    232.6972   1.4594530300e+02   2.2982093088e+01    0.3210872    0.2483535 -73.65 0.0007615786    1.438    0.305
        21 -13.8805     35.4995    226.1175   1.4457431535e+02   2.3703038982e+01    0.8007531    0.5427499  68.00  0.002393818    1.167    0.143
        22 -11.0025     10.7273    231.8076   1.4919845257e+02   2.5329048001e+01    0.3010961    0.1104687  70.82   0.00147405    2.726    0.633
        23 -11.9944     98.1381    229.2816   1.3311542551e+02   1.4255427413e+01    0.5887294    0.1613936  50.23  0.002096822    3.425    0.708
        24 -11.5633     56.5049    211.6398   1.3935616635e+02   2.4071037635e+01    0.9951532    0.2689065  56.53  0.003065173    5.394    0.815
        25  -8.5838    152.4992    213.0377   1.1975498522e+02   7.9361184739e+00     0.182051      0.13887 -54.01 0.0003152124    1.446    0.309
        26 -12.2828      9.9346    207.0031   1.4774029553e+02   3.0411050968e+01    0.6110507    0.3914933  35.27  0.002712245    1.947    0.486
        27 -10.3865     56.2551    206.0595   1.3883259322e+02   2.5307057250e+01    0.3396945     0.150918  54.60  0.001626859    2.128    0.530
        28 -11.5607     58.0408    198.9186   1.3769926412e+02   2.6636868457e+01    0.2701032    0.2205616 -75.81 0.0005058654    1.199    0.166
        29 -13.9012      9.9901    157.2678   1.4357645298e+02   4.1250071933e+01     3.722358     1.406302  84.45   0.01364304    4.265    0.766
        30 -11.8632     64.6780    190.4629   1.3530634449e+02   2.7631249184e+01    0.2756949    0.2335994 -71.63 0.0003552605    1.209    0.173
        31 -13.0341     61.8630    175.5912   1.3401577323e+02   3.1437175899e+01    0.5182667    0.2756612 -47.84  0.001659593    2.247    0.555
        32 -10.6195     75.4408    177.4753   1.3117077272e+02   2.9082056977e+01    0.2474799    0.2161212 -86.39  0.000653198    1.046    0.044
        33 -10.7760     46.3612    249.2940   1.4444834823e+02   1.7836308459e+01    0.2587186    0.1541726  74.78  0.001375931    1.372    0.271
        34  -9.0544     95.7214    172.7636   1.2570475807e+02   2.6993116339e+01    0.1957998    0.1496993  78.14 0.0004595633    1.338    0.252
        35 -11.7895     83.2310    168.2561   1.2793695742e+02   3.0068645452e+01    0.6710604    0.6265268 -55.35  0.004038688    1.230    0.187
        36 -10.4412      9.5755    194.1726   1.4687648744e+02   3.3153922893e+01    0.2064678    0.1571245  69.59  0.000290748    1.192    0.161
        37 -10.0759     96.2348    152.5872   1.2198816548e+02   3.1685673166e+01     0.310863    0.2575963 -53.02 0.0007825568    1.209    0.173
        38  -9.2147     99.2745    148.5341   1.2043044853e+02   3.2130759297e+01    0.2439037    0.1905735 -50.59  0.000545257    1.274    0.215
        39 -11.9144     84.7169    151.5641   1.2471351356e+02   3.3812963006e+01    0.3133554    0.2473365 -51.16 0.0005393513    1.280    0.219
        40 -12.0946     67.3428    143.5389   1.2774189541e+02   3.8293760208e+01    0.6775091    0.4303928  66.35  0.003208153    1.919    0.479
        41  -9.7315    108.3975    137.6053   1.1580097379e+02   3.3089855678e+01    0.3910948    0.2773299 -16.65  0.001214838    2.248    0.555
        42 -10.3500     95.5979    134.7240   1.1855274046e+02   3.6047737041e+01    0.2561169    0.2373762 -39.46 0.0004479702    1.160    0.138
        43 -11.2854     25.8175    128.6618   1.3624047336e+02   4.6455300293e+01    0.3675954     0.205008  55.91  0.001174943    2.202    0.546
        44 -11.1065     19.5687    125.0751   1.3737062311e+02   4.7800852541e+01    0.2681559    0.1930082  66.44  0.001184775    1.577    0.366
        45  -9.0546     75.8396    129.1669   1.2274104123e+02   4.0508012247e+01    0.2150143     0.178313  82.87 0.0006506093    1.309    0.236
        46 -10.0815     80.9791    124.3087   1.2029778688e+02   4.0879391333e+01    0.3236294    0.2175164  67.20  0.001028864    1.962    0.490
        47  -8.7683    106.1820    124.0146   1.1330463263e+02   3.6675912618e+01    0.1923217    0.1827679 -65.95 0.0002488876    1.004    0.004
        48  -8.6845     67.8623    122.8766   1.2366948236e+02   4.3121460648e+01    0.1869761    0.1553274  83.55 0.0004240977    1.328    0.247
        49  -9.2848    167.9125    113.1160   9.5167192568e+01   2.5830426086e+01    0.2435305    0.2069313 -81.13 0.0005692598    1.307    0.235
        50  -8.9654     40.3216     95.8427   1.2610988798e+02   5.2524743338e+01    0.2246289    0.1566921  58.62  0.001250012    1.943    0.485
        51  -9.8182    241.3386     90.3322   7.6185337658e+01   1.2998857123e+01    0.1370892    0.1126762  10.96 0.0007051841    1.743    0.426
        52  -8.9597     65.2167     81.2712   1.1448324354e+02   5.2685454674e+01    0.1653076     0.152928 -80.36 0.0004713326    1.312    0.238
        53  -9.9456    158.4903     77.0562   8.7478100486e+01   3.5088958438e+01    0.2292336    0.1495457 -39.27 0.0006260385    1.564    0.360
        54  -9.1723     56.3263     75.0965   1.1568974134e+02   5.5089169623e+01    0.1970201    0.1718494  65.11 0.0004443505    1.541    0.351
        55  -9.1022     36.1709     63.9573   1.1955280811e+02   5.9496307918e+01    0.1673102    0.1502808 -46.29 0.0004357402    1.207    0.172
        56  -9.7072    215.5021    248.9905   1.1326770879e+02  -9.0456184877e+00    0.1655118   0.09694127  -9.59  0.000810287    2.524    0.604
        57 -11.9551    152.8553    249.2000   1.2506511593e+02   1.4049857357e+00    0.6370307    0.1428238  44.64  0.002160529    3.664    0.727
        58 -11.3680     98.9812    248.4904   1.3509883801e+02   1.0461194232e+01    0.3375182    0.2339602  53.79  0.002104531    1.173    0.147
