#   1 NUMBER                 Running object number                                     
#   2 MAG_AUTO               Kron-like elliptical aperture magnitude                    [mag]
#   3 X_IMAGE                Object position along x                                    [pixel]
#   4 Y_IMAGE                Object position along y                                    [pixel]
#   5 X_WORLD                Barycenter position along world x axis                     [deg]
#   6 Y_WORLD                Barycenter position along world y axis                     [deg]
#   7 A_WORLD                Profile RMS along major axis (world units)                 [deg]
#   8 B_WORLD                Profile RMS along minor axis (world units)                 [deg]
#   9 THETA_WORLD            Position angle (CCW/world-x)                               [deg]
#  10 FWHM_WORLD             FWHM assuming a gaussian core                              [deg]
#  11 ELONGATION             A_IMAGE/B_IMAGE                                           
#  12 ELLIPTICITY            1 - B_IMAGE/A_IMAGE                                       
         1 -11.5656    224.3752     35.4240   3.0039905435e+01   2.4313418927e+01     1.019229    0.6422163  32.26  0.005150192    2.351    0.575
         2 -11.1200    244.7636     17.9958   2.4475119040e+01   2.1962624609e+01    0.6786714    0.4662048 -48.48  0.002980164    1.167    0.143
         3  -7.3201    159.4601     21.6330   3.2247263360e+01   4.1648158463e+01    0.1428677    0.1314206 -86.04 0.0001401157    1.062    0.058
         4 -11.2848     56.7670    240.3708   1.0137770009e+02   2.0187332944e+01     1.075067    0.7405487  18.29  0.003436955    1.710    0.415
         5 -12.5375     29.8852    194.6603   1.0477362650e+02   3.1457918953e+01     1.392923     1.113736  53.87  0.009642644    1.065    0.061
         6 -10.7965      2.4688    207.7495   1.1156454878e+02   3.1464408643e+01    0.8921533    0.2996523 -87.60  0.004447383    2.985    0.665
         7 -12.0050      4.9296    249.4605   1.1186751621e+02   2.3937785090e+01      3.82929    0.5528101  25.75   0.01070045    9.754    0.897
         8 -11.6483      3.8709    222.0510   1.1156297152e+02   2.8687485254e+01    0.8742001     0.586436  30.71  0.006267983    1.417    0.294
         9 -10.1415      1.8315    231.2042   1.1215246025e+02   2.7247830016e+01    0.2535623    0.1477755  80.97 0.0007826587    1.653    0.395
        10 -11.0305      3.1827    238.9817   1.1202046034e+02   2.5805700749e+01    0.5505793    0.3583814  53.83  0.003258412    1.075    0.069
        11 -11.4851      9.1479    231.1905   1.1067704865e+02   2.6601670302e+01    0.7754049    0.4662332  47.99  0.005550523    1.125    0.111
        12 -10.6780     13.2267    244.2692   1.1017519189e+02   2.4025969973e+01    0.3449762    0.2002027  44.69 0.0003039496    1.144    0.126
        13 -10.4995     13.2289    240.0985   1.1007404585e+02   2.4713725719e+01    0.4030243    0.2088815  30.03  0.002260926    1.638    0.390
        14  -8.5338    161.0815    244.5198   8.1647479266e+01   6.7064861154e+00    0.1686911    0.1481045  -2.29 0.0005783906    1.317    0.241
        15  -8.9479     72.1872    242.1358   9.8387887415e+01   1.8132175942e+01    0.2606541    0.1139262  38.00  0.001275068    1.581    0.368
        16  -7.5633     92.5402    241.4659   9.4283809300e+01   1.5776100862e+01    0.1137984   0.08270118  39.22 0.0001004449    1.004    0.004
        17  -6.9999     37.2918    239.3061   1.0525202363e+02   2.2474362379e+01   0.09040467   0.08024396   9.40 0.0002692264    1.577    0.366
        18  -7.3645    233.6580    238.2879   6.9088219600e+01  -1.1883206370e+00   0.08389897   0.06838679  27.45 0.0004020864    1.645    0.392
        19  -7.9144    150.0220    238.4827   8.2958426632e+01   8.8441233903e+00    0.1635306   0.08323004  33.19 0.0003361086    1.469    0.319
        20  -7.6582    109.3221    237.2542   9.0599139662e+01   1.4280849845e+01    0.1065927   0.07490189  16.48 0.0002092044    1.541    0.351
        21  -9.8152     27.4307    181.5324   1.0466658549e+02   3.4446868793e+01    0.4762186    0.3001892  33.58  0.002612702    1.431    0.301
        22  -7.7830    164.6446    236.2915   8.0055450165e+01   7.2335368941e+00    0.1048416   0.07231522  47.12 0.0007028788    1.684    0.406
        23  -7.7666    132.3235    235.6979   8.5970710899e+01   1.1511623013e+01    0.1110211   0.07150258  50.34 0.0002164499    1.634    0.388
        24  -9.1424     98.9764    234.1744   9.2383287939e+01   1.6065395131e+01    0.2903148     0.121473  22.86  0.000937328    3.160    0.684
        25  -8.9147     83.4706    232.8116   9.5424762147e+01   1.8233649585e+01    0.2235813    0.1881823   3.95  0.001166415    1.548    0.354
        26  -8.1062     41.7941    233.9548   1.0409514621e+02   2.2891734618e+01    0.2076195    0.1519057 -16.33  0.001328405    2.465    0.594
        27  -7.9939     57.5097    233.4883   1.0082728290e+02   2.1227641910e+01    0.1145198   0.08375626  44.50  1.48336e-05    1.028    0.027
        28  -9.3482     34.9129    232.7633   1.0545823419e+02   2.3820760624e+01    0.4007504     0.124668  37.87  0.001336766    2.036    0.509
        29  -9.5505    111.7929    230.9254   8.9502987111e+01   1.4892201307e+01    0.2502892    0.1293767  37.13  0.001320717    1.438    0.305
        30  -9.4163     24.5115    227.8536   1.0742085335e+02   2.5727612409e+01    0.3162086    0.1572092  63.97 0.0006559283    1.714    0.417
        31  -9.4063     20.3708    226.2637   1.0823016809e+02   2.6413488080e+01    0.2785085    0.1261968  40.64   0.00168725    1.506    0.336
        32  -8.8401     90.6023    229.9333   9.3721454339e+01   1.7793615254e+01    0.1940111    0.1277761  29.60 0.0005815818    1.314    0.239
        33  -9.5604     35.2924    226.9159   1.0512345151e+02   2.4792837347e+01    0.4092243    0.1290088  35.62  0.001586707    2.125    0.529
        34  -9.6354     36.9892    221.5889   1.0451449687e+02   2.5558906973e+01    0.4127785    0.2285075  78.72   0.00254624    1.871    0.465
        35 -10.5855     31.1586    217.7123   1.0559752336e+02   2.6874726989e+01    0.3173762    0.2535387   9.91  0.002180343    1.694    0.410
        36  -8.0311     55.4198    225.1834   1.0076177497e+02   2.2877337473e+01    0.1882463    0.1096842  48.29 0.0003230617    1.284    0.221
        37  -8.2184    136.6376    224.1352   8.3847642961e+01   1.2543482965e+01    0.1409242    0.1030421 -28.46  0.000934002    1.731    0.422
        38  -7.9354    111.6002    223.8598   8.8830971767e+01   1.5990600692e+01    0.1385884    0.1092814  85.77 0.0009397448    1.699    0.411
        39  -9.2761    131.2770    228.0524   8.5341643037e+01   1.2714267784e+01    0.2121381    0.1597868  26.76 0.0003550163    1.110    0.099
        40 -10.3066     32.0628    210.6837   1.0507268944e+02   2.8089852690e+01    0.3960913     0.332613  -6.70  0.002764487    1.778    0.438
        41  -7.8387     60.2104    222.5594   9.9567091600e+01   2.2774245792e+01     0.155191   0.09548859  27.44 0.0004768055    1.544    0.352
        42  -7.6978     83.2887    216.5525   9.4105044210e+01   2.0949853637e+01    0.2143611    0.1511511 -15.04  0.001215953    2.425    0.588
        43  -8.2321     54.8131    217.3011   1.0039330147e+02   2.4341099711e+01    0.2823195    0.1166384  28.53  0.001312918    2.209    0.547
        44  -8.5659    153.9271    214.7217   7.9329521725e+01   1.1467015004e+01    0.1726502    0.1445707   0.21 0.0003953358    1.245    0.197
        45  -7.3073    118.6882    220.3593   8.7008479371e+01   1.5565593130e+01    0.1198676   0.07750544  56.62 0.0007042495    1.743    0.426
        46 -11.6166     11.0452    208.2920   1.0967921935e+02   3.0603798998e+01    0.8982552    0.4488367  68.49  0.005404515    1.696    0.410
        47  -7.9040     84.3396    211.7865   9.3443839025e+01   2.1641863691e+01    0.2203838    0.1463488   9.19  0.001036138    2.176    0.540
        48  -6.8831     75.6873    212.6867   9.5436739093e+01   2.2609671011e+01    0.1089341   0.09006892   1.14 0.0007031905    1.635    0.388
        49  -7.3166     94.5576    211.5015   9.1174410552e+01   2.0319985523e+01    0.1238166   0.09571432  44.43 0.0002330322    1.044    0.042
        50  -9.2292     64.3748    208.4446   9.7625666401e+01   2.4809300083e+01    0.2387897    0.2210808  18.62  0.001723402    1.351    0.260
        51  -8.2861     47.1294    207.0262   1.0145444385e+02   2.7134395890e+01     0.285456    0.1898952   1.09  0.001549385    2.544    0.607
        52  -7.8381    158.9938    206.5459   7.7247300185e+01   1.1889866765e+01    0.1758421   0.09689168  33.75   4.7129e-05    1.488    0.328
        53  -7.3419     91.5151    204.5348   9.1137598074e+01   2.1959507119e+01    0.1264825   0.09901639  44.78 5.283943e-05    1.028    0.027
        54  -7.4771    118.2016    208.3907   8.5743463642e+01   1.7529491564e+01    0.1666768   0.09166072  42.40 0.0002545221    1.494    0.331
        55  -7.7669     97.4726    200.9625   8.9416534073e+01   2.1765893413e+01    0.1632594    0.1252184 -69.24  0.001027055    1.581    0.367
        56  -9.3511    109.4395    198.6071   8.6467962861e+01   2.0455807430e+01    0.2414951    0.1810374  48.03 0.0003922361    1.182    0.154
        57  -8.5889     48.4192    199.3468   1.0064681029e+02   2.8472476080e+01    0.2893204    0.1905601  26.07  0.001045468    1.553    0.356
        58  -8.5824    101.1344    198.8690   8.8355621631e+01   2.1617582554e+01    0.1845452    0.1659908  55.67 0.0004471245    1.139    0.122
        59  -7.8122     78.6308    198.1150   9.3438005078e+01   2.4902960518e+01    0.1654784    0.1469177  54.85 0.0003870457    1.120    0.107
        60  -8.2168     82.3156    197.0440   9.2472093462e+01   2.4604754718e+01    0.1936759    0.1520115  46.57 0.0003966209    1.025    0.024
        61  -8.0397     88.7100    197.1985   9.1004353040e+01   2.3689548848e+01    0.2313148    0.1556471   9.62  0.001216552    2.125    0.530
        62 -10.5642     18.9260    204.0614   1.0776137874e+02   3.0683680414e+01    0.3613743    0.2320047  32.05  0.001379409    1.415    0.294
        63  -9.2205     71.7465    191.6576   9.4440684782e+01   2.7076641270e+01    0.2165611    0.1902819  46.83 0.0003153826    1.116    0.104
        64  -8.6117     57.7824    193.1064   9.7939548051e+01   2.8585997729e+01    0.3422706    0.2076925 -42.84  0.001647028    2.505    0.601
        65  -8.4119      5.9512    188.2565   1.1027218000e+02   3.5045634293e+01       0.1707    0.1178845  45.05 0.0007505707    1.161    0.138
        66  -9.0757     10.9264    183.3526   1.0889577452e+02   3.5637213392e+01    0.2610735    0.1134169  52.72  0.001379902    1.727    0.421
        67 -10.3635     51.0015    178.6776   9.8424260320e+01   3.2412634878e+01     0.475783    0.4289138 -61.26  0.001823407    1.377    0.274
        68  -8.5313     36.2791    179.0891   1.0225178340e+02   3.4032658900e+01    0.2405777    0.2061858 -31.28  0.001012523    1.658    0.397
        69  -7.5310     80.8271    179.3751   9.0910520994e+01   2.8291441158e+01    0.1725645    0.1139698  28.53 0.0001790104    1.509    0.337
        70  -8.7583     43.1473    179.9153   1.0054441634e+02   3.3080769486e+01    0.3749261    0.1957592  24.85  0.001416249    2.018    0.505
        71  -7.5873     86.5412    178.4875   8.9383334296e+01   2.7641560748e+01    0.1307888    0.1150902  41.28 0.0001171794    1.100    0.091
        72  -8.6756     64.4353    176.9790   9.4804720554e+01   3.1060649538e+01    0.2403118    0.1412724  47.95 0.0002910822    1.419    0.295
        73  -7.1832     76.5379    176.4383   9.1651377930e+01   2.9510151713e+01     0.132217    0.1126869  48.58 7.671244e-05    1.044    0.042
        74  -7.0616      1.3356    175.2966   1.1104895438e+02   3.8167799416e+01    0.1045682   0.08895133 -44.67 0.0003885323    1.649    0.394
        75  -9.1298    175.3232    172.3742   6.8728034734e+01   1.4378645656e+01    0.2418472    0.2009733  14.06 0.0007359933    1.088    0.081
        76  -9.5779     57.6060    171.8905   9.6076521141e+01   3.3051941806e+01    0.3255063    0.2596076 -39.09 0.0006897685    1.703    0.413
        77  -9.5119     16.2696    170.9760   1.0701165240e+02   3.7833998499e+01    0.3134074    0.1983032  41.32  0.001277145    1.318    0.242
        78  -8.4594     23.6228    171.1547   1.0506966685e+02   3.7092912073e+01    0.1701724    0.1374088  73.88 0.0001347604    1.118    0.106
        79  -9.2493     28.9335    171.7626   1.0369345535e+02   3.6420455396e+01    0.3752426    0.2980065  89.20  0.002308075    1.249    0.200
        80  -7.4747     43.1011    168.8840   9.9681761706e+01   3.5500817454e+01    0.1529243    0.1484432  59.79 0.0003166654    1.253    0.202
        81  -7.6007    111.0487    168.5151   8.1986000486e+01   2.5811529231e+01    0.2068269    0.1194247  38.71 0.0005405975    1.515    0.340
        82  -8.2422     39.8465    166.7684   1.0039166715e+02   3.6351186667e+01    0.4454838     0.252239  -9.78  0.001635361    4.709    0.788
        83 -10.3009     11.3053    162.1035   1.0794141563e+02   4.0270266800e+01    0.5449084    0.2879458 -54.71  0.002777434    2.410    0.585
        84 -10.0916     26.2251    163.5402   1.0390093102e+02   3.8548062910e+01    0.3640646     0.251956 -84.55  0.001349554    1.411    0.291
        85  -8.5391     24.6565    156.3582   1.0386781364e+02   4.0363127747e+01    0.3202557     0.218511 -10.52  0.001663395    2.347    0.574
        86  -7.8620     96.4665    163.0011   8.4786562628e+01   2.9309316064e+01     0.186294    0.1145996  83.29 0.0004414466    2.453    0.592
        87  -8.9119     68.7426    162.7277   9.2086385993e+01   3.3570641722e+01    0.2275755    0.2096584  63.85 0.0004807331    1.105    0.095
        88  -9.2306     56.9414    159.1966   9.4935830901e+01   3.5976816714e+01    0.6038594    0.2681187  85.92  0.002221052    3.469    0.712
        89  -8.9859     53.2071    160.5256   9.6122754966e+01   3.6156651361e+01    0.3085667    0.2088984 -81.35 0.0007388071    1.512    0.339
        90  -8.4535     32.9802    162.3528   1.0194167020e+02   3.8116006137e+01    0.1926992    0.1625146 -81.47 0.0004201579    1.260    0.206
        91  -8.4170    163.9206    162.0247   6.9100127209e+01   1.7919206324e+01    0.1887756    0.1738724  16.78 0.0003483326    1.044    0.042
        92  -7.0776     36.2662    162.5892   1.0104406605e+02   3.7703201674e+01    0.1446626   0.07645712  63.12 0.0004433901    1.758    0.431
        93  -9.7617     76.6458    156.3234   8.9099463028e+01   3.3851124749e+01    0.4276088    0.3367481   4.42  0.001136987    1.742    0.426
        94  -7.4516    121.9865    157.0890   7.7471117307e+01   2.6202435448e+01    0.1549699    0.1500923  54.21  0.000286757    1.079    0.073
        95  -8.7399    107.1461    156.0781   8.0970597454e+01   2.8983114251e+01    0.2197738    0.1810135  42.10 0.0002930084    1.096    0.088
        96  -7.2592    117.4389    154.4350   7.8114388918e+01   2.7532436836e+01    0.1401206    0.1249847  50.24 6.646766e-05    1.041    0.039
        97  -7.4689      3.5308    154.5407   1.0980328596e+02   4.2639888278e+01    0.1266451   0.09858264  63.26 6.732238e-05    1.006    0.006
        98  -7.2851    128.2191    153.3772   7.5319352092e+01   2.5819657734e+01    0.1920239    0.1185359  49.26 0.0003145117    1.575    0.365
        99 -10.8683     68.5266    144.7315   8.9786575644e+01   3.7724307793e+01    0.7834676    0.4773031  70.39  0.002972587    1.870    0.465
       100  -7.6882     50.5613    150.8809   9.5847384864e+01   3.8734346707e+01    0.1960138    0.1267743 -75.27  0.001015004    1.563    0.360
       101  -9.0906     22.7373    149.0739   1.0392931580e+02   4.2269993887e+01    0.3499316    0.2332968 -38.15  0.001126011    2.151    0.535
       102  -9.7972     14.9113    150.4785   1.0633156985e+02   4.2655604846e+01    0.4458596    0.2373343  59.22   0.00232874    1.587    0.370
       103  -7.9168     54.5492    149.2807   9.4493434386e+01   3.8597828331e+01    0.1816929    0.1235258 -61.26 0.0009471117    1.584    0.369
       104  -9.1368    243.8068    145.9511   5.2680188956e+01   7.2027710290e+00    0.1817939    0.1199336 -46.09   0.00109745    1.995    0.499
       105  -7.4602     97.7291    142.7051   8.1156305139e+01   3.3478841832e+01    0.1326538    0.1135713 -11.61 0.0001936812    1.518    0.341
       106  -8.9086     80.9602    141.4501   8.5658938857e+01   3.6574578886e+01    0.2528647     0.208699 -73.89 0.0005246631    1.254    0.203
       107  -7.9439     15.5325    141.5448   1.0561264697e+02   4.4741414108e+01    0.2474013    0.1001266  81.15  0.001031411    2.492    0.599
       108  -8.8674     93.0548    142.9801   8.2490669682e+01   3.4221569287e+01    0.2280383    0.1800303  -8.91  0.001134809    1.827    0.453
       109  -7.6260     43.4953    139.5501   9.6720585696e+01   4.2334755027e+01    0.1383368    0.1195419  66.10 0.0001128503    1.016    0.016
       110  -7.7831      5.3837    138.2797   1.0857711903e+02   4.6350844207e+01    0.1208743   0.09167581 -41.82 0.0007005169    1.724    0.420
       111  -9.9361     29.3640    132.3434   1.0048375208e+02   4.5698452295e+01    0.2561458    0.2232819  62.66 0.0003384328    1.059    0.056
       112  -9.3303      9.7624    132.6523   1.0689276999e+02   4.7392421972e+01     0.372968    0.1792994  66.17  0.001270088    1.872    0.466
       113  -7.5126    104.5172    133.5363   7.7580324711e+01   3.4293824109e+01    0.1471549    0.1352838  58.27 3.842268e-05    1.006    0.005
       114  -8.0985     73.6257    131.3845   8.6172418579e+01   4.0123627530e+01     0.329505    0.2626847  -3.21  0.001281856    1.788    0.441
       115  -9.2924    247.7112    131.3489   4.9337528859e+01   8.3486034536e+00    0.3031313    0.1472937  51.71  0.001630294    2.582    0.613
       116  -7.1501     67.2915    129.6591   8.7855587347e+01   4.1524063402e+01    0.1537115    0.1008397  68.61 0.0007026072    1.650    0.394
       117  -7.2524     19.6866    126.6948   1.0319169251e+02   4.8046706459e+01     0.128133   0.09683286 -45.69 0.0004532905    1.619    0.382
       118  -8.0261     65.8483    124.5197   8.7455032810e+01   4.3004517389e+01    0.2090443    0.1368202  37.24 0.0005219946    1.481    0.325
       119  -7.8510     21.9737    121.7888   1.0197414760e+02   4.9080296002e+01    0.1817127    0.1574117  56.47 0.0003575022    1.100    0.091
       120  -7.2515     57.8547    121.4063   8.9567133275e+01   4.4958750603e+01    0.1829402     0.139478  18.01 0.0004369183    1.601    0.375
       121  -7.5701      5.6489    118.2212   1.0741857101e+02   5.1296219580e+01    0.1854179    0.1031724 -73.58 0.0009392615    1.654    0.396
       122  -7.4984     37.0289    117.4496   9.6182394690e+01   4.8642742822e+01    0.1925583    0.1354629  28.55 0.0004657531    1.505    0.336
       123  -8.0047     33.3308    115.9403   9.7309868837e+01   4.9441236542e+01    0.1920414    0.1622264 -89.89 0.0004193473    1.082    0.075
       124  -7.3929     14.7032    115.6932   1.0400973218e+02   5.1263450329e+01    0.1293729   0.09450027 -48.96 0.0002700427    1.588    0.370
       125  -8.7651    246.5103    114.5125   4.6076485586e+01   1.0551404658e+01    0.1194836   0.09756994 -20.56 0.0001129253    1.024    0.023
       126  -7.4307     52.4390    114.7775   9.0327905223e+01   4.7392842973e+01    0.2847345     0.126549  15.79 0.0008589556    4.510    0.778
       127  -7.7702     45.5672    110.0538   9.2012723926e+01   4.9513983575e+01    0.2126107    0.1331347 -75.20 0.0006130251    1.548    0.354
       128  -8.4844     21.0388    109.5162   1.0108553785e+02   5.2315842866e+01    0.4066477    0.1502162  35.05  0.001681153    2.409    0.585
       129  -7.3079      8.6879    110.6832   1.0581360082e+02   5.3001254189e+01     0.131245   0.09147727 -49.33 0.0003586654    1.642    0.391
       130  -7.7172     13.6414    107.1777   1.0365913374e+02   5.3536768057e+01    0.1912893     0.107135 -69.81 0.0003806719    1.636    0.389
       131  -7.9967    248.6712    106.5539   4.4160180007e+01   1.1164523867e+01    0.2212371   0.08482505  38.88 0.0009552689    3.507    0.715
       132  -7.8822      9.0116    106.4818   1.0536801723e+02   5.4057427823e+01    0.2937507    0.1237339  -3.55  0.001031165    4.434    0.774
       133  -9.8116     77.4785    104.5772   7.9615790739e+01   4.6010412496e+01    0.2639252    0.2454973  65.11 0.0002779726    1.039    0.037
       134  -8.0829     39.0033    100.0694   9.2845401437e+01   5.2912050840e+01    0.2149516    0.1877061  77.62  0.001216515    1.046    0.044
       135  -8.5988     63.0493     98.7887   8.3393295352e+01   4.9884255529e+01     0.239703    0.2013059 -74.51 0.0003393292    1.151    0.131
       136  -7.3465     17.2891     98.3240   1.0131733957e+02   5.5547849382e+01    0.1365552   0.09388086 -48.34 0.0003816714    1.608    0.378
       137  -8.0873      8.8826     94.9510   1.0442370469e+02   5.7051834234e+01    0.2693282     0.137036 -80.56  0.000989033    1.734    0.423
       138  -8.1152      3.5372     94.5093   1.0660364839e+02   5.7500033450e+01    0.1330891    0.1123608  81.65 0.0001039017    1.011    0.011
       139  -8.1762     56.1168     92.0191   8.4496107239e+01   5.2678586141e+01    0.2194044    0.1970527  82.78 0.0002921301    1.049    0.047
       140  -7.3467     41.9890     92.0505   9.0179629615e+01   5.4632828049e+01    0.1704856    0.1547124  86.86 0.0009623813    1.002    0.002
       141  -7.9049     20.6634     82.2956   9.7707966058e+01   5.9463138892e+01    0.1465518   0.09159741  60.54 0.0002678543    1.650    0.394
       142  -8.1310      1.5032     73.5238   1.0567972541e+02   6.3046923836e+01    0.1315699    0.1135777 -80.88  0.000809889    1.039    0.038
       143  -8.3860      6.5078     68.4303   1.0256438650e+02   6.4103805731e+01    0.1317805    0.1163324 -85.13 0.0001584281    1.011    0.011
       144  -7.4532     52.8925     63.7876   7.8144246907e+01   6.0225000263e+01    0.1967625    0.1651531  78.86 0.0004228371    1.290    0.225
       145  -6.9728    112.7292     62.6905   5.6019033755e+01   4.7812150474e+01    0.1495998    0.1253971  10.29 0.0002089118    1.545    0.353
       146  -8.9027     12.0365     61.6560   9.8552256418e+01   6.5507028459e+01    0.2432512    0.1724218 -65.99 0.0003644732    1.252    0.201
       147  -7.4409    144.0416     59.7209   4.7644670265e+01   4.0398831093e+01    0.2064797    0.1918637  86.27 0.0002030723    1.053    0.050
       148  -8.4529    217.9812     53.7246   3.5264341149e+01   2.3515169892e+01    0.1755484    0.1591934 -53.24 0.0003988945    1.078    0.072
       149  -9.9879    212.1001     43.5827   3.3215073182e+01   2.6037472217e+01    0.3747802    0.2212795  -7.32  0.001707886    2.315    0.568
       150  -7.2273    120.3062    249.3093   8.9598499045e+01   1.1216901960e+01    0.1035231   0.07234298  11.72 0.0002049332    1.613    0.380
       151  -7.2966     18.4436     42.4429   9.0058078444e+01   6.9838250948e+01     0.132142     0.121127 -65.00 4.792271e-06    1.023    0.022
       152  -8.8951     14.2167     25.9764   8.7091128823e+01   7.4120719891e+01    0.2003702    0.1832471  11.45 0.0003228142    1.175    0.149
       153  -9.4043    194.9680    245.5278   7.6008516801e+01   2.4840662970e+00    0.1933082     0.135411  23.57 0.0003520856    1.097    0.088
       154  -7.4086     43.8074     22.3941   6.4576163667e+01   7.0767359185e+01    0.1836733    0.1277936  31.10 0.0004143647    1.554    0.357
