#   1 NUMBER                 Running object number                                     
#   2 MAG_AUTO               Kron-like elliptical aperture magnitude                    [mag]
#   3 X_IMAGE                Object position along x                                    [pixel]
#   4 Y_IMAGE                Object position along y                                    [pixel]
#   5 X_WORLD                Barycenter position along world x axis                     [deg]
#   6 Y_WORLD                Barycenter position along world y axis                     [deg]
#   7 A_WORLD                Profile RMS along major axis (world units)                 [deg]
#   8 B_WORLD                Profile RMS along minor axis (world units)                 [deg]
#   9 THETA_WORLD            Position angle (CCW/world-x)                               [deg]
#  10 FWHM_WORLD             FWHM assuming a gaussian core                              [deg]
#  11 ELONGATION             A_IMAGE/B_IMAGE                                           
#  12 ELLIPTICITY            1 - B_IMAGE/A_IMAGE                                       
         1  -9.5454    189.7894     14.2067   6.3110392052e+01   3.5769212283e+01    0.3382525    0.1807964 -87.00  0.001544707    2.154    0.536
         2  -8.4966     55.8240     10.1213   9.1212652677e+01   6.5177961714e+01    0.1612965    0.1435937   4.42 0.0006514982    1.301    0.231
         3  -8.0152     47.5211      9.9996   9.4287877557e+01   6.6410988482e+01    0.1382467   0.09395982 -46.32 0.0008090112    2.471    0.595
         4  -8.2043     27.9814     10.2184   1.0252359471e+02   6.8842453071e+01    0.1393035    0.1095337 -32.88 0.0004974415    1.597    0.374
         5  -8.1327     90.9712      9.4723   7.9861081552e+01   5.9040118534e+01     0.154225    0.1077693  80.59 0.0007259477    2.372    0.578
         6  -8.9801      5.7702      8.5751   1.1225270188e+02   7.1113670761e+01    0.1273532   0.08616943  20.82   0.00094679    1.630    0.387
         7 -10.6112    246.6956      4.6156   5.5513267395e+01   2.3682891930e+01    0.5002224     0.229993  65.05  0.002211308    2.052    0.513
         8  -8.3673     33.6895      5.6769   9.8014810504e+01   6.8705358102e+01    0.1881612    0.1192006 -43.52  0.001145461    2.466    0.595
         9  -8.5102     78.9129      3.6063   8.0949051791e+01   6.1861627329e+01    0.2147309    0.1416242 -39.10  0.001069889    2.032    0.508
        10  -7.5768     44.6936      3.3129   9.2437252271e+01   6.7504305920e+01   0.09288704   0.08805586  -6.99 0.0004807154    1.621    0.383
        11  -7.9488     15.7102      3.3148   1.0509785273e+02   7.0936140707e+01   0.08778147   0.07757197 -11.95 0.0002946038    1.591    0.371
        12  -7.4723    101.3003      7.7183   7.6567647816e+01   5.7094407638e+01    0.1105157   0.09620122 -86.49  0.000392506    1.547    0.354
        13  -8.3871     62.1960      1.5858   8.5323518504e+01   6.4976541712e+01    0.1602046    0.1268948  42.40 0.0004238534    1.359    0.264
        14  -7.6537     39.3041      1.6361   9.3829684584e+01   6.8411090754e+01   0.09345445   0.08623701 -25.89 0.0007037005    1.735    0.424
        15  -7.8511     76.5641    247.4949   1.3811961148e+02   1.3688592370e+01      0.12317   0.09623561  67.09 1.556568e-05    1.014    0.013
        16  -8.2550     93.9044    249.5754   1.3507706858e+02   1.0665936909e+01    0.2367372    0.1248929  69.96 0.0009923845    2.246    0.555
        17  -9.4067     65.4400    249.5146   1.4033871986e+02   1.4904267213e+01    0.2796144    0.1571162  61.41   0.00114447    1.488    0.328
        18  -8.5916     28.3266    250.6627   1.4684899114e+02   1.9475304821e+01    0.2988047    0.0775088  40.78  0.001280058    3.217    0.689
        19  -8.9464    120.0236    245.3480   1.2953932984e+02   7.2031423677e+00    0.2951812    0.1857674  83.09  0.001262098    2.168    0.539
        20  -9.5067     52.7169    249.6509   1.4261621711e+02   1.6615699554e+01    0.2187464     0.164708  72.47 0.0006585161    1.029    0.028
        21  -8.5503     45.8688    244.8164   1.4344471989e+02   1.8435359499e+01    0.1673168     0.102357  66.90  0.000553054    1.311    0.237
        22  -9.5663    248.5760    242.2991   1.0403955501e+02  -1.3701053516e+01    0.2582389    0.2044528 -30.43  0.001002623    1.461    0.316
        23  -8.5166    201.9285    243.2667   1.1296155563e+02  -6.5798607794e+00    0.2006603    0.1793582 -85.96 0.0009574648    1.682    0.405
        24  -8.5258    169.0064    243.4949   1.1950446279e+02  -9.6736639361e-01    0.2173859     0.183571 -84.47 0.0006622763    1.582    0.368
        25  -9.4116    160.2659    241.3454   1.2093685000e+02   9.2823250572e-01    0.4490408    0.2745513 -56.91  0.001779244    2.076    0.518
        26  -7.9346    139.5122    244.5236   1.2555893759e+02   4.0163372798e+00    0.1342765    0.1084143  54.14 0.0003251317    1.088    0.081
        27  -8.1071     77.7604    243.1868   1.3747985888e+02   1.4338528327e+01     0.219723    0.1003061  68.28 0.0009494924    2.763    0.638
        28  -9.4153    182.7766    240.4375   1.1627876270e+02  -2.8763280814e+00    0.4289067    0.3016429  48.42  0.001644414    1.384    0.278
        29  -7.9333     88.3494    242.1435   1.3535520799e+02   1.2936663196e+01    0.1685763    0.1056632 -85.44 0.0004849919    1.738    0.425
        30  -9.2808     29.9215    241.9709   1.4600815076e+02   2.0947306526e+01     0.220881    0.1290169  52.46 0.0005940353    1.436    0.304
        31  -9.4256      3.3760    240.7040   1.5033061401e+02   2.4084938985e+01    0.2231699    0.1311302  78.53  0.000636687    1.248    0.199
        32  -7.8011    214.2983    241.6654   1.1030598934e+02  -8.3791182904e+00    0.1137152   0.09990705  64.76 0.0007031846    1.651    0.394
        33  -7.9383     61.9992    241.5183   1.4026431340e+02   1.6925597655e+01    0.1754923   0.07127891  58.58  0.000512653    2.333    0.571
        34  -8.2458     37.5117    241.4476   1.4465822981e+02   2.0137663665e+01    0.1172506   0.08559775  72.98 7.003284e-05    1.010    0.010
        35  -8.9247    243.1745    236.2000   1.0395108048e+02  -1.2109510936e+01    0.3100803    0.1684831   3.72   0.00143813    2.624    0.619
        36  -8.3575    194.1128    239.8305   1.1393069506e+02  -4.7380380845e+00    0.1863182    0.1593895  45.04 0.0004127765    1.233    0.189
        37  -8.2523    146.4282    239.9167   1.2352596006e+02   3.6204204751e+00    0.1697699    0.1127779 -89.07  0.000804669    2.421    0.587
        38  -8.5632     53.0975    239.2375   1.4169994748e+02   1.8582402122e+01      0.22746    0.1170196  74.92 0.0006661249    1.964    0.491
        39  -8.6622    135.8582    238.9604   1.2553489216e+02   5.6504965227e+00    0.2174136    0.1421882  65.67  0.001057818    1.738    0.425
        40  -8.4674    125.7930    239.6295   1.2766005846e+02   7.2741720850e+00     0.193111    0.1021655  49.73 0.0004595657    1.629    0.386
        41  -9.2532     19.3226    238.5517   1.4758502378e+02   2.2819624773e+01     0.206788    0.1463649  79.79 0.0005241348    1.046    0.044
        42  -9.1473    231.0131    237.1191   1.0635921982e+02  -1.0388093659e+01     0.262637    0.2127381 -85.14  0.001215289    2.684    0.627
        43  -8.1596    209.1539    238.2526   1.1072236833e+02  -7.0353743232e+00    0.1575935    0.1490556  49.61 0.0005192432    1.356    0.263
        44  -9.3483    246.3939    229.4721   1.0216594545e+02  -1.1668890947e+01    0.3487605    0.2526205 -51.31  0.001672918    2.124    0.529
        45  -8.9818    247.6553    235.3013   1.0297885069e+02  -1.2648524221e+01    0.2727183    0.2368676 -74.83  0.001286445    2.249    0.555
        46 -10.5024    250.6341    232.7886   1.0199544906e+02  -1.2745330156e+01    0.2037458    0.1229645 -27.53 0.0002529947    1.600    0.375
        47  -9.9465    214.5138    232.7923   1.0874593789e+02  -7.1077257627e+00    0.5444272    0.3872748 -80.97  0.002348824    3.915    0.745
        48  -8.9903    203.2005    234.7083   1.1128431483e+02  -5.4966448452e+00    0.3078313      0.22241 -67.88  0.001341599    2.459    0.593
        49  -9.5985    175.7398    233.4540   1.1657605304e+02  -4.8531417352e-01    0.4645514    0.2437907 -57.78  0.002044148    2.818    0.645
        50  -8.0538     57.9680    237.0000   1.4060954509e+02   1.8371918794e+01    0.1888066   0.06000749  39.39 0.0005287909    2.920    0.658
        51  -7.9927    170.2672    235.6595   1.1804077527e+02   1.1881184635e-01    0.1264541     0.100893  72.13   0.00028595    1.600    0.375
        52  -9.5716    108.4364    234.4184   1.3049982938e+02   1.1209781946e+01    0.2940927    0.2011563  76.41  0.000782265    1.584    0.369
        53  -8.4109     95.0828    235.0116   1.3325049076e+02   1.3272140519e+01     0.244341    0.1585076  77.25   0.00114386    1.641    0.390
        54  -7.7325     92.2678    231.6432   1.3342488413e+02   1.4390784955e+01    0.1344864   0.08545884  73.35 0.0006991827    1.636    0.389
        55  -8.5429     78.8790    234.6186   1.3639846908e+02   1.5858567938e+01    0.2416119    0.1424298  83.57 0.0009377433    1.865    0.464
        56  -8.2170     83.8965    238.8821   1.3587074769e+02   1.4254879793e+01    0.1771449    0.1546429  56.29 0.0004857113    1.216    0.178
        57  -7.8865     99.4831    234.4702   1.3230871818e+02   1.2671432942e+01    0.1354682    0.1047223  65.24 8.491096e-05    1.111    0.100
        58  -9.2468     68.6269    232.7351   1.3819351336e+02   1.7740550592e+01      0.41899    0.1861261  68.93  0.001766889    2.929    0.659
        59  -9.0252     53.8462    234.3645   1.4114410189e+02   1.9454288071e+01    0.1716783    0.1208552  79.74  0.001098835    1.180    0.153
        60  -9.3518    235.6772    231.0672   1.0442157078e+02  -1.0260055359e+01    0.3629858    0.2153689  -0.12  0.001298689    2.149    0.535
        61  -8.5746    194.4276    232.6978   1.1268231500e+02  -3.6674794235e+00    0.2105198    0.1305949 -46.46 0.0007190615    1.920    0.479
        62  -8.6579    140.1211    230.2229   1.2341773107e+02   6.5132697715e+00    0.3376634    0.1743868  57.32   0.00146265    2.202    0.546
        63  -8.9228    186.7003    231.0690   1.1396072367e+02  -2.0410727402e+00    0.3401436    0.2414041 -87.15  0.001566118    2.874    0.652
        64  -8.3098      1.8036    231.0017   1.5006219852e+02   2.6113573818e+01    0.1854736   0.08054493  74.73 0.0007003642    1.993    0.498
        65  -9.8041    149.2685    226.4995   1.2094630666e+02   5.5558822015e+00    0.6119018    0.4318572  78.75  0.003056224    1.962    0.490
        66  -8.5841     32.8322    230.1655   1.4465119260e+02   2.2942582127e+01    0.1790615    0.1395397  53.10 0.0003703283    1.326    0.246
        67  -9.7800     62.1569    228.3813   1.3901784467e+02   1.9541550843e+01    0.3753131    0.1697763  49.51  0.001446103    1.890    0.471
        68  -9.3666     49.1289    227.8435   1.4145713122e+02   2.1399800377e+01    0.3174717    0.2466795  56.59  0.001534062    1.217    0.178
        69  -8.7877    162.1070    228.0049   1.1850292306e+02   2.9327229447e+00    0.2581758    0.2033887  67.41   0.00112529    1.478    0.323
        70  -8.7743    128.0155    227.4766   1.2554569092e+02   9.1976847290e+00    0.2791966    0.1909416  78.70  0.001167416    1.835    0.455
        71  -8.8225     94.3521    225.1884   1.3223749649e+02   1.5369591811e+01    0.4858687    0.2422487 -89.42  0.001846285    3.553    0.719
        72  -8.5823    206.0109    226.2895   1.0927086301e+02  -4.6576247884e+00    0.2119444    0.1906801 -80.56 0.0008741637    1.605    0.377
        73  -8.3514      5.9944    226.0255   1.4907442178e+02   2.6685225449e+01    0.1684915    0.1194173  77.41 0.0004678224    1.024    0.024
        74  -8.7751    180.7638    224.4656   1.1405632912e+02   1.4764461952e-01     0.232073    0.1835681 -73.93 0.0009233052    1.800    0.444
        75  -8.3011     74.6375    225.1791   1.3623621087e+02   1.8415664471e+01    0.1607198    0.1096599 -62.96 0.0003100696    1.565    0.361
        76  -8.0782     11.6479    225.6959   1.4808384169e+02   2.6181618687e+01   0.09801596   0.07915685 -59.14 0.0007040687    1.706    0.414
        77  -8.9302    216.5327    222.9575   1.0660841290e+02  -5.9368582733e+00    0.2786415    0.1270758 -42.13 0.0009571628    2.418    0.586
        78  -8.7127    173.0367    223.0598   1.1541751933e+02   1.8128288739e+00    0.2664302    0.1873198 -78.06 0.0009201493    2.354    0.575
        79  -8.6984    105.0001    223.8979   1.2987014414e+02   1.3886176213e+01    0.2902121    0.1675578  72.52  0.001320228    2.207    0.547
        80  -9.1578    225.3311    222.0118   1.0473788837e+02  -7.2663397298e+00    0.2164428    0.1869008 -13.54  0.000733209    1.148    0.129
        81  -9.2190    192.5730    221.5889   1.1113922418e+02  -1.5040367039e+00    0.3173759     0.254859  80.74  0.001086772    1.892    0.471
        82  -7.9172    140.4796    222.9636   1.2225563968e+02   7.8341126973e+00    0.1798089    0.1184273 -88.99 0.0008066911    2.343    0.573
        83  -9.0275    238.9762    221.6382   1.0209973579e+02  -9.4150600376e+00    0.2155361    0.1731402 -43.81  0.000605686    1.574    0.365
        84  -9.3471    159.6127    220.8498   1.1786603975e+02   4.7056685066e+00    0.3892393     0.227337  61.87  0.001383167    2.311    0.567
        85  -8.4350     19.1582    221.6431   1.4648968508e+02   2.6217738136e+01    0.1779709    0.1030492  61.60 0.0006398707    1.437    0.304
        86  -8.3541     82.7670    220.6659   1.3408152504e+02   1.8134401260e+01     0.245444    0.1429327  79.45  0.001008854    2.003    0.501
        87  -8.2619     73.0036    220.7943   1.3608977538e+02   1.9574467001e+01    0.2215069    0.1151597  64.23 0.0008656027    1.991    0.498
        88  -8.1437    202.5538    220.0567   1.0884867264e+02  -3.0374734997e+00    0.1857736    0.1319707 -38.02 0.0005495061    1.529    0.346
        89  -9.0587    132.2548    215.4771   1.2286787559e+02   1.0822220488e+01     0.417281    0.2633499 -82.86  0.001836219    2.361    0.576
        90  -8.9098    120.1038    219.2359   1.2604200787e+02   1.2240894973e+01    0.3982727    0.2146787  65.03  0.001621041    2.449    0.592
        91  -8.3473    210.0223    219.0589   1.0717910390e+02  -4.1918416806e+00    0.1872151    0.1667306  85.10 0.0004573565    1.637    0.389
        92  -8.9535     54.8910    221.8993   1.3980760516e+02   2.1877932735e+01    0.2037271    0.1569069  56.59 0.0007469931    1.199    0.166
        93  -7.9686     98.7976    219.5544   1.3060782924e+02   1.5814602483e+01    0.1840754     0.109009  53.45 0.0004822132    1.515    0.340
        94  -8.1028      1.4896    219.5129   1.4945824998e+02   2.8427074253e+01    0.1123616   0.07878542  80.40 0.0001254302    1.014    0.014
        95  -8.4892    249.4900    218.5053   9.9597971214e+01  -1.0586914399e+01    0.2095312      0.11318  47.37  0.001027915    2.345    0.574
        96  -8.1212    108.3225    217.6231   1.2833202341e+02   1.4620586431e+01    0.2132897     0.139509  69.77 0.0006968962    1.663    0.399
        97  -8.8727     51.5703    217.5627   1.4004500811e+02   2.3232357698e+01    0.2818165    0.1560791  83.91  0.001004717    1.829    0.453
        98  -8.6383    169.1582    216.3831   1.1509430758e+02   3.7517704828e+00    0.2502807    0.1851433 -72.22 0.0007202386    1.877    0.467
        99  -8.4619    142.6437    216.4863   1.2078233068e+02   8.7048395428e+00    0.2250899    0.1655122 -84.74 0.0007938064    1.766    0.434
       100  -8.3419     61.7459    217.1517   1.3797661478e+02   2.1953005776e+01    0.2080877    0.1323635  80.76 0.0007929547    1.499    0.333
       101  -9.8961     34.1763    215.0998   1.4320243969e+02   2.5904458707e+01    0.3600048    0.2444818 -84.28   0.00161163    1.237    0.191
       102  -9.0935     32.3348    210.6433   1.4317957230e+02   2.7066488180e+01    0.2582111    0.1224683  79.83 0.0009750146    2.248    0.555
       103  -8.6363     12.8140    216.0537   1.4724364658e+02   2.8028221226e+01    0.1783663    0.1357434  64.08 0.0005477814    1.208    0.172
       104  -8.5098    232.1812    214.4804   1.0204004517e+02  -7.2405863504e+00     0.228406    0.1735327 -27.12 0.0007036812    1.297    0.229
       105  -8.7328    154.4163    215.2688   1.1805014786e+02   6.7409144699e+00    0.1785372    0.1369332 -68.77 0.0005138746    1.584    0.369
       106  -8.3564     87.1470    215.2514   1.3251846836e+02   1.8602720799e+01    0.1907556    0.1327789  67.53 0.0004874107    1.344    0.256
       107  -8.3046    185.6107    214.3895   1.1128991019e+02   1.0293924579e+00    0.1944663    0.1609152  70.35 0.0005852354    1.549    0.354
       108  -8.6262     93.1832    214.1273   1.3109647883e+02   1.7880048961e+01    0.2733329    0.1444206  62.52  0.001220663    2.093    0.522
       109  -9.8855     72.0927    212.0335   1.3529501773e+02   2.1584312297e+01    0.6914315    0.2822496  52.36  0.003006176    2.332    0.571
       110  -9.3892    213.9315    212.1569   1.0512953421e+02  -3.7472509925e+00    0.3072683    0.2628074  74.10  0.001305158    1.707    0.414
       111  -8.9071    161.9207    212.5159   1.1597124537e+02   5.8519985188e+00    0.2462195    0.2011659 -79.46 0.0008191155    1.538    0.350
       112  -7.6512    224.5145    212.5276   1.0313483183e+02  -5.6462684245e+00    0.1317049     0.118155  11.92 0.0001163767    1.080    0.074
       113  -9.3207    175.6263    210.3174   1.1265591521e+02   3.6575552776e+00    0.4023749    0.2777137  89.16  0.001529394    2.740    0.635
       114  -8.9891    147.7242    210.8230   1.1875703609e+02   8.8802323393e+00    0.2841383    0.2426063 -49.99  0.000997136    1.300    0.231
       115  -7.7036    106.3348    212.6765   1.2807460618e+02   1.6002424385e+01    0.1475338   0.09553042  70.30 0.0006123924    1.711    0.416
       116  -8.0504      4.0090    212.2397   1.4856960983e+02   2.9674073606e+01    0.1494461    0.1118693  77.26 0.0004255729    1.079    0.073
       117  -8.7930    204.4099    210.8673   1.0678917481e+02  -1.8224584129e+00    0.2349677    0.2124108  73.45  0.000685036    1.453    0.312
       118  -8.7110    116.1092    210.5657   1.2564112385e+02   1.4751028044e+01    0.2869674     0.195723  79.80  0.000799285    1.766    0.434
       119  -8.8760    236.7159    208.7561   1.0010409564e+02  -7.0995073154e+00    0.2972695    0.2305056 -66.84  0.001259489    2.236    0.553
       120  -8.1459    192.3812    210.2694   1.0913538451e+02   5.0071827334e-01    0.1801457    0.1340673 -52.56 0.0005221494    1.607    0.378
       121  -8.4536     98.7933    210.5538   1.2941605502e+02   1.7728388870e+01    0.2019759    0.1103727  52.88 0.0009405763    1.706    0.414
       122  -8.3447     85.7429    210.1310   1.3217512247e+02   1.9929397089e+01    0.2437315    0.1225606  71.42 0.0009553084    2.884    0.653
       123  -9.0694    137.7352    208.4845   1.2055967271e+02   1.1237796955e+01     0.419797    0.2255929  33.78  0.001794462    1.992    0.498
       124  -9.2366     25.8556    208.1817   1.4422515805e+02   2.8316831753e+01    0.3162445     0.203807 -78.47  0.001240373    1.310    0.237
       125  -9.1668    246.3040    207.3996   9.8078788157e+01  -8.4449934311e+00    0.2233615    0.1935412 -19.08 0.0005641835    1.158    0.136
       126  -8.0732    126.3937    208.2952   1.2303168143e+02   1.3379049553e+01    0.1860492    0.1336674 -73.32 0.0007386828    1.588    0.370
       127  -9.1864     99.2808    206.0696   1.2868936904e+02   1.8622034331e+01    0.3978689    0.2415137  86.50  0.001294535    2.159    0.537
       128  -9.3662     79.6247    206.3508   1.3301387713e+02   2.1704957016e+01     0.339617     0.191167  48.66  0.001313134    1.623    0.384
       129  -7.8157     51.4840    206.4911   1.3896497746e+02   2.5637291088e+01     0.129692    0.1012945  78.47 4.116831e-05    1.049    0.047
       130  -9.4411     12.6581    204.0197   1.4641722154e+02   3.0568390154e+01    0.3037227    0.1828793  84.42   0.00129082    1.343    0.255
       131  -8.0034    205.2972    205.3275   1.0556354168e+02  -1.0268747020e+00    0.1424429    0.1031049   2.70 0.0004376969    1.633    0.388
       132  -9.1579    183.5961    203.9070   1.0978973627e+02   3.3301351716e+00    0.3355366    0.2519301  69.59 0.0009341998    1.814    0.449
       133  -8.6614    178.7529    204.0981   1.1085463983e+02   4.2288213239e+00    0.3342387    0.1774989  47.33 0.0008573623    1.829    0.453
       134  -8.6872    131.2014    204.2337   1.2131310233e+02   1.3347977534e+01    0.3167391    0.1989833  66.65   0.00138389    1.969    0.492
       135  -8.1084    109.0278    205.2789   1.2641930792e+02   1.7130149452e+01    0.2033378    0.1423588  86.79 0.0007135847    1.647    0.393
       136  -8.5567     56.0527    205.0516   1.3786753785e+02   2.5355917325e+01    0.2114649    0.1259946  74.12 0.0008405148    1.678    0.404
       137  -9.2870    194.9393    203.7607   1.0738608661e+02   1.1891409053e+00    0.3343608    0.2821441 -21.26  0.001232351    1.239    0.193
       138  -9.6084    192.4601    197.3283   1.0666597696e+02   2.8478460295e+00    0.4517822    0.3283401 -74.19  0.001367079    2.202    0.546
       139  -9.6302    163.8672    203.1599   1.1389650492e+02   7.3037627976e+00    0.4523794    0.2755389  60.32  0.001234679    2.060    0.514
       140  -8.1945    122.1595    203.9348   1.2328554303e+02   1.5079673879e+01    0.1756993    0.1694437  -3.83 0.0003766373    1.263    0.208
       141  -9.3720    250.0996    202.0990   9.6372889295e+01  -8.2376723876e+00     0.358016     0.174548 -35.63  0.001285682    1.942    0.485
       142  -8.2891    211.1033    202.2602   1.0380546011e+02  -1.5610452442e+00    0.2417185    0.1835553 -69.74  0.000779238    2.086    0.521
       143  -9.1085    243.0501    200.9125   9.7418552612e+01  -6.9120406334e+00    0.2946633    0.1799164 -40.06 0.0008971752    1.673    0.402
       144  -8.7706    140.5173    201.3080   1.1873891026e+02   1.2204471941e+01    0.3148836    0.2153252  79.89  0.001142675    2.054    0.513
       145  -8.4048     80.0564    201.5426   1.3230751645e+02   2.2708419947e+01    0.2805255    0.1393172  76.82  0.001023501    3.369    0.703
       146  -9.3603    149.7234    198.8869   1.1625372836e+02   1.0931451038e+01     0.441856    0.2934324  80.18  0.001412064    2.390    0.582
       147  -8.9108    123.8405    199.2170   1.2214786147e+02   1.5791544416e+01    0.2950525    0.1984978 -78.45 0.0008362196    1.839    0.456
       148  -9.1084    112.6956    198.4677   1.2455683501e+02   1.7978691842e+01    0.4020689    0.2454692  75.22   0.00166779    2.254    0.556
       149  -7.8660     29.6780    200.7232   1.4283834626e+02   2.9513460615e+01    0.1069874   0.08761517 -53.07  0.000276148    1.580    0.367
       150  -8.7563    236.9535    198.4906   9.8070209323e+01  -5.5047705275e+00      0.25096    0.1772489 -47.65  0.001239954    1.682    0.405
       151  -8.3218    177.1587    199.1627   1.1027151820e+02   5.4860697972e+00     0.192794    0.1717441  81.92  0.000477624    1.343    0.255
       152  -8.8115    105.5141    199.0185   1.2626957724e+02   1.9117821532e+01    0.2468346    0.1742311  58.71 0.0004395457    1.350    0.259
       153  -8.9706     88.6938    198.5336   1.2998775962e+02   2.2032053805e+01    0.3486887    0.2159735  82.56  0.001549132    1.948    0.487
       154  -8.4459    202.0716    198.0048   1.0480577821e+02   8.7906315396e-01    0.2106406    0.1777929  83.40 0.0006325993    1.674    0.403
       155  -9.5388     61.6296    197.3268   1.3581052497e+02   2.6330541975e+01    0.3917468    0.1928126  68.95  0.001675241    2.558    0.609
       156  -9.8486     53.0710    197.2795   1.3764910197e+02   2.7480870513e+01    0.2738623    0.2352885 -84.27  0.001782951    1.135    0.119
       157  -8.6309    215.8823    195.7744   1.0158298497e+02  -1.3100214235e+00    0.2410799    0.1808756 -66.15 0.0006634891    2.023    0.506
       158  -8.0826    132.9924    196.0309   1.1953174145e+02   1.4766784310e+01    0.2277359     0.168745  77.73 0.0005676995    1.610    0.379
       159  -9.0971    245.8347    193.8931   9.5532822573e+01  -6.2553806393e+00    0.3030324    0.2368772  79.90  0.001557948    2.439    0.590
       160  -8.8731    185.0876    194.8823   1.0774906720e+02   4.7528255785e+00    0.2373521    0.2088599 -44.51 0.0006289117    1.225    0.183
       161  -8.8123    161.0120    194.5319   1.1293612020e+02   9.6059828873e+00    0.2948842    0.2262104  87.48  0.001055671    1.763    0.433
       162  -9.1024     43.8903    193.6203   1.3921173147e+02   2.9453668106e+01    0.3981265    0.1908419  77.40   0.00173526    2.643    0.622
       163  -8.6905     76.9780    193.8624   1.3198074658e+02   2.4913363201e+01    0.2349926    0.1763966 -81.41  0.000647624    1.248    0.199
       164  -8.4478      6.1526    194.1779   1.4693010797e+02   3.3285868981e+01    0.1641557    0.1307653 -83.49 0.0005185066    1.169    0.144
       165  -8.1152    238.3683    193.2750   9.6775776249e+01  -4.8943085192e+00    0.1398323   0.09593754   6.86 0.0004027867    1.676    0.404
       166  -8.7925    224.4944    194.3538   9.9615742862e+01  -2.6341013416e+00    0.3004213    0.2117984 -53.21  0.001176346    1.802    0.445
       167  -8.5178    198.8601    191.8593   1.0425416955e+02   2.6259220938e+00    0.2481625     0.194265 -45.16 0.0006017648    1.372    0.271
       168  -8.4737    172.3024    191.7047   1.0989938903e+02   7.9232200199e+00    0.2553592    0.1801754 -59.58 0.0007117658    1.694    0.410
       169  -9.1119    139.4221    190.7464   1.1712607796e+02   1.4673450854e+01    0.3697979    0.2470955  74.46  0.001087775    2.068    0.516
       170  -8.0201    117.9593    192.0527   1.2231169814e+02   1.8455299988e+01    0.1761293    0.1596553  67.71 0.0004882364    1.006    0.006
       171 -10.5179     92.3543    189.0424   1.2777829609e+02   2.3601153388e+01    0.9456026    0.3362062  52.96  0.003165636    3.416    0.707
       172  -7.8816    205.2658    191.6531   1.0289550458e+02   1.4259254276e+00    0.1345314    0.1151892 -80.87 0.0002698107    1.611    0.379
       173  -7.9288    179.2730    191.6604   1.0837008304e+02   6.5354218873e+00    0.1425077     0.117285  87.58 0.0003857884    1.609    0.379
       174  -8.2259     17.0939    191.5272   1.4456558833e+02   3.2838817927e+01    0.1570877    0.1067433  45.69  0.001013484    1.547    0.354
       175  -8.4020    148.4802    189.4647   1.1481407120e+02   1.3164325176e+01    0.2566125    0.1953315  81.90 0.0007282093    1.666    0.400
       176  -9.1719    156.0049    187.8030   1.1278619013e+02   1.2011194127e+01    0.3658325    0.2402751 -64.64 0.0008658695    1.901    0.474
       177  -8.8182    129.1739    188.6629   1.1912398548e+02   1.7111828397e+01    0.3049237    0.2195483  87.16 0.0009378453    1.764    0.433
       178  -9.7597    120.9540    186.8772   1.2073232898e+02   1.9065079670e+01    0.5865923    0.3128633 -75.02  0.002113256    3.032    0.670
       179  -8.1675     70.9095    188.8831   1.3268900655e+02   2.6953971367e+01    0.1843955    0.1388762  72.57 0.0003756004    1.248    0.198
       180  -8.5871     34.1395    188.4658   1.4075413670e+02   3.1746959687e+01    0.2581407    0.1322984  89.59 0.0008740361    1.979    0.495
       181  -8.0544    237.4128    188.5423   9.6004840801e+01  -3.9432302505e+00    0.1341093    0.1204167  -9.72 0.0001584208    1.043    0.041
       182  -8.7179    216.5341    187.9771   9.9889432012e+01  -5.1797191589e-02    0.2489431     0.198049  58.40 0.0008062957    1.549    0.355
       183  -8.8156    191.3850    187.4918   1.0494466183e+02   4.9284529975e+00    0.2918648    0.2491187 -81.10  0.001089144    1.526    0.345
       184  -8.8616    164.9946    187.1699   1.1063682609e+02   1.0325097239e+01    0.3195302    0.2402307 -79.13  0.000939576    1.811    0.448
       185  -9.2775     54.6681    186.9855   1.3611078450e+02   2.9619670578e+01    0.4097128    0.2108733  74.68  0.001701759    2.480    0.597
       186  -8.8133     49.7403    188.2004   1.3734680775e+02   2.9967357034e+01    0.2156601      0.15111  57.87   0.00054354    1.352    0.260
       187  -8.0143    230.4790    187.5196   9.7096767651e+01  -2.5402319509e+00    0.1352534    0.1266265  -7.02 0.0008082836    1.094    0.086
       188  -8.9395    109.3271    186.0317   1.2332490166e+02   2.1382539670e+01    0.3702849    0.2453651  81.98   0.00121088    1.945    0.486
       189  -8.7628     28.5017    187.2470   1.4182776471e+02   3.2632547738e+01    0.1933359    0.1536885  53.47 0.0005151162    1.313    0.238
       190  -8.5254    249.2916    185.6835   9.3275179722e+01  -5.5044430467e+00    0.2361526     0.145289 -44.28  0.000596536    1.714    0.417
       191  -9.0575    183.0816    185.2607   1.0627198297e+02   7.0369476361e+00    0.3048269    0.2019096 -53.66 0.0007354731    1.723    0.420
       192  -8.9287    210.1699    184.4844   1.0044706678e+02   1.7975999610e+00    0.2424489    0.1920572 -35.32 0.0004615317    1.266    0.210
       193  -8.6031    202.8206    185.0934   1.0206884450e+02   3.1186325563e+00    0.2127469    0.1990091 -87.82 0.0005105658    1.303    0.233
       194  -8.9412     66.6519    184.7429   1.3311105662e+02   2.8521891776e+01     0.334488    0.1851852  69.11   0.00113853    2.158    0.537
       195  -8.0481    224.1587    183.7823   9.7542872308e+01  -7.3233915407e-01    0.1875002    0.1532177  -1.77 0.0004222348    1.245    0.197
       196  -9.1263    174.3651    183.6822   1.0785965214e+02   9.1325173394e+00    0.3032933    0.2400713  86.09 0.0009496827    1.706    0.414
       197  -7.8803    143.5043    184.5373   1.1503406458e+02   1.5222605148e+01    0.1506723    0.1410791  56.95 0.0001367472    1.004    0.004
       198  -8.9106     44.3877    182.5323   1.3788137126e+02   3.1923660472e+01     0.287411    0.1574151  68.94  0.001000967    2.003    0.501
       199  -7.8497      2.0528    184.0000   1.4696840408e+02   3.5844664301e+01    0.1527419   0.06363608  29.89 0.0006558782    2.900    0.655
       200  -9.2852     25.8267    179.3523   1.4162149855e+02   3.4694091782e+01    0.5888029    0.2329871  80.12  0.002037705    4.489    0.777
       201  -8.1301    240.4549    180.9739   9.3908709854e+01  -3.2011457494e+00    0.2155248    0.1249015 -37.47  0.001041338    1.631    0.387
       202  -7.5822    235.3122    181.6813   9.4999696823e+01  -2.4061016866e+00    0.1289539    0.1115342 -75.94  0.000432553    1.646    0.392
       203  -9.1474    147.4882    180.5858   1.1334938331e+02   1.5287899531e+01    0.3472701    0.2560543  76.85  0.001166089    1.738    0.425
       204  -8.7601    137.8761    179.7219   1.1543637486e+02   1.7409333219e+01    0.2860855    0.1974249 -89.88  0.001210822    2.083    0.520
       205  -8.0660    114.5355    180.4918   1.2113726389e+02   2.1712910459e+01    0.1515585    0.1336027  75.26 0.0002332712    1.091    0.083
       206  -9.4385    191.5558    178.4782   1.0306040587e+02   6.6556383797e+00    0.3261683    0.2618395  67.96  0.000631119    1.537    0.350
       207  -8.1279    169.5462    178.8052   1.0794388824e+02   1.1135255527e+01    0.2060983    0.1463756 -61.90 0.0008443237    1.684    0.406
       208  -9.0046     35.9907    176.8899   1.3912006380e+02   3.4186236717e+01    0.4870862    0.2043568  81.36  0.001660996    4.384    0.772
       209  -9.4153    248.5751    176.8006   9.1599277080e+01  -3.9149565920e+00    0.4291956    0.2736963 -49.76  0.002153862    1.824    0.452
       210  -8.5820    250.5184    172.9292   9.0464724398e+01  -3.6014072379e+00    0.1954589    0.1548678 -28.90  0.000593172    1.137    0.120
       211  -8.6428    217.7711    177.4867   9.7482735202e+01   1.6136552441e+00    0.2658432    0.1848515 -56.61 0.0006955717    1.816    0.449
       212  -8.8461    205.1033    177.7137   1.0007203447e+02   4.0627449409e+00    0.2578571    0.1973601 -51.23 0.0007921629    1.447    0.309
       213  -8.3306    129.1277    177.2997   1.1705668222e+02   1.9679429996e+01    0.2822892    0.1907958 -86.22 0.0007468438    2.074    0.518
       214  -8.2216    101.0038    178.2483   1.2400614020e+02   2.4652519744e+01    0.2852429    0.1745203  55.48 0.0009188306    1.681    0.405
       215  -7.9773     97.6711    177.6836   1.2471675845e+02   2.5357226020e+01    0.1981631     0.154144  20.88 0.0007516976    1.665    0.399
       216  -8.2041    231.3649    177.2686   9.4825629051e+01  -9.1850841671e-01     0.192736    0.1240661 -46.13 0.0005640762    1.644    0.392
       217  -9.2412    183.1244    176.0047   1.0435947660e+02   8.8907153855e+00    0.3564484    0.2429716 -55.57 0.0009368661    1.683    0.406
       218  -8.6655     88.9133    176.8170   1.2669249623e+02   2.7016879535e+01    0.2685024    0.1703853  84.10  0.000878459    1.998    0.499
       219  -9.8757     57.5473    173.7207   1.3375555084e+02   3.2341914730e+01    0.7742742    0.3544418  82.89  0.002420223    4.811    0.792
       220  -8.4714     12.9682    176.9406   1.4414489112e+02   3.6462610794e+01    0.1956798    0.1118899  71.36 0.0007427203    1.689    0.408
       221  -7.7981    211.6838    176.3237   9.8447214489e+01   3.0183380860e+00    0.1409716    0.1180353 -85.41 0.0003997122    1.667    0.400
       222  -9.2677    158.9130    175.1917   1.0962409393e+02   1.4115673644e+01      0.43424    0.2899122  76.51  0.001231088    2.358    0.576
       223  -9.1678    104.2366    174.7676   1.2262356891e+02   2.4904563089e+01    0.5421328    0.2881095  65.23  0.001623794    2.787    0.641
       224 -10.9172     76.1274    169.6271   1.2866931177e+02   3.0718514735e+01     1.455489    0.5076499 -65.81  0.004695554    3.081    0.675
       225  -8.9020     84.4314    159.3342   1.2486986138e+02   3.1913894865e+01     0.268145    0.2213149  79.25 0.0006303706    1.227    0.185
       226  -9.6955     81.2841    154.9355   1.2490247012e+02   3.3468054031e+01    0.5332579    0.3269049  73.44  0.001662409    2.264    0.558
       227  -8.1224    224.5026    174.4903   9.5546992526e+01   8.6656219370e-01    0.1400657    0.1330279 -14.00 0.0002974291    1.068    0.064
       228  -9.7291    175.7945    172.0947   1.0515169628e+02   1.1231891421e+01    0.3967099    0.2637285 -43.29  0.001047071    1.553    0.356
       229  -8.5904    142.9907    172.9261   1.1289419484e+02   1.7901500820e+01    0.2411139    0.1842217  81.23 0.0006049821    1.628    0.386
       230  -8.6917    134.3679    171.9120   1.1475733269e+02   1.9873200087e+01    0.2971497    0.2503398  68.95 0.0007935591    1.230    0.187
       231  -9.4748    121.3577    170.5956   1.1766564592e+02   2.2726491064e+01    0.4046678    0.2813792 -82.04  0.001172938    1.822    0.451
       232  -9.1434     44.7917    170.9494   1.3639891986e+02   3.4571618449e+01     0.344371     0.195278  82.36  0.001158826    2.015    0.504
       233  -8.8171    230.4087    170.4624   9.3579201735e+01   4.7046138499e-01    0.2649773    0.2007119 -31.51 0.0008133809    1.253    0.202
       234  -8.7641    205.8303    170.4984   9.8394733074e+01   5.2992831878e+00    0.2851243     0.188875 -57.51 0.0007018825    1.893    0.472
       235  -8.6165     39.9426    170.6433   1.3749223834e+02   3.5198535875e+01    0.1727009    0.1508348  78.38 0.0004928799    1.114    0.103
       236  -8.3232    237.1417    169.8756   9.2211818350e+01  -6.8350537563e-01    0.2035603    0.1825367 -48.97 0.0005545513    1.244    0.196
       237  -8.9158    198.4293    170.2951   9.9879188985e+01   6.8574666475e+00    0.2417386    0.1860011  68.44 0.0005798112    1.671    0.402
       238  -9.1965    167.4692    168.8648   1.0634274022e+02   1.3678417427e+01     0.396499    0.2765843  78.80  0.001047446    2.189    0.543
       239  -8.4458    149.8317    169.7529   1.1062646758e+02   1.7200580598e+01    0.2721189    0.1977896 -83.22 0.0007486577    1.881    0.468
       240  -9.0965    111.8631    168.9110   1.1968775003e+02   2.4907266012e+01    0.4445445    0.2752944 -61.84  0.001489181    1.665    0.399
       241  -8.8750     20.0617    170.5113   1.4199382958e+02   3.7267828183e+01    0.1556033     0.116901  40.98 0.0005103979    1.525    0.344
       242  -7.6818    244.6222    169.2991   9.0747230388e+01  -1.9446818183e+00    0.1318192    0.1100612 -80.43 0.0007025084    1.759    0.431
       243  -8.2605     88.5945    168.7687   1.2544617241e+02   2.8981359386e+01    0.2011588    0.1306088 -75.14 0.0005199665    1.639    0.390
       244  -8.3478    218.7336    168.4070   9.5372292595e+01   3.1055757529e+00    0.2049479    0.1710851  89.73  0.000596484    1.667    0.400
       245  -8.0141    211.2634    167.9189   9.6742953704e+01   4.6919039483e+00    0.2285279    0.1079707 -57.84  0.000606453    3.964    0.748
       246  -9.2990    191.8885    166.4167   1.0042251728e+02   8.9985704312e+00    0.3504244     0.212545 -48.93 0.0007563998    1.745    0.427
       247  -9.0560    184.9973    166.5501   1.0193652712e+02   1.0431973713e+01    0.2799872    0.2121022 -62.09 0.0006813529    1.566    0.362
       248  -9.8307    136.6230    164.4620   1.1270714995e+02   2.1121992763e+01     0.623516     0.343963  63.21  0.002217587    2.644    0.622
       249  -9.1322     19.5709    165.3273   1.4156904042e+02   3.8498232510e+01    0.4768914    0.1943339  67.73   0.00186789    3.727    0.732
       250 -10.1461     94.9310    162.7539   1.2280218866e+02   2.9371356794e+01    0.8709581    0.4881916  82.54  0.002962045    3.517    0.716
       251  -8.0621    250.6294    165.2538   8.8856795029e+01  -2.3203390531e+00    0.1909963    0.1166814 -29.49 0.0006072635    1.563    0.360
       252  -8.1508    234.0104    165.0794   9.1770652116e+01   7.5468939586e-01      0.21002    0.1703347 -68.24 0.0006919623    1.641    0.391
       253  -8.7017    159.4832    164.4781   1.0724765753e+02   1.6331554618e+01    0.3243695    0.2281694  85.88 0.0007486662    2.188    0.543
       254  -9.0451     63.1532    164.6279   1.3110324638e+02   3.3759989997e+01    0.2850496    0.2060524  83.76  0.000651869    1.422    0.297
       255  -8.5806     60.6574    160.3678   1.3108169321e+02   3.5113435460e+01    0.2818782    0.1648207  86.31 0.0008888952    2.185    0.542
       256  -9.4494     33.5293    163.6165   1.3814517477e+02   3.7533623740e+01    0.5039368    0.2203143  57.53  0.002201059    2.794    0.642
       257  -8.1570    240.0015    164.3128   9.0522377456e+01  -2.3191868541e-01    0.1868913    0.1727787  -8.88 0.0004580703    1.037    0.035
       258  -8.5802    212.8829    163.8665   9.5543506978e+01   5.1374278984e+00      0.25784    0.1933717 -45.23 0.0005727927    1.351    0.260
       259  -8.8672    246.1367    162.9014   8.9141337629e+01  -1.1103436346e+00    0.2006315    0.1776787 -44.53 0.0003954259    1.191    0.160
       260  -8.4719    204.8528    163.0071   9.6972241360e+01   6.9572995995e+00    0.2237319    0.2011033 -67.04  0.000562391    1.274    0.215
       261  -9.1450      3.1032    162.4452   1.4495812013e+02   4.0525889308e+01    0.3182674    0.1501882  66.67  0.001633028    2.368    0.578
       262  -8.9797    177.5339    160.7708   1.0231648018e+02   1.3240702473e+01    0.3226241     0.249581 -64.44 0.0008671923    1.516    0.340
       263  -8.9185    151.6414    161.1252   1.0837634594e+02   1.8746206916e+01    0.3376489    0.2528243 -79.26 0.0009266096    1.725    0.420
       264  -8.4958    227.3174    159.2127   9.1749959928e+01   3.1169112727e+00    0.2733739    0.1815599 -53.85  0.001278029    1.740    0.425
       265  -9.6361    250.2234    157.9415   8.7394690747e+01  -9.9001782430e-01    0.3380229    0.1757462 -36.15 0.0007958908    1.756    0.430
       266  -7.8615    236.7803    159.0057   8.9969975087e+01   1.3191849029e+00    0.1894099    0.1079841 -38.48 0.0005472954    1.635    0.389
       267  -8.3162    128.0432    158.9771   1.1368987248e+02   2.4126214978e+01    0.2475728    0.1851022  82.50 0.0008496695    1.679    0.405
       268  -9.8787    105.4971    157.8460   1.1918043278e+02   2.8698153088e+01    0.4750531    0.3150954  79.56  0.001147104    2.095    0.523
       269  -8.7867    100.2609    156.6001   1.2028702617e+02   2.9929295659e+01    0.2998546    0.2154557  89.95 0.0009373371    1.688    0.408
       270  -8.5712    196.7815    158.1115   9.7560485813e+01   9.6347494442e+00    0.2320556    0.2062901 -75.65 0.0006967726    1.307    0.235
       271  -8.4396    188.0568    157.7821   9.9342514878e+01   1.1582351342e+01    0.2768183    0.1959395 -58.91   0.00073411    1.649    0.394
       272  -9.0457    167.6323    157.4280   1.0381734153e+02   1.6111480405e+01    0.3470423    0.2632532  77.79  0.001108747    1.724    0.420
       273  -8.6758    145.1461    155.9495   1.0881794933e+02   2.1293740824e+01    0.4719378    0.2699115 -68.53  0.001673087    2.688    0.628
       274  -9.2436     42.4251    157.4851   1.3520859475e+02   3.8018970025e+01    0.2195924    0.1909302 -80.83 0.0004716652    1.046    0.044
       275  -8.2717    218.0111    156.9675   9.3029062770e+01   5.4071904474e+00    0.2303819    0.1805713 -73.08  0.001115413    1.724    0.420
       276  -8.9205    157.3278    156.4416   1.0600141267e+02   1.8569984977e+01    0.2997651    0.2542321 -72.92 0.0007702982    1.314    0.239
       277  -9.2769    119.3620    155.0874   1.1507364831e+02   2.6752826213e+01    0.4345263    0.2864697 -81.18  0.001529041    2.132    0.531
       278  -9.4529     49.4841    155.3743   1.3314846311e+02   3.7708367816e+01    0.3673097    0.2104423  72.99   0.00168693    2.251    0.556
       279  -9.1005    241.7656    154.2645   8.8069240138e+01   1.2210971987e+00    0.3807015    0.2349717  71.11  0.001536606    3.082    0.675
       280  -7.9729    204.5569    155.4776   9.5367593487e+01   8.5022117401e+00    0.1483411    0.1446604 -25.57 0.0001294091    1.027    0.026
       281  -9.9360     67.7316    154.0222   1.2826588947e+02   3.5681225725e+01    0.4013073    0.2427973  78.37  0.001180917    2.256    0.557
       282 -10.2694    133.1875    151.2528   1.1074940460e+02   2.4878176991e+01    0.8054821    0.3720937 -47.47  0.002248538    2.187    0.543
       283  -9.0525     20.0458    152.9811   1.4009455444e+02   4.1298849741e+01    0.1972865    0.1239903  71.71 0.0005300711    1.683    0.406
       284  -9.7301     29.5358    151.2359   1.3756822662e+02   4.0832044902e+01    0.4406278    0.2020269  67.61  0.001767479    3.397    0.706
       285  -8.5453    250.2901    141.0174   8.3783685063e+01   1.9578370201e+00    0.2095122    0.1773845 -18.08 0.0004337656    1.200    0.167
       286  -9.4837    248.8855    149.3660   8.5802598338e+01   7.5184885335e-01    0.3432882    0.1762655 -40.39 0.0008568995    1.760    0.432
       287  -8.9404    247.1099    144.1102   8.4973203471e+01   2.0138972186e+00    0.2747417    0.1810774 -42.38 0.0005417377    1.391    0.281
       288  -9.0134    189.4449    150.3572   9.7366066049e+01   1.2812068541e+01    0.3465396    0.2373124 -60.64 0.0007826272    1.768    0.434
       289  -7.6072    182.4422    151.4559   9.9137048406e+01   1.4129592416e+01    0.1542752    0.1498535  89.24 0.0001398301    1.073    0.068
       290  -8.0819    162.5625    150.7379   1.0348692345e+02   1.8686259257e+01    0.2134931     0.151426 -58.83 0.0006169679    1.563    0.360
       291  -8.9108     98.2172    150.6519   1.1965640979e+02   3.1715743276e+01    0.3142374     0.220573 -85.69  0.001251544    1.763    0.433
       292  -8.4318    243.1749    149.9762   8.6903284751e+01   1.7186636334e+00    0.2177827    0.1780767 -53.56 0.0008774351    1.308    0.236
       293  -8.8760    238.2503    150.2023   8.7809201229e+01   2.6245274870e+00    0.3292843    0.1595594  33.50  0.001274897    2.765    0.638
       294  -8.0011    212.8471    149.8044   9.2441031853e+01   7.8578501536e+00    0.1970265    0.1738121 -72.24 0.0003470182    1.310    0.237
       295 -10.5291     60.4305    125.5766   1.2510327229e+02   4.3475782081e+01    0.8878987    0.5192329  77.16   0.00351846    3.109    0.678
       296 -11.0873     54.5859    144.7519   1.3018128984e+02   3.9634532989e+01     1.029342    0.5208918 -72.27  0.003709607    2.023    0.506
       297 -10.1554     62.2785    135.8522   1.2654153716e+02   4.0791457401e+01    0.4487694    0.2952867  43.61 0.0005055956    1.648    0.393
       298 -10.3485     73.2417    129.7171   1.2226508231e+02   4.0743510398e+01    0.5531198    0.3827287 -87.94  0.001714091    1.861    0.463
       299 -11.1680     68.9585    141.6850   1.2578088737e+02   3.8485383202e+01    0.7199392    0.4414667 -65.44  0.002661495    1.538    0.350
       300 -10.3981     72.3011    134.2937   1.2345091451e+02   3.9786705840e+01    0.7200455    0.2406443  35.84  0.002590739    3.154    0.683
       301  -8.7674      2.6014    149.8137   1.4387051228e+02   4.3400561138e+01    0.1712984   0.08893077 -86.15 0.0006066709    1.705    0.414
       302  -8.4110    198.9225    148.9580   9.5051173297e+01   1.1018121324e+01    0.2338188    0.1868026 -81.55 0.0005115777    1.638    0.389
       303  -8.0214    178.0529    148.9806   9.9541525282e+01   1.5626950051e+01     0.205427    0.1836984   3.87 0.0003468142    1.249    0.199
       304  -7.9973    175.6427    146.3267   9.9467585063e+01   1.6731084139e+01    0.3031062    0.1959949 -71.67 0.0006401795    2.422    0.587
       305 -10.4776     89.2842    146.7220   1.2125111530e+02   3.4175012796e+01    0.6864197    0.4233595 -82.72  0.002687644    2.258    0.557
       306 -10.1986     39.8914    148.0198   1.3452189913e+02   4.0539066833e+01    0.4719696    0.2367368  63.06  0.002020641    2.748    0.636
       307  -8.6770    233.5694    147.6850   8.8090071339e+01   4.0029714204e+00    0.2625014    0.1324947 -35.87  0.000755542    1.909    0.476
       308  -9.2472     78.0567    147.2359   1.2435236145e+02   3.5822224506e+01    0.3345388    0.2134929  88.40 0.0009906515    2.126    0.530
       309  -8.3166    223.2989    146.6824   8.9743609173e+01   6.2720244474e+00    0.2356899    0.1420618 -42.74 0.0004674044    1.586    0.369
       310  -9.3423    224.1769    143.0507   8.8768200892e+01   6.7765699638e+00    0.2337555    0.2300505 -83.36 0.0003066833    1.093    0.085
       311  -9.8690    139.1076    145.1161   1.0788967350e+02   2.5054086066e+01    0.5267863    0.2931916 -63.69  0.001397268    2.399    0.583
       312 -10.0632    106.3444    144.3743   1.1621385826e+02   3.1765114988e+01    0.6468453    0.4048706  85.59  0.002000555    2.796    0.642
       313  -8.9852    104.3296    139.3198   1.1566645987e+02   3.3339567465e+01    0.4748962    0.2520364  19.09  0.001483958    3.986    0.749
       314  -9.5097     13.3556    146.2542   1.4093356908e+02   4.3405576871e+01    0.3206332    0.1868936  75.84  0.001542194    1.884    0.469
       315  -8.7581    240.2740    145.4552   8.6424829294e+01   3.0891077077e+00    0.2221151    0.1857997 -45.72 0.0006407563    1.160    0.138
       316  -9.4262    242.7116    143.3314   8.5545482758e+01   2.9976528113e+00    0.4669044    0.2150458 -29.97  0.001804394    2.499    0.600
       317  -8.0631    206.7632    146.5627   9.2910986710e+01   9.7932733837e+00    0.1967752    0.1467264  60.95 0.0005068372    1.529    0.346
       318  -9.7373    124.9512    142.6705   1.1094540231e+02   2.8565357182e+01    0.5409245    0.3502129 -79.99  0.001348088    2.389    0.581
       319  -8.9736     32.7483    144.9143   1.3591417938e+02   4.2003662376e+01    0.2468245    0.1389651  61.28  0.001146642    2.146    0.534
       320  -7.9907    194.3885    144.1757   9.4895160687e+01   1.2987425890e+01    0.2193296    0.1416986 -53.11  0.000512302    1.680    0.405
       321  -8.8077    165.5071    144.2120   1.0129267640e+02   1.9462093058e+01    0.2854701    0.2201119  49.70   0.00063789    1.289    0.224
       322  -8.1223    235.3400    143.3046   8.6813608001e+01   4.4538792250e+00    0.1450648    0.1105214   3.37 0.0007040435    1.678    0.404
       323  -9.3839      2.8960    142.2130   1.4301777450e+02   4.5094142548e+01    0.2744838    0.1577884  76.39  0.001247194    1.860    0.462
       324  -8.2406    181.9861    141.9247   9.7029337906e+01   1.6236345667e+01    0.2429271    0.1921476 -85.56 0.0005387315    1.632    0.387
       325  -9.0038     45.8817    140.4556   1.3180612423e+02   4.1681888159e+01      0.25638     0.165296  57.30  0.001218495    1.780    0.438
       326  -8.7622    151.6352    152.1263   1.0639789103e+02   2.0767661638e+01    0.3640633    0.1504751 -47.62   0.00108101    2.463    0.594
       327 -10.1465     23.0234    138.4776   1.3753877242e+02   4.4404222985e+01    0.4903511    0.3238363  57.72  0.002108839    1.711    0.416
       328  -7.6325    218.6841    139.2886   8.8941275143e+01   8.6492668087e+00    0.1461376    0.1170967 -78.88 0.0002941652    1.591    0.371
       329  -8.5182    172.1728    138.2436   9.8348600819e+01   1.9247124695e+01    0.2844935    0.1998539 -70.79 0.0005558255    1.908    0.476
       330  -8.7266    114.7668    138.8378   1.1275930588e+02   3.1487242313e+01    0.3018426    0.1954402  66.80  0.001224443    2.084    0.520
       331  -8.2850    207.6571    138.1337   9.0796720786e+01   1.1263654156e+01    0.2381495    0.1807418 -59.22 0.0006190304    1.463    0.316
       332  -8.5635     93.0666    137.5475   1.1835425411e+02   3.5748281555e+01    0.2971136    0.1773169  56.17  0.001259476    2.002    0.501
       333 -10.4017     83.3690    133.0010   1.2008633322e+02   3.8425330458e+01    0.5145105    0.3317128 -72.11  0.001247473    1.774    0.436
       334  -8.8839    151.0132    136.1219   1.0283086311e+02   2.4496846518e+01    0.3947777    0.2556264  20.73  0.001494006    2.335    0.572
       335  -9.1427    248.4172    135.3799   8.2873342975e+01   3.3125568558e+00    0.2656195    0.2170364 -40.94 0.0007930651    1.105    0.095
       336  -8.7835    246.9108    130.3575   8.2025933242e+01   4.4990788615e+00    0.3113134    0.1758823 -50.75 0.0005691967    1.806    0.446
       337  -8.1856    162.7193    136.5656   1.0013134564e+02   2.1762360832e+01    0.2183242    0.1517205  58.20  0.000668598    1.553    0.356
       338 -10.1386    133.0883    132.2123   1.0639712662e+02   2.9295036231e+01    0.6978058     0.448745  85.46  0.002300198    2.954    0.661
       339  -9.6507     39.0105    135.9025   1.3293219780e+02   4.3498971424e+01    0.2638589    0.1811739  85.72 0.0006941366    1.613    0.380
       340  -8.0386    187.5608    135.4974   9.4299675283e+01   1.6310724929e+01    0.1564433    0.1497483 -75.64 0.0001060564    1.073    0.068
       341  -8.4894    179.6652    134.3005   9.5725977284e+01   1.8369574498e+01    0.2881832    0.1878952 -55.00 0.0008461294    1.684    0.406
       342  -8.1846    237.5276    133.7413   8.4322312184e+01   5.7635146799e+00    0.2024481    0.1253289 -49.92 0.0009326711    1.621    0.383
       343  -9.0631    112.6662    133.2190   1.1204230527e+02   3.3215691799e+01    0.3379785    0.2474745 -82.66 0.0008422857    1.775    0.436
       344 -10.4158     98.1816    130.2529   1.1534249087e+02   3.6596830191e+01    0.6590871    0.2944153 -55.80  0.001848364    2.241    0.554
       345  -9.0020    143.1148    131.6750   1.0371196218e+02   2.7244613956e+01     0.316948    0.2394651 -76.81 0.0007206025    1.675    0.403
       346  -8.9363    250.7308    130.1220   8.1366060862e+01   3.7950491963e+00    0.4251965    0.1156688 -36.41   0.00131769    3.717    0.731
       347  -9.7048    152.8528    129.0947   1.0067040381e+02   2.5642103275e+01    0.4592985    0.2778637 -59.57  0.001025128    1.995    0.499
       348  -9.9974     12.9788    129.4546   1.3896044225e+02   4.7281989346e+01    0.4294533    0.2336954  75.21  0.001926566    2.401    0.583
       349 -10.2380    149.0096    145.0546   1.0542489141e+02   2.2932499340e+01    0.5888537    0.4009863 -84.66  0.001873516    2.334    0.572
       350  -8.6901    197.6192    137.6298   9.2697466026e+01   1.3596142286e+01    0.2991672    0.2129179 -74.53 0.0009416834    1.991    0.498
       351  -8.1397    192.5328    130.0588   9.1949742023e+01   1.6287583584e+01    0.2363984     0.151488 -42.08 0.0005882294    1.541    0.351
       352  -9.0487    168.1682    129.5895   9.7167628424e+01   2.2022807490e+01    0.3218567    0.2388712 -72.75 0.0006483544    1.716    0.417
       353  -8.3769    161.5156    130.4757   9.8934828409e+01   2.3364166614e+01    0.1575751    0.1562304  49.93  0.000125552    1.023    0.023
       354  -9.0850     30.7307    130.4491   1.3433331049e+02   4.5587104419e+01    0.2084343    0.1177195  35.52 0.0008585857    2.020    0.505
       355  -7.9413      1.4752    130.4544   1.4206291099e+02   4.7835072337e+01    0.1181498   0.09111644 -75.46 7.731886e-05    1.031    0.030
       356  -7.7983    211.6616    129.3413   8.7973741316e+01   1.2100347747e+01    0.1583539    0.1182213 -76.83  0.000704999    1.767    0.434
       357 -10.8018     44.6246    123.5850   1.2928442451e+02   4.5806145448e+01      1.02395    0.5610911  86.23  0.003928917    3.238    0.691
       358 -10.0564    118.0804    125.6286   1.0877486124e+02   3.3913586668e+01    0.5593103    0.3752358  85.40  0.001570789    2.517    0.603
       359  -9.2825    243.4699    124.5940   8.1316341620e+01   6.2152262483e+00    0.2507178     0.184114 -39.25 0.0005394708    1.242    0.195
       360  -7.8072    228.2342    125.2312   8.4007711984e+01   9.2675569401e+00    0.2421236    0.1035704 -48.95 0.0008789245    2.453    0.592
       361  -8.8024    179.3966    124.9652   9.3508590197e+01   2.0383978882e+01    0.2934782    0.2217446  71.76 0.0007396036    1.566    0.362
       362 -10.4257     28.5499    122.5570   1.3369520840e+02   4.7615644746e+01    0.6567441    0.3417363  78.40  0.002687385    3.429    0.708
       363  -7.7290    188.6780    124.3157   9.1361896789e+01   1.8348319124e+01    0.1607911    0.1237845 -81.80 0.0005609752    1.661    0.398
       364  -9.2804    135.5205    124.1654   1.0379234943e+02   3.0593956281e+01      0.26256    0.2277792  16.12  0.001279881    1.318    0.241
       365  -8.8262      4.2210    123.7492   1.4053799690e+02   4.9168802944e+01    0.3228947    0.1206137  50.10  0.001399477    3.780    0.735
       366  -8.6131     85.4502    122.6476   1.1723289939e+02   4.0543729220e+01    0.3834627    0.2081436  16.26  0.001355312    3.389    0.705
       367  -7.7695    203.2519    122.5945   8.7995619792e+01   1.5318468305e+01    0.1603656    0.1148663 -67.07 0.0005014539    1.712    0.416
       368  -8.6839    172.0420    121.6872   9.4323266460e+01   2.2793214585e+01    0.2666378    0.2120202 -56.35 0.0004307294    1.314    0.239
       369  -9.1149    158.7133    121.5399   9.7368982852e+01   2.5940779680e+01     0.356912    0.2716577 -87.74 0.0009985112    1.744    0.427
       370  -8.9382     99.3982    120.4607   1.1271575457e+02   3.8669649576e+01     0.363336    0.2236904   2.86  0.001224394    3.626    0.724
       371  -9.8243     71.1087    119.9820   1.2082598685e+02   4.3348266057e+01    0.3764428    0.2420629 -81.86 0.0009576098    2.179    0.541
       372  -9.6615    141.5659    118.5800   1.0082660753e+02   3.0497886504e+01    0.4473023    0.3010597 -71.58    0.0011526    2.106    0.525
       373  -9.6983    130.6105    118.5226   1.0364569581e+02   3.2915590798e+01    0.4479243    0.3072296 -78.40  0.001120121    2.210    0.547
       374  -8.9403     20.9497    118.7941   1.3524798375e+02   4.9112352210e+01    0.2077065     0.159031  60.14 0.0009015808    1.539    0.350
       375  -9.6757      3.1414    117.5470   1.4002523413e+02   5.0622505335e+01    0.4060254    0.2081407  72.26  0.001985765    2.828    0.646
       376  -9.1397     58.4570    115.8825   1.2370816251e+02   4.5995284445e+01    0.4023799    0.2102644 -33.72  0.001590066    2.485    0.598
       377  -7.9372    185.5433    116.4847   9.0083808101e+01   2.0671448694e+01    0.1563708    0.1509178 -77.87 8.069041e-05    1.025    0.025
       378 -10.1837    109.2561    114.1712   1.0835960353e+02   3.8263401552e+01    0.6462154    0.3540694 -63.51  0.001552854    2.504    0.601
       379  -9.5122    110.3085    107.0144   1.0620033764e+02   3.9647948279e+01    0.3749579    0.2007027  32.55  0.001466077    2.170    0.539
       380  -7.9341    193.0045    115.4945   8.8301268259e+01   1.9104896763e+01    0.2049572    0.1373268  82.41  0.000448919    2.209    0.547
       381  -7.6282    167.2876    114.6460   9.3611761089e+01   2.5383733821e+01    0.1639639    0.1248915 -78.05 0.0007023998    1.671    0.402
       382 -10.4456    133.8948    109.5356   1.0043716759e+02   3.4166032989e+01    0.7599325    0.3341337 -50.44  0.002596921    2.465    0.594
       383 -10.0915     92.6243    112.3653   1.1269570308e+02   4.1719585843e+01    0.5348642    0.3268687 -66.13  0.001329379    2.053    0.513
       384  -9.9680     78.7458    112.3499   1.1681635238e+02   4.3986200807e+01    0.5363433    0.3573764 -78.40  0.001827935    2.111    0.526
       385  -9.3519     51.2625    113.3350   1.2534345787e+02   4.7448563177e+01    0.2528046    0.2212557  81.67 0.0006011373    1.297    0.229
       386  -8.5432    174.8051    112.2453   9.1315159702e+01   2.4086841617e+01     0.279475    0.2055901 -54.74 0.0006610343    1.431    0.301
       387  -9.7660    121.7955    112.7068   1.0450423097e+02   3.6070168718e+01    0.3509613    0.2855055  63.42 0.0008731858    1.371    0.271
       388  -9.3953     14.4543    111.8725   1.3602645072e+02   5.1160087645e+01    0.2714399    0.1761769  85.79 0.0009352732    1.813    0.448
       389 -10.8656    248.3707    108.8634   7.7101484677e+01   8.0012262091e+00    0.4931783    0.2990333 -37.38   0.00240201    1.538    0.350
       390  -8.2992    159.1596    111.8660   9.4774667751e+01   2.7883772944e+01    0.2406079     0.209569 -82.09 0.0005286512    1.278    0.218
       391 -10.4523     66.6048    109.8357   1.1990888234e+02   4.6321269901e+01    0.6627165    0.3542176 -55.06  0.002542728    1.702    0.412
       392  -9.4940      8.4655    109.9317   1.3745833885e+02   5.1991029396e+01    0.3307206    0.1369755  37.39  0.001661826    2.897    0.655
       393  -9.3504     36.5426    115.0481   1.3008730453e+02   4.8609791503e+01    0.2245493    0.1872184  44.55 0.0006968618    1.400    0.286
       394  -7.5203    189.4687    108.4560   8.7260596126e+01   2.1331266220e+01    0.1571041    0.1468266 -80.21 0.0001434568    1.073    0.068
       395  -9.9233    139.7893    104.1538   9.7468594603e+01   3.3986489804e+01     0.525022    0.3011213 -48.58  0.001549576    1.810    0.448
       396 -10.4844     45.6367    102.4879   1.2478780411e+02   5.0536961743e+01    0.6680786    0.4092331  75.15  0.002883282    3.118    0.679
       397 -10.5816     22.8871    102.8780   1.3198155042e+02   5.2547637251e+01    0.6295634    0.3682237  79.40  0.002653437    2.825    0.646
       398  -9.4573    150.6264    103.1694   9.4506136979e+01   3.1687877941e+01    0.4426802    0.2767154 -62.04   0.00104354    2.101    0.524
       399  -8.4539    166.6929    104.2013   9.1025908303e+01   2.7657092708e+01    0.2492891    0.1921518 -63.80 0.0008299243    1.462    0.316
       400  -8.8480     94.1222    104.3295   1.1020249931e+02   4.3256537682e+01    0.2948188    0.1370732  30.57  0.001086954    2.647    0.622
       401  -7.9729     17.3447    104.3054   1.3392854385e+02   5.2644430043e+01    0.1282761   0.07377709 -39.77 0.0003936336    1.691    0.409
       402  -8.6055      7.1035    103.3800   1.3685025600e+02   5.3521350570e+01    0.2149644    0.1575298  71.37   0.00102892    1.680    0.405
       403  -9.8024    128.4676    102.1801   9.9884074816e+01   3.6918722916e+01       0.3219    0.2631798 -78.39   0.00079412    1.509    0.338
       404 -10.5949    109.1701     99.1619   1.0440188138e+02   4.1565568338e+01    0.7996411    0.4904455  68.80  0.002036314    2.924    0.658
       405  -8.8624    107.4886     92.9996   1.0316363292e+02   4.3185081994e+01    0.5415707    0.2911566  21.82  0.001862861    3.214    0.689
       406  -7.7981    175.5165    102.4863   8.8636984574e+01   2.5866313490e+01    0.1577745    0.1499015 -87.50 5.503454e-05    1.048    0.046
       407  -8.1524    159.5573    101.0310   9.1811229422e+01   3.0004058976e+01    0.2322245    0.1538072 -44.48 0.0004803004    1.532    0.347
       408  -9.3762     82.1815    100.1619   1.1273436559e+02   4.6178911313e+01    0.3339355    0.2405471 -71.13 0.0008753345    1.774    0.436
       409  -9.0956     94.9210     96.9395   1.0798380177e+02   4.4717177907e+01    0.2909453    0.2028859 -52.83 0.0006073188    1.467    0.318
       410 -10.0586     63.8779     95.9421   1.1742212529e+02   4.9789368636e+01    0.4733841    0.3149062 -87.24  0.001592116    2.708    0.631
       411  -9.0804     56.7242     95.0137   1.1950263031e+02   5.0910854136e+01    0.2409502    0.1942734  40.63 0.0008173288    1.426    0.299
       412  -8.2129    164.7102     94.1735   8.8790105983e+01   3.0107427273e+01    0.2450512    0.1902171 -62.61  0.000633913    1.438    0.304
       413  -9.2906    139.1885     92.5726   9.4416776686e+01   3.6476957490e+01    0.4048209    0.2747968 -71.87  0.001033288    2.213    0.548
       414  -9.4891    248.0465     92.8201   7.3641157955e+01   1.0824449254e+01    0.2211952    0.1591957  30.05  0.001098684    2.048    0.512
       415  -7.9864    176.4777     93.4984   8.6071382848e+01   2.7363541653e+01    0.1597015    0.1442306 -83.26 7.316594e-05    1.141    0.124
       416 -10.0415    123.6961     91.4706   9.8169364055e+01   4.0151481586e+01    0.6218863    0.3811421  34.19  0.001733686    1.790    0.441
       417  -9.6077      5.3504     92.4063   1.3558212765e+02   5.6001829527e+01    0.2859756    0.1799912  66.56  0.001248373    2.325    0.570
       418  -9.5045     34.6614     89.6918   1.2551067174e+02   5.4435233783e+01    0.4227189    0.2490635 -79.72  0.001799547    2.576    0.612
       419  -8.5337     29.6079     91.8050   1.2764661891e+02   5.4428574177e+01    0.1797665    0.1073079 -69.08 0.0009513896    1.740    0.425
       420  -9.0835     23.2862     90.2405   1.2939522826e+02   5.5278773923e+01    0.2715214    0.1985288  10.40  0.001375961    1.621    0.383
       421  -8.3365    150.9079     89.1434   9.0578240375e+01   3.4397525339e+01     0.237828    0.2074314 -78.61  0.000479478    1.286    0.222
       422 -10.0358     86.2555     86.2572   1.0765376063e+02   4.8450978699e+01     0.534928    0.3617337 -61.70   0.00194689    1.861    0.463
       423  -9.9001     48.3663     84.4002   1.1961516097e+02   5.4159552933e+01    0.4052868    0.2881879  79.66  0.001673508    2.488    0.598
       424  -7.9889     15.5136     86.4958   1.3119910841e+02   5.6637428654e+01    0.1201413   0.09614976 -52.34 0.0001804145    1.029    0.028
       425  -9.6520    104.8349     83.3946   1.0115183129e+02   4.5635198596e+01    0.3803822    0.2976766 -77.36 0.0009459415    1.826    0.452
       426  -8.1602    157.9895     84.0065   8.7501340642e+01   3.3654976576e+01    0.2316201    0.1834295 -78.17 0.0003918368    1.530    0.346
       427  -9.6033     10.0873     82.2850   1.3216912250e+02   5.7868150710e+01    0.3782313    0.2394811 -79.08   0.00222798    1.835    0.455
       428  -9.1643    140.7648     82.4676   9.1133191274e+01   3.8049162373e+01    0.3892738    0.2031839 -46.11  0.000919415    2.040    0.510
       429  -8.9449     46.8559     92.2922   1.2207302230e+02   5.2648178435e+01    0.3504263    0.2044858  12.89  0.001740236    2.200    0.545
       430  -9.7465     24.5098     80.4132   1.2684526282e+02   5.7259965683e+01    0.3930378    0.2465571 -84.01  0.001472686    2.490    0.598
       431  -8.4220    150.3141     80.7830   8.8352518320e+01   3.6097932986e+01    0.2638068    0.1856823 -44.01 0.0008390213    1.474    0.322
       432  -8.8776    119.3718     80.3738   9.6104875615e+01   4.3237014586e+01    0.3307006    0.2510361 -62.41 0.0009203954    1.645    0.392
       433  -8.7943     74.4896     80.6443   1.0981231685e+02   5.1475114970e+01    0.2637328    0.2066376 -74.87 0.0008008464    1.815    0.449
       434  -8.3550    166.5736     79.6946   8.4426168395e+01   3.2331936517e+01    0.2592401     0.152993 -33.09 0.0007186505    1.858    0.462
       435  -8.4237    183.9893     78.9863   8.0735170591e+01   2.8143813363e+01    0.2376813      0.18858  15.95 0.0008849977    1.706    0.414
       436  -9.1509     65.0000     78.0116   1.1221434046e+02   5.3382480705e+01    0.2880497    0.1962903 -53.91    0.0010531    1.538    0.350
       437  -9.8113     63.3030     73.4838   1.1147005033e+02   5.4507918967e+01    0.4032285    0.2209462 -56.19   0.00134977    2.138    0.532
       438  -9.4012    128.1712     75.4483   9.2262845622e+01   4.2215528012e+01    0.3905623    0.2401672 -55.50 0.0007880125    2.069    0.517
       439  -8.9085    105.1751     77.1727   9.9179071087e+01   4.6760992679e+01     0.307659    0.1636346  24.88  0.001137338    2.771    0.639
       440  -7.8393    157.2796     76.6377   8.5586504701e+01   3.5152709080e+01    0.1565068    0.1174022 -72.77 0.0003920847    1.673    0.402
       441  -9.0235    140.5515     75.3198   8.9097599672e+01   3.9396128494e+01    0.2683326    0.1449797 -42.97 0.0007299319    1.937    0.484
       442  -9.6461     82.3813     72.7652   1.0487092810e+02   5.1746588302e+01    0.3828919    0.2625191 -62.10 0.0009669639    2.048    0.512
       443  -8.7222    163.4737     73.6473   8.3402072426e+01   3.4151311117e+01    0.2675248    0.2101133 -64.27  0.001128927    1.432    0.302
       444  -8.6158    115.4648     72.7917   9.4884393010e+01   4.5460582973e+01    0.2629757    0.1408364 -43.49  0.000821176    1.952    0.488
       445  -9.3427    105.9532     72.0917   9.7383729519e+01   4.7542339120e+01    0.2896355    0.2094883 -50.78 0.0006094047    1.567    0.362
       446  -8.0826     42.5161     72.9743   1.1862362104e+02   5.7125486637e+01    0.1623457    0.1100169 -77.25 0.0005155962    2.427    0.588
       447  -7.8106    175.4385     72.5473   8.0664351665e+01   3.1371034280e+01    0.1493926     0.141683  71.27 0.0001841408    1.024    0.023
       448  -9.2941     95.1593     71.2354   1.0035478874e+02   4.9778853635e+01    0.3286583    0.2324374 -56.31 0.0009681526    1.769    0.435
       449  -9.8932    237.8767     69.0927   6.9788692241e+01   1.6927133615e+01    0.2748887    0.2418407 -64.30 0.0005589443    1.047    0.045
       450  -8.5446     28.5436     70.5199   1.2300650456e+02   5.8941654981e+01    0.2125185    0.1299079 -16.65 0.0008014385    1.830    0.453
       451  -8.5756     32.3455     68.2774   1.2102580270e+02   5.9049473640e+01    0.2337115    0.1595933  -5.56  0.001126477    1.595    0.373
       452  -8.7070     16.8207     70.4142   1.2723419956e+02   5.9863539411e+01    0.1998512    0.1704585 -83.79 0.0008559389    1.515    0.340
       453  -8.5545    157.0000     69.9052   8.3730981111e+01   3.6377403716e+01    0.2339532   0.08683491 -36.30 0.0004625039    2.842    0.648
       454  -8.9430    147.1820     68.4533   8.5504445705e+01   3.9003514508e+01    0.2619598    0.2076549 -39.98 0.0005392015    1.327    0.246
       455  -8.7242    138.6844     66.3855   8.6888154192e+01   4.1367016240e+01    0.2600422    0.1747069 -49.10 0.0007962396    1.668    0.400
       456  -8.8661    121.5743     66.0523   9.1124416010e+01   4.5316398511e+01    0.2830187    0.2290653 -63.64 0.0007419136    1.548    0.354
       457  -7.4955    163.6681     65.7156   8.1132941615e+01   3.5425278545e+01    0.1514627    0.1128366  29.39 0.0004014637    1.616    0.381
       458  -9.2172    110.0433     63.8154   9.3588965760e+01   4.8153740771e+01    0.2839361    0.2076819 -47.10 0.0006758601    1.530    0.346
       459  -8.7229     37.2521     64.1319   1.1805687039e+02   5.9383790997e+01    0.2404614    0.1805902 -73.42 0.0009857428    1.953    0.488
       460  -9.6352     51.4151     69.6296   1.1449705235e+02   5.6780664363e+01    0.4028403    0.2444921 -65.17  0.001501112    2.440    0.590
       461  -8.8472     64.9788     63.0739   1.0768458400e+02   5.6227720967e+01    0.4131156     0.212956   9.92  0.001537972    3.682    0.728
       462  -9.4583     97.5425     60.9361   9.6320816073e+01   5.1131097652e+01    0.4256635    0.2504499 -34.51  0.001681199    1.719    0.418
       463  -8.6384    158.2501     61.9711   8.1189384192e+01   3.7362412400e+01    0.2012219     0.188447 -56.80 0.0003941112    1.124    0.111
       464  -9.6860     73.2792     59.6312   1.0369997205e+02   5.5592952183e+01    0.3622022    0.2198346 -48.99  0.001165204    1.870    0.465
       465  -8.2783    164.4890     59.9545   7.9342645507e+01   3.6134934919e+01    0.2090587     0.146617 -37.75 0.0005401448    1.513    0.339
       466  -8.2047    147.0000     59.0601   8.2765420127e+01   4.0561910592e+01    0.2278431   0.08500931 -34.51 0.0007467312    2.875    0.652
       467  -8.0763     88.8400     59.5824   9.8569429016e+01   5.2976814767e+01    0.1770169     0.127985  50.05 0.0004527645    1.572    0.364
       468  -9.9139     23.3235     56.4187   1.2113737970e+02   6.2082420846e+01    0.3872221    0.2706736 -84.96  0.002096786    2.814    0.645
       469  -8.0708    130.5923     57.8542   8.6245715615e+01   4.4617714859e+01    0.1962786    0.1330774 -48.20 0.0004833232    1.689    0.408
       470  -9.3941      7.3120     57.1458   1.2754200513e+02   6.3046368695e+01    0.2608827    0.1804615 -74.27  0.001216564    1.865    0.464
       471  -9.2287    119.1046     55.3102   8.8370317120e+01   4.7589912245e+01    0.4481262    0.2107672 -46.24  0.001542389    2.581    0.613
       472  -9.4929     54.3426     55.7033   1.0910922973e+02   5.8980807114e+01    0.3181178    0.2077269 -53.21  0.001206388    1.840    0.457
       473  -8.2598    139.8374     56.3384   8.3569599115e+01   4.2692975940e+01    0.1930151    0.1795444 -52.42 0.0003775843    1.173    0.147
       474  -8.7723     44.1464     55.7066   1.1291298965e+02   6.0209246832e+01    0.2044942    0.1570222 -48.55 0.0007611896    1.400    0.286
       475  -8.1629    152.5036     54.0082   8.0079959188e+01   3.9991090424e+01    0.2078504     0.145962 -34.25 0.0007497681    1.540    0.350
       476  -8.9104    105.7071     53.3309   9.1399868751e+01   5.0733544186e+01    0.2392628    0.1646963 -45.04 0.0006308177    1.661    0.398
       477  -9.3837     92.3569     50.6104   9.4441272887e+01   5.3771596461e+01    0.3391915    0.2126203 -46.26  0.001101532    1.898    0.473
       478  -8.4846     75.8035     51.3472   1.0004276020e+02   5.6569891629e+01    0.3427934    0.1052244  32.95  0.001101917    4.261    0.765
       479  -7.9864    144.7051     49.3288   8.0349590335e+01   4.2561948891e+01    0.1429929    0.1105938 -75.14  0.000262303    1.631    0.387
       480  -7.7457    163.5400     48.4657   7.6277464076e+01   3.8070857126e+01      0.14474    0.1310946  58.24 0.0002708411    1.046    0.044
       481  -8.7425    120.9606     47.6613   8.5409679315e+01   4.8312006402e+01    0.2229453    0.1973791 -21.66 0.0004963699    1.198    0.165
       482  -8.4620    112.0550     47.0605   8.7543990809e+01   5.0337540717e+01    0.2061069    0.1945054  25.36 0.0005582443    1.070    0.066
       483  -9.1931     81.9859     46.4721   9.6286742579e+01   5.6281064546e+01    0.2446779     0.186257 -27.53   0.00058151    1.294    0.227
       484  -8.5520     45.0426     44.7411   1.0891533829e+02   6.1980420170e+01    0.1949719    0.1495919 -40.40 0.0005464998    1.357    0.263
       485  -8.7611     16.4806     44.7690   1.2042736262e+02   6.4707068133e+01    0.1809974    0.1722637 -55.04 0.0007543878    1.471    0.320
       486  -8.7414    132.9671     43.6105   8.1204356166e+01   4.6136282855e+01     0.254911    0.1900845 -53.75 0.0007624567    1.621    0.383
       487  -8.9908     58.1055     42.6795   1.0322981837e+02   6.0621548770e+01    0.2515263    0.1669215 -48.89  0.001104893    1.905    0.475
       488  -9.6849      5.3350     42.4786   1.2437417600e+02   6.5841088482e+01     0.263387    0.1875338 -75.86  0.001381152    2.200    0.545
       489  -7.9233    101.6459     43.3239   8.9166373828e+01   5.3026698633e+01     0.130409    0.1096484 -84.35 0.0007046824    1.762    0.432
       490  -8.7451     93.1108     42.8478   9.1511605145e+01   5.4772347800e+01    0.2837593    0.1595171  21.91  0.001258544    2.258    0.557
       491  -9.3486     69.5400     41.6156   9.8739101377e+01   5.9077430097e+01    0.3113911    0.2220863 -50.76  0.001001243    1.927    0.481
       492  -8.7883    105.9823     41.3786   8.7277319588e+01   5.2406178413e+01    0.2366456    0.1850234 -46.71 0.0005644017    1.551    0.355
       493  -8.3529    206.2037     41.5842   6.7636920264e+01   2.8443664987e+01    0.1908073    0.1156497  57.06 0.0003340459    1.601    0.376
       494  -8.0059    140.2956     41.6655   7.8965149816e+01   4.4668187411e+01     0.139491    0.1080175 -74.28 0.0003320248    1.645    0.392
       495  -8.5763     36.6515     40.8015   1.1085780463e+02   6.3563678710e+01    0.1938851    0.1354212 -41.68 0.0005906359    1.413    0.292
       496  -8.5484     95.2202     37.9897   8.9162431418e+01   5.5030522923e+01    0.1849098    0.1806567 -48.40    0.0008306    1.300    0.231
       497  -8.1828     80.3304     36.3244   9.3165134190e+01   5.8022119518e+01     0.234778    0.1478488 -51.60  0.000851403    2.454    0.593
       498  -9.5047     26.0521     35.5121   1.1336776888e+02   6.5466032802e+01    0.2903365    0.1885268 -52.69 0.0009269161    1.895    0.472
       499  -8.4315    200.8495     35.8243   6.6964313045e+01   3.0515510983e+01    0.1991626    0.1685423  65.75 0.0004813244    1.161    0.139
       500  -8.1465    125.8334     35.8108   8.0358156980e+01   4.8792376677e+01    0.1740896    0.1596176 -86.46 0.0003787168    1.282    0.220
       501  -8.7913    111.7084     34.8408   8.3505919896e+01   5.2045367563e+01    0.2358169    0.1782147 -46.77 0.0007981337    1.622    0.383
       502  -8.8930    119.2590     33.6014   8.1195717721e+01   5.0545246904e+01    0.2277814    0.1566043 -40.38 0.0005708837    1.672    0.402
       503  -8.9571     48.3343     33.4003   1.0350495041e+02   6.3325428516e+01    0.2077274    0.1733512 -27.05 0.0007085518    1.283    0.221
       504  -8.5515     60.5215     32.5499   9.8574498352e+01   6.1754822035e+01    0.1753648    0.1691649 -69.67  0.000553425    1.635    0.388
       505  -9.0012     72.0248     31.4327   9.4091302055e+01   6.0094274128e+01    0.2136305    0.1695349 -39.17 0.0006846781    1.537    0.349
       506  -8.0018    139.4730     31.5356   7.6010274694e+01   4.6129465719e+01    0.1389671    0.1214907  50.89  0.000138535    1.017    0.017
       507  -8.3656    101.6711     29.5548   8.4328810119e+01   5.4796654290e+01    0.2066214    0.1549258 -49.11 0.0007804958    1.755    0.430
       508  -8.6696    208.8204     27.4938   6.3974021947e+01   2.9639043323e+01    0.1943327    0.1697265  61.30 0.0006033866    1.255    0.203
       509  -8.7759     81.3883     27.5341   8.9542220997e+01   5.8959507903e+01    0.2314861    0.2006196 -86.20 0.0007999998    1.902    0.474
       510  -8.8409      3.7122     27.8544   1.2050833347e+02   6.8398955191e+01    0.1830471    0.1320816 -54.28  0.001207306    1.627    0.385
       511  -8.5956     91.7965     26.6656   8.6063729272e+01   5.7108909755e+01    0.2148989    0.1576714 -52.63 0.0009113511    1.993    0.498
       512  -9.1077     13.0133     30.4365   1.1722570670e+02   6.7358202056e+01    0.2218757    0.1462142 -56.79  0.001252018    1.976    0.494
       513  -8.9109    183.8258     23.9189   6.6320651812e+01   3.6157015094e+01    0.2717919    0.1577685 -82.36  0.001238551    2.100    0.524
       514  -8.1860    104.6314     23.2970   8.1318748125e+01   5.4890685235e+01    0.1236032    0.1022982 -86.31 0.0007030186    1.729    0.422
       515  -8.1097     34.4895     23.4649   1.0525029905e+02   6.6399948032e+01    0.1137995   0.09063941  -7.72 5.634581e-05    1.087    0.080
       516  -9.7474    230.2600     20.4382   6.0099552927e+01   2.5480679831e+01    0.3323408    0.2042634 -42.34 0.0009927318    1.624    0.384
       517  -8.8939     63.5422     21.0997   9.2988986453e+01   6.2756849246e+01    0.2634602    0.1703187 -47.19  0.000973778    2.387    0.581
       518  -8.7671     48.4617     21.8516   9.8909592862e+01   6.4882956986e+01     0.185972    0.1703423   4.76 0.0005974437    1.386    0.279
       519  -8.3354    120.5458     21.4650   7.6844476564e+01   5.1625355150e+01    0.1316638    0.1153766  47.84 0.0001414857    1.047    0.045
       520  -8.3713     19.5341     21.5607   1.1102694042e+02   6.8174693488e+01    0.1103976   0.08355719 -14.85 0.0001762847    1.047    0.044
       521  -9.0197     73.9764     19.4239   8.8780446800e+01   6.1213000553e+01    0.2422365      0.16054 -39.82 0.0008210348    1.912    0.477
       522  -8.2252     38.8841     18.5802   1.0141858288e+02   6.6533594077e+01    0.1795344    0.1193228 -30.27 0.0008017702    1.448    0.309
       523  -8.1752     87.8317     17.8450   8.3914153579e+01   5.8843699131e+01    0.1509719    0.1472788  22.31 0.0004055585    1.295    0.228
       524  -7.7548    112.5600     16.5576   7.7009705069e+01   5.3885769882e+01    0.1282647    0.1112738  44.95  7.94123e-05    1.057    0.054
       525  -7.9659     30.1826     16.2366   1.0413554477e+02   6.7844452206e+01    0.1368378    0.1192323  -8.99 0.0006175698    1.372    0.271
       526  -7.9210    191.7179    249.7595   1.1598677971e+02  -5.8398796753e+00    0.2026913   0.08716567  47.63 0.0008142443    2.360    0.576
       527  -8.0683     16.7775     14.0068   1.0924549872e+02   6.9475041833e+01    0.1361202    0.0722089 -35.61 0.0003816557    1.614    0.380
       528  -9.2072     21.5457    248.3459   1.4782090004e+02   2.0693575366e+01    0.1934511    0.1250276  65.65 0.0005648483    1.152    0.132
       529  -9.1281    242.9483    246.7025   1.0581299778e+02  -1.3459396663e+01    0.3186465     0.147166 -30.89  0.001654178    2.250    0.556
       530  -8.3530    218.5243    248.0694   1.1056911665e+02  -9.9548036570e+00    0.1673306    0.1185535 -31.92 0.0006862139    1.565    0.361
       531  -8.7541    175.6943    247.6887   1.1880959376e+02  -2.8026032557e+00    0.2737356    0.1801207  65.33  0.001000376    2.243    0.554
       532  -8.4507    156.1716    248.1952   1.2275000067e+02   4.9348223660e-01    0.1747436    0.1384793  63.71 0.0004790304    1.368    0.269
       533  -9.6188    147.1685    246.1119   1.2424831183e+02   2.4096664012e+00    0.2908426    0.1733709  61.32  0.001403811    1.980    0.495
       534  -8.6002    132.2590    247.8021   1.2743384218e+02   4.6874208183e+00    0.2389665    0.1683812  68.65 0.0007586375    1.548    0.354
       535  -8.8942    103.7499    246.8843   1.3290118034e+02   9.6033831311e+00    0.3375363    0.1654672 -75.89  0.001529022    2.866    0.651
       536  -8.6568     34.7013    248.0352   1.4560814136e+02   1.9210967982e+01    0.2111079     0.110976  62.69  0.001159359    1.520    0.342
       537  -8.7101    232.5007    247.2190   1.0781399731e+02  -1.1988034606e+01    0.1796886    0.1493947  33.60 0.0005950414    1.320    0.243
       538 -10.0224    224.0965    244.1877   1.0887012867e+02  -1.0292669259e+01    0.4032237    0.2482588 -43.90  0.002260041    2.048    0.512
       539  -8.8044    210.9597    246.5580   1.1175869002e+02  -8.5392390068e+00    0.1989326    0.1778919 -56.44 0.0006724838    1.601    0.375
