#   1 NUMBER                 Running object number                                     
#   2 MAG_AUTO               Kron-like elliptical aperture magnitude                    [mag]
#   3 X_IMAGE                Object position along x                                    [pixel]
#   4 Y_IMAGE                Object position along y                                    [pixel]
#   5 X_WORLD                Barycenter position along world x axis                     [deg]
#   6 Y_WORLD                Barycenter position along world y axis                     [deg]
#   7 A_WORLD                Profile RMS along major axis (world units)                 [deg]
#   8 B_WORLD                Profile RMS along minor axis (world units)                 [deg]
#   9 THETA_WORLD            Position angle (CCW/world-x)                               [deg]
#  10 FWHM_WORLD             FWHM assuming a gaussian core                              [deg]
#  11 ELONGATION             A_IMAGE/B_IMAGE                                           
#  12 ELLIPTICITY            1 - B_IMAGE/A_IMAGE                                       
         1 -11.4648      2.0516     22.3849   1.0258709934e+02   7.2824424809e+01    0.4739794    0.1877856 -53.76  0.001611508    2.248    0.555
         2 -11.4099     39.4956     20.2861   7.7960411765e+01   6.8972441848e+01    0.4140169    0.3984667  82.77  0.002695538    1.680    0.405
         3 -10.2397     20.5931     17.1405   8.7413499422e+01   7.2071911951e+01    0.2665466    0.1669575 -14.76  0.001104071    1.503    0.335
         4 -10.9763     13.8660     15.8570   9.1239910758e+01   7.3020873416e+01    0.2808889     0.259126   1.32  0.001326031    1.405    0.288
         5 -10.3188     15.4073      8.6347   8.6199121867e+01   7.3992514250e+01    0.2976202    0.1570498  -5.34  0.001170693    2.284    0.562
         6 -11.2067     34.8439     12.8689   7.6488612837e+01   7.0733728016e+01    0.3195866    0.2877665  -4.29  0.001001057    1.295    0.228
         7 -11.3502     37.0439      8.1359   7.2599665115e+01   7.0977342887e+01    0.4523804    0.2896874  30.93  0.002076506    1.326    0.246
         8 -11.5897     30.3834      7.3994   7.5870880605e+01   7.2136067334e+01    0.4500084    0.2735344  26.32   0.00258192    1.418    0.295
         9 -11.4939     66.2132     13.5385   6.2618495003e+01   6.4844001195e+01     0.383103    0.3113211  89.72  0.001420133    1.905    0.475
        10 -10.0866     44.6851     10.9972   7.0345179782e+01   6.9317867401e+01    0.4107173    0.2170103   8.53  0.001364788    2.722    0.633
        11 -10.4921    134.9505     11.4570   4.5395747778e+01   4.8809374671e+01    0.2113926    0.1919932  10.28  0.001334024    1.289    0.224
        12 -10.0864     85.9269     11.5088   5.5432087507e+01   6.0690622336e+01    0.2411254    0.1902209 -10.61  0.001421437    1.404    0.288
        13 -10.0017     22.4240      9.9379   8.2246381720e+01   7.2933242884e+01    0.3548331    0.2381095   9.01  0.002147985    1.298    0.230
        14 -10.4385    126.0059     11.0397   4.6672253970e+01   5.1057288724e+01    0.1954797    0.1685169  61.32  0.001197669    1.034    0.033
        15  -9.6078    104.1924     10.0889   5.0427334492e+01   5.6489130134e+01    0.1694651    0.1493344 -69.66 0.0006253522    1.322    0.243
        16  -9.3062     93.1393      9.9070   5.2878137971e+01   5.9150271351e+01    0.1833569    0.1312555  37.30            0    1.291    0.225
        17 -10.6527     57.5574      8.2347   6.3212165134e+01   6.7170093369e+01    0.2352116     0.167309  26.62  0.000632827    1.222    0.182
        18 -11.3802     57.6101      2.5860   6.0195804085e+01   6.7694315320e+01    0.4717186    0.2780503  20.62 0.0008599242    1.753    0.429
        19 -11.0209    188.3938      6.6773   3.8014513683e+01   3.6484908440e+01    0.2581849    0.1373124  45.87 0.0009256707    2.424    0.587
        20  -9.9528     70.7752      6.3625   5.7548131351e+01   6.4564820818e+01    0.2872117    0.1704844 -26.41  0.001524883    1.886    0.470
        21  -9.8270     10.5461      6.5726   8.8487789924e+01   7.4840515713e+01    0.2917353    0.1964834  52.33  0.001462934    3.444    0.710
        22  -9.4749    204.3269      6.7075   3.6776090027e+01   3.2973749711e+01    0.1264076   0.07181598 -64.46 0.0002222702    1.622    0.383
        23  -9.2792     93.2558      6.6931   5.1504483949e+01   5.9395731375e+01    0.1197878   0.09875072 -68.40 0.0002375073    1.516    0.340
        24  -9.7228      2.7781      6.5536   9.4433940226e+01   7.5576515183e+01    0.2099049    0.1002139  13.28 0.0007648056    1.983    0.496
        25  -9.3239    120.5212      4.4802   4.5302293938e+01   5.2953744442e+01    0.1331609    0.1117616  61.11 5.577102e-05    1.035    0.034
        26 -10.5825    102.3200      2.3027   4.7759449012e+01   5.7566586673e+01    0.3497468    0.2408493  77.11  0.001418152    1.437    0.304
        27  -9.8784     24.0006      3.2461   7.7200910285e+01   7.3610886833e+01    0.2788835    0.1662463  -3.99  0.001369892    1.744    0.427
        28 -10.9302     19.1109      1.7211   7.9419955893e+01   7.4488846810e+01    0.3064093     0.180958  43.05 0.0008618684    2.145    0.534
        29 -10.3234    230.4629      3.5126   3.4411336211e+01   2.7917232797e+01     0.111665   0.08816218 -66.09 0.0001870079    1.017    0.016
        30  -9.8180    176.1996      2.7933   3.8093872212e+01   3.9620758498e+01    0.1641564    0.1304609  57.92 0.0004190255    1.335    0.251
        31  -9.7008    129.9553      3.4695   4.3514939910e+01   5.0707939168e+01    0.1974407    0.1122163  70.86 0.0003261224    1.511    0.338
        32 -11.0613     80.3651      1.6535   5.2519831826e+01   6.2800732728e+01    0.2964333     0.152852  59.83 0.0008192503    1.649    0.394
        33 -10.7953     11.7271      1.8677   8.4736443210e+01   7.5396614060e+01    0.2003034    0.1463803  22.21 0.0004845695    1.342    0.255
        34  -9.5748      1.3890      2.2020   9.3049600923e+01   7.6388665274e+01    0.1460283    0.1032618 -45.30 0.0009425236    1.657    0.397
        35  -9.0932     67.2689      1.2895   5.6164924185e+01   6.5758416981e+01    0.1309936   0.07972211  31.62 0.0002760981    1.505    0.336
        36  -9.7505     15.4609    213.4769   1.2621829551e+02   2.6423433931e+01    0.1212828   0.09830462  62.37 8.195721e-06    1.032    0.031
        37 -10.1071     30.5061    250.5610   1.2502689967e+02   1.7534933595e+01    0.1150834   0.08850352  51.03 -9.171779e-05    1.020    0.020
        38 -12.3111      5.4491    240.1840   1.2959104215e+02   2.1834386702e+01    0.4897503    0.2967707  25.26  0.003151302    1.699    0.411
        39 -11.8796     17.6514    249.1263   1.2753755170e+02   1.9042550137e+01    0.3281659    0.2422756   8.82   0.00222778    1.793    0.442
        40 -12.0752     10.0540    246.1449   1.2891401495e+02   2.0294201581e+01    0.4682458    0.2470387  57.69  0.002921993    1.543    0.352
        41  -9.4240    249.4855    211.4574   7.4067805671e+01  -3.8991269335e+00    0.1201986   0.08509337  -9.05 0.0008086086    1.042    0.040
        42  -9.7793     20.2163    209.8546   1.2491663654e+02   2.6787062586e+01    0.1960905    0.1326591  57.34  0.001187223    1.293    0.227
        43  -8.8565     56.2940    210.7169   1.1635292370e+02   2.2859750297e+01    0.1337247   0.08564364  56.78 0.0002464601    1.538    0.350
        44 -10.1825      3.2659    205.7690   1.2857897867e+02   2.9106937309e+01    0.1661314   0.09700446   5.52 0.0008869019    2.397    0.583
        45  -9.7250     10.4954    203.4810   1.2680232117e+02   2.9034008998e+01    0.1227495   0.09978748  65.19 6.636497e-05    1.040    0.039
        46  -9.9924     23.5869    196.7792   1.2323938564e+02   2.9415244476e+01    0.2361881     0.188908 -36.25   0.00145098    1.560    0.359
        47 -10.8381     13.7987    192.5897   1.2536551546e+02   3.1228786240e+01    0.2268854    0.1672796  59.47 0.0004947841    1.209    0.173
        48 -10.7248      6.0806    191.9169   1.2720621140e+02   3.1994655716e+01    0.1867791    0.1644586  80.12  0.001282805    1.064    0.060
        49 -10.1806      1.3527    191.0338   1.2829620960e+02   3.2546915232e+01    0.1794548    0.1006368 -86.11 0.0005940534    1.610    0.379
        50  -9.3745     22.4116    179.8443   1.2224839314e+02   3.3507430235e+01     0.172281    0.1084076 -63.53 0.0004535371    1.543    0.352
        51  -9.4275     13.3802    180.6888   1.2467745693e+02   3.4055169238e+01    0.1421059   0.07614356  56.86 0.0007025278    1.799    0.444
        52 -10.5406      5.1904    167.3415   1.2592222203e+02   3.7877446455e+01    0.2736398    0.1714226  65.77  0.001137358    1.528    0.346
        53  -9.5840    226.4717    163.9991   6.9091976463e+01   6.1056317993e+00     0.196384    0.1101595 -33.40 0.0007122026    1.531    0.347
        54  -9.4067    247.4836    155.4701   6.4039096964e+01   4.3759362735e+00    0.1255215   0.09887755 -22.25 0.0001773299    1.012    0.012
        55 -10.7218      3.9583    153.7312   1.2529708469e+02   4.1313686486e+01    0.4199103    0.1419618  23.95  0.001764475    2.956    0.662
        56 -10.3239     15.9684    150.4873   1.2148913519e+02   4.1316222908e+01      0.18606    0.1320901  19.47 0.0007363494    1.566    0.361
        57 -10.0140    237.7739    149.6022   6.4357295674e+01   6.6888697834e+00    0.1450376    0.1239529  45.41 0.0003850815    1.518    0.341
        58  -9.3552     37.1535    146.1365   1.1442682235e+02   4.0618104261e+01    0.1844647    0.1527141  69.18 0.0002624108    1.251    0.201
        59  -9.1290     23.6856    146.6617   1.1873185677e+02   4.1694179359e+01    0.1445375   0.09130014 -42.12 0.0007047241    1.697    0.411
        60  -9.3100    236.6768    138.6647   6.2301584579e+01   8.5726295505e+00    0.1321634   0.08979314  -6.81 0.0007050735    1.711    0.416
        61 -10.1808    212.6030    133.8731   6.5171223755e+01   1.3365302646e+01    0.2280788    0.2019078  55.40 0.0007651376    1.399    0.285
        62 -10.0436      2.6681    133.0386   1.2399655003e+02   4.6608542551e+01    0.3015473    0.1606977  53.63  0.001460824    2.050    0.512
        63  -8.9611     96.2896    133.6944   9.3121406288e+01   3.5723002289e+01    0.1528777    0.1239052  72.97 0.0003870223    1.572    0.364
        64 -11.2191    249.0203    131.1664   5.8995493755e+01   7.8246656270e+00    0.3713941   0.09401762 -41.92  0.001341974    3.460    0.711
        65  -8.9724     24.2607    130.6775   1.1661614482e+02   4.5784775599e+01    0.1375831   0.09810504  69.44 0.0002409639    1.553    0.356
        66 -10.5511     12.1326    129.8212   1.2058935010e+02   4.6878089457e+01    0.2066195    0.1679865  71.18 0.0007767528    1.265    0.210
        67  -9.9622     28.7166    128.0396   1.1473019454e+02   4.6102531777e+01    0.1943228    0.1653691 -68.02 0.0003054448    1.077    0.071
        68 -11.6739      8.7131    121.0849   1.2077610801e+02   4.9335556183e+01    0.3287828    0.2862167 -56.34  0.001226802    1.077    0.071
        69 -11.2858     24.1661    121.4964   1.1538803617e+02   4.8180341421e+01     0.390402    0.2340525  56.61  0.001677518    1.997    0.499
        70  -9.3704     75.8718    120.8283   9.6873588816e+01   4.2286069564e+01    0.1961256    0.1784472  71.40  0.000265553    1.254    0.202
        71  -9.9112     69.1082    117.2863   9.8420320461e+01   4.4200772030e+01    0.2705189    0.1918958 -45.62 0.0007518721    1.358    0.263
        72  -9.4325      1.7247    114.3157   1.2248119247e+02   5.1432450949e+01    0.1296686   0.09054236  67.41  0.000200391    1.565    0.361
        73  -9.1734    139.4238    112.4226   7.5398478070e+01   3.2096176184e+01     0.151903    0.1497724  -8.39 0.0007998657    1.057    0.054
        74 -10.5845     65.6175    110.6961   9.8145938725e+01   4.6366162135e+01    0.3174698    0.2671083  81.37 0.0008826751    1.474    0.321
        75 -10.8218      2.8406    109.0995   1.2149513382e+02   5.2710635808e+01     0.294271    0.1824771  23.99  0.001222894    1.819    0.450
        76 -11.0561      5.5433    105.5772   1.2005757468e+02   5.3478802062e+01    0.3802448    0.1930651  71.39  0.001622075    2.645    0.622
        77 -11.2474     57.6938    107.6870   1.0037813299e+02   4.8222494140e+01    0.2900957    0.2384299 -15.39 0.0007278671    1.272    0.214
        78  -9.9197     28.6896    106.1411   1.1122517738e+02   5.1785171300e+01    0.2376567    0.1526512 -53.72  0.001180513    1.367    0.268
        79 -11.2618     16.3433    105.3307   1.1588730879e+02   5.2922590653e+01    0.4158803    0.1540471 -30.48    0.0014198    3.719    0.731
        80  -9.9577    186.9029    103.0110   6.2566170282e+01   2.3691367713e+01    0.2153203    0.2013002 -38.21 0.0005869228    1.029    0.028
        81  -9.9034    113.5069    102.5574   7.9886637301e+01   3.9698783834e+01    0.1575685    0.1498226   6.73 0.0001186621    1.010    0.010
        82  -9.9491     56.0110     97.1790   9.8481296657e+01   5.1059946926e+01     0.237258    0.1842424 -23.83  0.000749428    1.315    0.239
        83 -11.4355     11.0569     86.3873   1.1492046674e+02   5.8031315013e+01    0.4077458    0.2642834  86.45  0.001841087    1.888    0.470
        84 -10.0815     10.5307     96.4812   1.1682010571e+02   5.5528725661e+01    0.2189856    0.1331574 -41.46 0.0002135945    1.509    0.337
        85 -10.8814     10.9322     92.1434   1.1596001359e+02   5.6599985538e+01    0.3528737    0.1678839  88.74  0.001324036    3.020    0.669
        86 -10.4968      3.2598     95.6344   1.1962776753e+02   5.6104936087e+01    0.2476356    0.1858152 -49.10 0.0005745074    1.161    0.139
        87 -10.6619     19.2497     87.2464   1.1152864144e+02   5.7299889171e+01    0.4300695    0.2305249 -61.33  0.001587458    1.617    0.382
        88 -12.0789     20.7846     92.7701   1.1194710880e+02   5.5809501914e+01    0.3939055    0.2561691 -29.91 0.0004227793    1.543    0.352
        89 -11.2275     24.6073     88.0898   1.0938094286e+02   5.6687283059e+01     0.516066    0.2532094 -55.81   0.00234072    1.717    0.418
        90 -11.9715    125.1774     93.3222   7.3874273682e+01   3.9131972514e+01     0.285425     0.265882  25.72 0.0002306542    1.048    0.045
        91 -10.5761     78.2322     94.0239   8.9150977734e+01   4.8397062301e+01    0.4363963    0.2159929  25.74  0.001613999    2.354    0.575
        92 -11.7286     57.8433     91.6686   9.6311948704e+01   5.2145735753e+01    0.3616298      0.28058  -3.03 0.0005849925    1.379    0.275
        93 -10.4792     43.9998     90.1979   1.0160008620e+02   5.4271704301e+01    0.4279287    0.3095989 -88.35  0.001245777    1.930    0.482
        94 -10.0021     28.6566     92.2883   1.0853868116e+02   5.5303441857e+01    0.2998265    0.1988614   6.58    0.0011774    1.656    0.396
        95  -9.5032     99.3379     89.3034   8.0428838807e+01   4.5473525485e+01    0.1618166    0.1202407   0.94 0.0007038768    1.670    0.401
        96  -9.3122     84.9591     88.0380   8.4950747815e+01   4.8546415891e+01    0.1803745    0.1683342 -16.09            0    1.033    0.031
        97 -12.2860     55.4401     85.8404   9.5680114169e+01   5.3865798334e+01    0.2747155    0.2625742  24.09 0.0002754048    1.150    0.130
        98  -9.6943    124.1058     86.1728   7.2044732674e+01   4.0788745983e+01    0.2443554    0.2081428  12.33  0.001054158    1.267    0.211
        99  -9.8729     72.4737     85.5427   8.8808478779e+01   5.1316221105e+01     0.151249    0.1411472  -8.07 7.871727e-05    1.017    0.016
       100  -8.9731    145.7408     83.3309   6.5756395413e+01   3.6365267346e+01    0.1490764    0.1173258 -68.86 0.0004406249    1.567    0.362
       101 -10.3893      2.9388     82.5038   1.1779836250e+02   5.9390888313e+01    0.2491353    0.1723184 -89.36  0.001144451    1.591    0.372
       102 -10.0566     89.2131     80.4956   8.1090089363e+01   4.9355716644e+01    0.3283903    0.2580032  86.18  0.001156087    1.985    0.496
       103 -10.7598     64.2575     80.4584   9.0487192534e+01   5.3799782434e+01    0.3213165     0.245542 -29.18 0.0009901094    1.281    0.219
       104  -9.0871    250.3243     80.7056   4.8564853282e+01   1.4986434120e+01     0.121712   0.07876381 -59.64 0.0004673042    1.620    0.383
       105 -10.2849     24.5667     79.2086   1.0742001065e+02   5.8867601482e+01    0.2952634    0.2055501 -18.72  0.001238615    1.459    0.314
       106  -9.9608     28.0623     77.2387   1.0534083704e+02   5.9042024904e+01    0.2073601    0.1608633 -29.25 0.0003800742    1.179    0.152
       107  -9.6874    124.4808     79.1767   6.9802999736e+01   4.2036880486e+01    0.2160995    0.1512436 -37.68 0.0005358806    1.460    0.315
       108 -11.3936     10.2375     78.1789   1.1375484359e+02   6.0097181881e+01    0.4110396     0.151653  23.83  0.001719136    2.843    0.648
       109 -10.2150    176.8355     76.8205   5.7671889833e+01   3.0302407370e+01    0.2124087    0.1985448  21.74 0.0008350519    1.173    0.147
       110 -10.4675     55.3113     75.9175   9.2796992629e+01   5.6167774540e+01    0.3788379    0.2655247   7.22  0.001655884    1.557    0.358
       111  -9.6411     41.5727     75.2010   9.8621598529e+01   5.8126345231e+01     0.222353    0.1329956 -53.07 0.0005503131    1.581    0.368
       112 -10.6612     37.0221     75.0237   1.0063912929e+02   5.8680717949e+01    0.3792838    0.2686379 -60.01  0.001292908    1.457    0.314
       113  -9.9903     33.2237     73.3652   1.0193116824e+02   5.9465715671e+01    0.2745938    0.1774437  28.89 0.0007613559    1.643    0.391
       114 -10.3378     20.8143     72.4626   1.0754997234e+02   6.0780866840e+01    0.5162467    0.1907264 -65.16  0.001982392    2.718    0.632
       115 -11.1748     14.7583     75.2729   1.1106210708e+02   6.0533090176e+01    0.4300198    0.2107093  21.92  0.001774309    2.179    0.541
       116 -11.3550    106.6589     71.5941   7.2461488561e+01   4.7464260645e+01    0.4168573    0.3319622  72.87  0.001459346    1.628    0.386
       117  -9.3586     81.3501     73.2443   8.1525360376e+01   5.2372569730e+01    0.2090489    0.1402984 -50.51 0.0007932041    1.655    0.396
       118  -9.2827    216.9721     72.0175   5.0515774628e+01   2.2415405369e+01    0.1561522    0.1296604 -44.33 0.0003538206    1.069    0.064
       119 -11.9915     10.2479     68.9476   1.1182855675e+02   6.2316614174e+01    0.4274778    0.3756939  73.03  0.002663959    1.429    0.300
       120 -10.6206      5.5069     68.7558   1.1409816934e+02   6.2607860170e+01    0.2991154     0.201704  55.41  0.001181761    2.016    0.504
       121 -10.6802      1.3779     66.6152   1.1568655094e+02   6.3295405229e+01    0.2264681    0.1092695 -67.27 0.0005191143    1.817    0.450
       122  -9.1071    100.2371     70.6345   7.4141463782e+01   4.9044634211e+01    0.1452745    0.1196752 -69.24 0.0006915474    1.599    0.375
       123 -10.1623     46.0626     69.5013   9.4859832140e+01   5.8865469497e+01    0.2849346    0.1391168  20.17   0.00116565    2.267    0.559
       124 -10.6539     79.4675     67.1276   8.0121758485e+01   5.3956624703e+01    0.4470186    0.2057924  44.00  0.001731037    2.202    0.546
       125  -9.7834     16.4920     67.5299   1.0843089742e+02   6.2258798808e+01    0.2146489    0.1113271  29.95   0.00066849    2.134    0.531
       126 -10.4722     14.5747     63.6936   1.0842725851e+02   6.3282176372e+01    0.3264661     0.239922  -0.51  0.001144551    1.385    0.278
       127  -9.0688     51.7003     66.2790   9.1261597499e+01   5.8800876441e+01    0.1304524    0.1145914  63.16 0.0001864533    1.541    0.351
       128  -9.5588    166.9409     65.5564   5.6364630321e+01   3.4352491784e+01    0.2028719    0.1369813  59.58 0.0003295356    1.477    0.323
       129  -9.2117    109.6285     64.3039   6.9124960497e+01   4.8110373070e+01    0.1517419    0.1210739 -89.23 0.0007032219    1.755    0.430
       130  -9.8170     96.8161     64.3556   7.3083685022e+01   5.0941397470e+01    0.2115346     0.131225  36.08 0.0001342266    1.592    0.372
       131 -10.4406      6.4478     63.3421   1.1246475242e+02   6.3837655035e+01     0.343404    0.2128412  31.60  0.001846561    1.907    0.476
       132 -10.3379     62.7555     62.2701   8.5042989573e+01   5.7919463137e+01    0.2944259    0.1819552 -34.47 0.0009818882    1.611    0.379
       133 -10.6272     38.6628     61.8819   9.5869466053e+01   6.1458212297e+01    0.2889206    0.1908233 -27.34  0.001236462    1.466    0.318
       134 -13.2606     20.4004     58.1738   1.0391341462e+02   6.4107299756e+01    0.3852219    0.2870043 -63.70  0.001033542    1.462    0.316
       135 -10.4501      1.4037     59.7660   1.1425704080e+02   6.4898376019e+01    0.2367697    0.1051683 -64.35  0.000453168    1.917    0.478
       136 -11.2271      8.3890     57.4980   1.1005831220e+02   6.5082838743e+01    0.5558786     0.327595  24.84  0.002207641    1.888    0.470
       137 -11.1803     83.8678     56.5091   7.4654615900e+01   5.5065949934e+01    0.3832873     0.305954 -53.58   0.00196358    1.544    0.352
       138 -11.3039     88.3026     53.0219   7.1793373393e+01   5.4740544777e+01    0.4970813    0.4086214   0.40  0.002637599    1.266    0.210
       139  -9.3180    193.3076     58.6808   5.0417995617e+01   2.9321544454e+01    0.1404948   0.09425794 -64.80 0.0003436178    1.637    0.389
       140  -9.0489    115.3296     58.2882   6.5471891020e+01   4.7803894177e+01    0.1536123    0.1107418  22.63 0.0003342435    1.618    0.382
       141  -9.5411     48.0416     58.3012   9.0163039981e+01   6.0994741898e+01     0.195023    0.1681604   9.39 0.0003519785    1.103    0.094
       142  -9.9168     71.6865     56.9809   7.9425616054e+01   5.7363749025e+01    0.2063884    0.1658606 -34.05 0.0009930283    1.265    0.209
       143 -10.6055     33.2381     55.5496   9.6434496984e+01   6.3441776124e+01     0.534066    0.2207027 -32.49  0.001837175    2.809    0.644
       144  -9.9832     26.7168     56.9492   1.0025034607e+02   6.3817196356e+01    0.2903087    0.1715672  -5.20  0.001398149    1.881    0.468
       145 -10.0723    104.3306     56.3142   6.7899483418e+01   5.0664374702e+01    0.2301311    0.1528036 -28.56 0.0006107248    1.617    0.382
       146 -10.8007    105.6302     52.6354   6.6201387037e+01   5.0958697787e+01    0.2691304    0.2453326  29.20 0.0005033767    1.025    0.024
       147 -11.3433    114.2294     54.0286   6.4300470169e+01   4.8738696776e+01    0.3180656     0.282663  14.22 0.0006712534    1.161    0.139
       148 -12.1524     65.7033     52.5885   8.0170682013e+01   5.9265590577e+01    0.5431457    0.2404286  38.95  0.002171688    2.175    0.540
       149  -9.1338    168.6460     52.6648   5.2488181263e+01   3.5830202777e+01     0.144819    0.1045158  28.63  0.000704421    1.794    0.442
       150  -9.9010    149.6694     52.1250   5.5651725788e+01   4.0467768027e+01    0.2467926    0.1864313  71.85 0.0006217445    1.350    0.259
       151  -9.8261    121.8324     51.4076   6.1447313878e+01   4.7329516227e+01    0.2302672    0.1960827 -47.07 0.0004171607    1.281    0.219
       152 -11.4854     77.6092     46.9514   7.3240489934e+01   5.7965851904e+01    0.5297938    0.3451783   3.83  0.001569534    2.048    0.512
       153 -11.3161     16.1823     43.0696   1.0139021982e+02   6.7702825695e+01    0.5182333    0.3879132  56.40  0.002879512    2.116    0.527
       154 -10.4196      5.0321     50.8560   1.1015645929e+02   6.6757365570e+01    0.3073324    0.2331157  -8.72  0.001902401    1.283    0.221
       155 -11.4746     10.5003     47.5588   1.0613085395e+02   6.7165082288e+01    0.5611399     0.352439  30.41  0.002382013    1.851    0.460
       156 -10.0159    119.4190     47.3191   6.0638737469e+01   4.8506722342e+01     0.249445    0.1457062 -24.74  0.000589509    1.958    0.489
       157  -9.8493    101.7238     48.0561   6.5669393210e+01   5.2563458330e+01     0.193985    0.1821873   8.34 0.0003999281    1.070    0.066
       158  -8.9158     58.2655     48.6120   8.1788254328e+01   6.1284958956e+01    0.1298211     0.114937 -78.71 0.0006982554    1.701    0.412
       159  -9.8103    154.7423     47.4147   5.3316399430e+01   3.9887582215e+01    0.2207551    0.2118335  16.34 0.0006988823    1.150    0.130
       160  -9.5750    152.3951     44.5994   5.2889143723e+01   4.0834402894e+01    0.2058769    0.1862788 -84.50 7.626863e-05    1.102    0.092
       161  -9.4274    135.8115     46.7602   5.6736276349e+01   4.4600616415e+01    0.1963283    0.1640367 -81.78  0.001045766    1.347    0.258
       162  -9.7333     82.5023     47.4217   7.1649844148e+01   5.6883644256e+01    0.2200705    0.1943567  30.04 5.065836e-05    1.057    0.054
       163  -9.7862     30.8631     46.0630   9.4257161296e+01   6.5664672261e+01    0.1880171    0.1787414 -19.55 0.0004496838    1.260    0.206
       164 -10.6012     25.8870     44.2526   9.6295986911e+01   6.6566747196e+01    0.2986536    0.2174512 -69.40  0.001204927    1.997    0.499
       165  -9.0065      3.3109     46.2811   1.0988847062e+02   6.7852807470e+01    0.1353045   0.07296929 -33.52  0.000407097    1.566    0.362
       166 -11.5862    141.3729     41.7893   5.4039330389e+01   4.3901817091e+01    0.4121794    0.2681136 -68.57 0.0003884433    2.028    0.507
       167 -10.5403     69.2522     42.1183   7.4480652869e+01   6.0403774370e+01     0.246827    0.1910499  41.04 0.0007318628    1.274    0.215
       168 -10.3546     59.5614     41.7876   7.8393648086e+01   6.2253547971e+01     0.246247     0.181413  39.32 0.0005039987    1.367    0.268
       169 -10.1877     35.9936     40.9297   8.9470700899e+01   6.6037477957e+01    0.3630985    0.1978274 -38.98  0.001712559    1.714    0.417
       170 -11.9656     39.3674     32.7007   8.4088405187e+01   6.7043672919e+01    0.4834332     0.349554 -20.23 0.0007155642    1.281    0.219
       171 -10.1301     38.3118     48.7457   9.1374593869e+01   6.4232052433e+01    0.2725856    0.1713894  15.95  0.001326682    1.592    0.372
       172 -10.1490     43.0618     40.3360   8.5553308535e+01   6.5174179655e+01    0.2249035    0.1817627 -22.36   0.00095076    1.143    0.125
       173  -9.7498    152.4968     39.0058   5.1194455467e+01   4.1527819518e+01    0.1966917    0.1353959 -33.70  0.000427758    1.524    0.344
       174  -9.9558    128.1095     38.7513   5.5717217841e+01   4.7554105123e+01     0.201618    0.1816019  87.51 0.0005279355    1.169    0.144
       175 -11.7419    121.4425     37.3852   5.6707956279e+01   4.9360692563e+01    0.3942204    0.3383736  48.59  0.001110378    1.070    0.066
       176  -9.5268     87.2028     39.1784   6.6748942527e+01   5.7134139650e+01    0.1793882    0.1641968  67.91 0.0002976992    1.294    0.227
       177 -10.6696     89.9599     35.9864   6.4574421142e+01   5.6969449493e+01    0.2832895    0.2041473  16.27 0.0004344347    1.541    0.351
       178  -9.7587     97.1075     37.8699   6.3155037583e+01   5.5090389009e+01    0.1940411    0.1514134  25.42  0.001023047    1.286    0.223
       179 -10.2883     22.0028     38.0608   9.6123873046e+01   6.8188063132e+01    0.1994845    0.1677505 -14.28 0.0005483832    1.060    0.057
       180 -10.8380      7.4763     34.0545   1.0346587140e+02   7.0188522387e+01    0.2796772    0.1707727  36.15  0.001309755    2.110    0.526
       181 -10.6951     27.1097     34.7527   9.1788039001e+01   6.8272294868e+01    0.3330555     0.189024 -15.15  0.001179142    1.967    0.492
       182 -11.3167      2.1530     34.7529   1.0709109946e+02   7.0363364245e+01     0.334643    0.2262399 -73.87  0.001906628    1.918    0.479
       183  -9.7434    133.8099     34.5602   5.3163339191e+01   4.6672195022e+01    0.2149847    0.1343161  37.75  0.001007662    1.772    0.436
       184 -10.6647     73.2836     33.3503   6.9172328327e+01   6.0924351985e+01    0.3860586    0.3041793 -48.71  0.001502871    1.635    0.388
       185 -10.7861     18.4636     32.5268   9.5995347532e+01   6.9598352092e+01    0.5064813    0.2379147  10.84  0.002338382    2.327    0.570
       186 -10.5809    128.3814     31.0571   5.3060585303e+01   4.8427923011e+01      0.38678    0.2625934 -77.42  0.001849161    1.936    0.483
       187  -9.5391     85.2252     32.6573   6.4718323144e+01   5.8470032701e+01    0.1891716    0.1144709  42.69 0.0002316925    1.472    0.321
       188 -11.6092     10.0103     29.6664   1.0016382348e+02   7.0874531023e+01     0.486946     0.259954  41.35  0.001184689    2.819    0.645
       189 -10.0128    229.6635    247.8954   8.3462290996e+01  -6.3951116082e+00    0.1823455    0.1174974   7.14 0.0004762343    1.181    0.153
       190  -9.6184      7.0575     20.8884   9.8421850510e+01   7.2753232191e+01    0.2462595    0.1821765 -31.05  0.001430238    1.134    0.118
       191  -9.1692    188.0070     31.0511   4.4108320626e+01   3.4046305331e+01     0.154186    0.1363273 -61.41 0.0003834458    1.068    0.063
       192  -9.7106    166.2147     31.1806   4.6844694094e+01   3.9138374095e+01    0.1830094    0.1416064 -72.08 0.0003618812    1.305    0.234
       193 -10.9218     44.9146     27.4262   7.8743224348e+01   6.7043302560e+01    0.4477386    0.3301504  27.54  0.002596778    1.231    0.188
       194 -10.1660    225.1021    247.4432   8.4204253157e+01  -5.8407756717e+00    0.2069079    0.1419348 -23.96  0.001423119    1.398    0.285
       195 -11.3029     68.5040     26.4259   6.7880489264e+01   6.2844116159e+01    0.2937281    0.2665219 -64.96  0.001753352    1.543    0.352
       196 -10.1846    113.9424     26.0654   5.4343115579e+01   5.2540918402e+01    0.2493377    0.1939385 -31.16  0.001379256    1.423    0.297
       197 -10.1003    100.8657     25.6433   5.7321465018e+01   5.5736934527e+01    0.2319018    0.1851368   7.64  0.001036429    1.382    0.277
       198 -10.6155     59.1767     22.8763   6.9948151463e+01   6.5155016841e+01    0.5073813    0.1637757 -34.99   0.00193154    3.272    0.694
       199 -10.1268     58.2643     19.2559   6.8556482619e+01   6.5791867701e+01    0.2662537    0.2024779  50.99  0.000413114    1.446    0.308
       200  -9.4645     18.7054     25.6802   9.2839509125e+01   7.0834988759e+01    0.2737681    0.1230735 -26.44   0.00105943    2.457    0.593
       201 -10.7686     14.5932     21.7640   9.3679164986e+01   7.1939057102e+01    0.4903918    0.2117212  27.73   0.00239496    2.273    0.560
       202  -9.6028     53.4378     24.3102   7.3155069324e+01   6.6033926827e+01     0.237212    0.1243402 -26.26 0.0009307296    2.025    0.506
       203 -10.7304     34.9842     23.1297   8.1863758566e+01   6.9231848868e+01    0.3150967    0.1918513 -31.07  0.001224165    1.587    0.370
       204 -10.4856     90.8405     22.6867   5.8838855388e+01   5.8416260013e+01    0.3256343    0.2037882  61.72  0.001612202    1.592    0.372
       205  -9.2168     80.6768     23.6377   6.2333937828e+01   6.0603378714e+01    0.1497577   0.09279496  23.91  4.51124e-05    1.783    0.439
       206 -10.7351     75.1572     21.8561   6.3379533960e+01   6.2016009595e+01    0.2615587    0.2023956   8.69 0.0004398221    1.315    0.240
       207  -9.8971     74.6993     18.6713   6.2079827248e+01   6.2478968435e+01    0.2538736    0.1510821  29.57 0.0005130012    1.687    0.407
       208 -10.6378     30.2447     21.1888   8.3578488925e+01   7.0202218657e+01     0.288278    0.1782836  26.87  0.001238028    1.485    0.327
       209  -9.5950    181.4276     20.8248   4.2219089589e+01   3.6683640228e+01    0.1599332     0.124782  -9.59 0.0008802917    1.653    0.395
       210  -9.3497    164.9784     21.3026   4.4242933355e+01   4.0516183840e+01      0.18172    0.1535972  78.79 0.0004035768    1.067    0.063
       211  -9.3912     84.1309     21.4797   6.0303491486e+01   6.0081186333e+01    0.2093043    0.1200704  52.31  0.001012489    1.533    0.348
       212  -9.7032     46.0676     21.3238   7.5143267134e+01   6.7745190032e+01    0.1839963    0.1455417  24.37 0.0004805148    1.116    0.104
       213  -9.8218    119.1881     19.5064   5.0867901440e+01   5.1946809017e+01    0.2001545    0.1725068 -74.57 0.0003130615    1.291    0.226
       214 -10.2803    204.5074     18.5224   3.9461206156e+01   3.1754413633e+01    0.1221707    0.1019684 -71.18 -2.930038e-05    1.013    0.012
       215  -9.4809    141.7605     18.6071   4.6646164482e+01   4.6455454667e+01    0.1848306    0.1173514  81.60 0.0002325611    1.583    0.368
       216  -9.5451     58.2978    248.3124   1.1908288183e+02   1.4988990920e+01    0.1078444   0.08942053 -12.92 0.0003141433    1.602    0.376
       217  -9.4672    125.2448     17.3934   4.8984793647e+01   5.0659981538e+01    0.1761107    0.1191809  75.81 0.0002419345    1.439    0.305
       218 -10.1907    114.9585     17.3054   5.0917943151e+01   5.3203000198e+01     0.198218    0.1479625  60.23  0.000359468    1.168    0.143
       219 -10.1554    106.6750    247.3316   1.0843468028e+02   9.2150994924e+00    0.1283828    0.0834363  52.86 0.0003034711    1.707    0.414
       220 -10.2292     75.6597    247.6845   1.1528052492e+02   1.3067852850e+01    0.1173341   0.09003819  -7.13 0.0007048046    1.705    0.413
       221 -10.6776    234.8727     15.0825   3.6474681852e+01   2.5902927800e+01    0.1835548    0.1450004 -63.69 0.0003285839    1.005    0.005
       222  -9.9424     82.8983     15.9930   5.8270595333e+01   6.0946793200e+01    0.1979448    0.1727512  38.33 0.0003117519    1.036    0.035
       223  -9.6913     31.3435     16.2689   8.0345760955e+01   7.0789020093e+01    0.2305242    0.1524784   3.00 0.0009014819    1.458    0.314
       224  -9.5540    170.9689    246.7575   9.4549116654e+01   7.9180960635e-01    0.1645238   0.08597269  27.02 0.0005220249    1.567    0.362
       225  -9.5152    116.4220    246.4897   1.0619306630e+02   8.0787577647e+00    0.1261893    0.1034675  25.64 -0.0002032466    1.013    0.013
       226 -11.3715      2.9191    248.9465   1.3040729548e+02   2.0390103254e+01     0.453639    0.2527408  42.77   0.00300981    1.390    0.281
       227  -9.9835    154.7831     15.0381   4.3741989008e+01   4.3607317799e+01    0.2403092    0.1708009  72.83 0.0007903523    1.249    0.200
       228  -9.4202     86.4884    245.4337   1.1269364150e+02   1.2146159418e+01     0.125264    0.1018815  35.66 0.0001938251    1.009    0.009
       229  -9.3350      7.3509     14.2759   9.5054237636e+01   7.3899937082e+01     0.129148   0.07327253 -15.71 0.0007005521    1.639    0.390
       230 -10.5169    208.0897     12.9835   3.7909252614e+01   3.1554615002e+01    0.1800629    0.1483502 -70.19 0.0003752629    1.008    0.008
       231 -10.1175     40.0135    243.9888   1.2267329333e+02   1.7805902501e+01    0.2054753    0.1053642  56.05  0.001133539    1.775    0.437
       232  -9.7725     74.0358    243.7460   1.1528628998e+02   1.3997201442e+01    0.1601187   0.08863188  32.68 0.0003902909    1.489    0.328
       233  -9.5445    202.4706    240.4577   8.7318766100e+01  -2.2846520529e+00    0.1240858   0.09148306   3.65 8.846214e-05    1.020    0.020
       234  -9.2494     61.0139    241.0000   1.1792273238e+02   1.6064123748e+01    0.2020921   0.05938447  29.37 0.0007961285    2.899    0.655
       235  -9.8762     35.9893    240.3136   1.2329693143e+02   1.8934357846e+01    0.1699539    0.1302733  44.92 0.0007230185    1.079    0.073
       236 -10.4814    117.7614    239.2262   1.0502199133e+02   9.1739658166e+00    0.1751128    0.1372968   1.50 0.0007667762    1.343    0.256
       237 -11.2441     14.0588    238.7983   1.2779470200e+02   2.1346739978e+01    0.1894653    0.1399143  75.75 0.0005245928    1.223    0.182
       238  -9.4994      3.7543     10.6394   9.5874621038e+01   7.4818086841e+01    0.1419758   0.09713031  17.54 0.0002858606    1.450    0.310
       239  -9.0550    148.5136    238.5197   9.8122160885e+01   5.0843884833e+00    0.1305233    0.1048735  16.59 0.0001161787    1.002    0.002
       240 -10.0348     91.0981    237.3422   1.1083562136e+02   1.3066880399e+01    0.1914473    0.1678743 -36.56 0.0005471531    1.349    0.258
       241 -11.2731     25.5709    235.9706   1.2525528146e+02   2.0827965869e+01    0.2573394    0.1645505  26.00 0.0009881931    1.561    0.360
       242  -9.7758    249.3375    233.9348   7.7864584371e+01  -6.7650673776e+00    0.1569206    0.1060379 -11.37 0.0004200995    1.086    0.079
       243 -12.4791      9.7413    227.2685   1.2816622242e+02   2.4028639215e+01    0.4038189    0.3136747 -86.79  0.001867506    1.276    0.216
       244  -9.2107    123.6805    230.6846   1.0258473228e+02   9.9011661218e+00    0.1331769   0.09405141  -3.86 0.0007039597    1.655    0.396
       245  -9.5489     47.8530    229.8702   1.1997813666e+02   1.9757708979e+01    0.1709217    0.1185902  55.81 0.0004309748    1.292    0.226
       246  -9.7853    221.9992     13.9741   3.7106448029e+01   2.8563085080e+01    0.1416588    0.1142758 -63.66 0.0003976203    1.023    0.022
       247 -11.9566      3.9886    232.5830   1.2958781059e+02   2.3447106876e+01    0.2516152    0.1682042  55.65   0.00171128    1.190    0.160
       248  -9.4710    209.5051    229.5023   8.4215878829e+01  -1.6154013797e+00    0.1252247   0.09429109   0.70 -4.479193e-05    1.001    0.001
       249 -10.9461    140.7767    228.5714   9.8411883578e+01   7.8655465556e+00    0.2329798    0.1811434 -38.74 0.0009346812    1.440    0.306
       250 -10.1828    223.4496    226.4596   8.1122423036e+01  -2.8941997715e+00    0.2462673    0.1280108 -10.63 0.0007757145    2.100    0.524
       251 -10.9138      1.4683    225.3683   1.2982127207e+02   2.5106605903e+01    0.2845457    0.1009821 -83.18 0.0007750966    2.724    0.633
       252 -10.7441      2.4616    220.2017   1.2940083645e+02   2.6090335494e+01    0.2764867    0.1358392  79.49  0.001345732    1.915    0.478
       253  -9.3369     41.3294    222.3116   1.2089139155e+02   2.2027251848e+01    0.1163859   0.09319913 -26.66 0.0007042538    1.669    0.401
       254  -9.3762    167.6490    221.7064   9.1428200158e+01   5.2107683222e+00    0.1390611   0.08937943   0.22 0.0007031074    1.678    0.404
       255  -9.3000    126.5089    220.5560   1.0052865115e+02   1.1386336276e+01    0.1365015    0.1160126  22.51  0.000152379    1.015    0.014
       256 -10.5584      9.0101    217.9147   1.2788362417e+02   2.6031053334e+01     0.250054     0.192778   6.92  0.001524349    1.668    0.400
       257  -9.8338    205.6608    212.4343   8.2059097184e+01   1.4032495524e+00    0.2109405    0.1271356 -15.34 0.0007243376    1.627    0.385
