#   1 NUMBER                 Running object number                                     
#   2 MAG_AUTO               Kron-like elliptical aperture magnitude                    [mag]
#   3 X_IMAGE                Object position along x                                    [pixel]
#   4 Y_IMAGE                Object position along y                                    [pixel]
#   5 X_WORLD                Barycenter position along world x axis                     [deg]
#   6 Y_WORLD                Barycenter position along world y axis                     [deg]
#   7 A_WORLD                Profile RMS along major axis (world units)                 [deg]
#   8 B_WORLD                Profile RMS along minor axis (world units)                 [deg]
#   9 THETA_WORLD            Position angle (CCW/world-x)                               [deg]
#  10 FWHM_WORLD             FWHM assuming a gaussian core                              [deg]
#  11 ELONGATION             A_IMAGE/B_IMAGE                                           
#  12 ELLIPTICITY            1 - B_IMAGE/A_IMAGE                                       
         1 -14.9767    159.8489     41.1700   8.3602213007e+01   3.9865312864e+01       1.5336     1.149675 -22.75  0.004627367    1.361    0.265
         2 -14.6389    172.3530      8.1700   7.0350634174e+01   4.0422750786e+01     1.173454     1.026205  43.61  0.003958616    1.172    0.147
         3 -11.4321    189.8477     14.7167   7.0413518451e+01   3.5177061153e+01    0.2433923    0.1974926  -4.43 0.0008090495    1.340    0.254
         4 -12.2236    168.1582    244.4974   1.2504944937e+02   6.8262348614e+00    0.1571603    0.1397124   9.46 0.0005937119    1.309    0.236
         5 -19.6917     90.7007    234.3945   1.3767315873e+02   1.8414015116e+01     7.207085     4.729351  46.66   0.04708782    1.117    0.105
         6 -14.1666    197.2784    173.6758   1.0972695347e+02   1.1149202255e+01    0.8135213     0.569526 -59.04  0.002462083    2.532    0.605
         7 -10.5856     22.5171    221.1161   1.4919635363e+02   2.8012957485e+01     0.139486   0.08346072 -76.98 0.0007477841    1.810    0.447
         8 -11.7392    125.1289    186.3242   1.2597083830e+02   2.1175127228e+01    0.4545742    0.2229729  58.12  0.001177437    2.768    0.639
         9 -10.2497    218.2640    218.6419   1.1335467342e+02   2.6325428111e+00   0.09095173   0.08337659  39.76 0.0003672378    1.631    0.387
        10 -11.6181     30.8210    182.5859   1.4574613007e+02   3.4028719222e+01    0.2184539    0.1654465  39.95 0.0004457343    1.318    0.241
        11 -11.5159     27.8535    179.5922   1.4619967052e+02   3.4887244347e+01    0.2576552    0.2144377 -24.38  0.001865448    1.901    0.474
        12 -10.4978     25.0397    185.4892   1.4711456005e+02   3.4031498085e+01    0.1525161    0.1175376  77.97 0.0004442991    1.128    0.114
        13 -11.1663     23.6447    215.3056   1.4876389125e+02   2.8867431155e+01    0.1271612    0.1033934 -89.74 0.0004584798    1.357    0.263
        14 -10.3605     13.8735    239.8682   1.5129715892e+02   2.5860350327e+01    0.2237368   0.05439437 -84.68  0.001122801    4.473    0.776
        15 -12.9696    157.1348    178.6052   1.1826881253e+02   1.7237815695e+01    0.3298753    0.2913965  48.10  0.001197112    1.178    0.151
        16 -13.9795    178.2325    172.1856   1.1303437410e+02   1.4613210094e+01    0.6402817    0.4720769 -40.44  0.003844744    1.577    0.366
        17 -11.7714    168.7794    176.1647   1.1555521476e+02   1.5642552189e+01    0.1876213    0.1632492  45.31 0.0006169768    1.203    0.169
        18 -10.9915     26.0560    172.5540   1.4617463541e+02   3.6426368897e+01    0.2359336    0.1711175  54.65  0.001253453    1.144    0.126
        19 -12.2326    231.5358    170.5518   1.0325820062e+02   5.8994061823e+00    0.2225329    0.1702062 -39.64  0.001416556    1.748    0.428
        20 -13.2003     11.3845    206.0726   1.5067405698e+02   3.1548402786e+01    0.3993818    0.2314353  27.53  0.002299672    1.928    0.481
        21 -11.6434    223.9703    164.1471   1.0330957153e+02   7.8924318873e+00    0.2454343    0.1676834 -34.03 0.0006492026    1.633    0.388
        22 -11.5454    237.2557    159.2088   1.0020250943e+02   6.3005626511e+00    0.1519914    0.1422455  -4.42  0.001065281    1.367    0.268
        23 -11.0545     17.6088    154.1703   1.4698907366e+02   4.0898532581e+01      0.28985    0.1567082  88.65  0.001340044    1.633    0.388
        24 -10.6448    219.2750    224.3739   1.1401610105e+02   1.9191084640e+00    0.1394116    0.1294471 -25.12 0.0002377932    1.683    0.406
        25 -12.0432    168.8766    202.6299   1.1962803389e+02   1.1855052386e+01    0.1956252     0.172362  46.17 0.0002642493    1.271    0.213
        26 -10.2236     22.9762    156.2633   1.4585652564e+02   4.0000760239e+01    0.1532862    0.1226971  60.38 0.0004079301    1.098    0.089
        27 -14.3900    134.1453    146.0048   1.1759037442e+02   2.6853817416e+01     1.260226    0.4237309 -55.32  0.004154199    4.250    0.765
        28 -12.2687    139.8323    148.8371   1.1682421534e+02   2.5301551342e+01    0.3037201    0.2922994  89.16  0.001185999    1.154    0.134
        29 -10.3137    184.0410    150.9974   1.0796293308e+02   1.6748389591e+01    0.1957506    0.1674477  84.30 0.0008654754    1.731    0.422
        30 -15.1656    145.5312    145.9738   1.1500982904e+02   2.4777753449e+01      1.08277    0.7805732 -82.62   0.00437094    2.229    0.551
        31 -14.0412    136.0397    127.6623   1.1349340817e+02   2.9998532499e+01      1.85813     0.343479 -50.17  0.004175793    7.838    0.872
        32 -12.5076    174.2319    148.5416   1.0942003079e+02   1.8964848498e+01    0.3121777     0.305848  33.82  0.001365464    1.180    0.152
        33 -10.8479     27.3767    145.6680   1.4403235461e+02   4.1839754394e+01    0.2174909    0.1821055 -80.23  0.001119892    1.192    0.161
        34 -11.3852    130.0676    147.5242   1.1880891684e+02   2.7297553377e+01    0.2073627    0.1233097  42.50 0.0007114803    1.532    0.347
        35 -12.3083    137.6464    197.9848   1.2498217132e+02   1.7368347715e+01    0.5541286    0.2671397  55.74  0.002408541    2.699    0.630
        36 -12.9943    160.4860    128.1040   1.0801776692e+02   2.5085999853e+01    0.4161482    0.3874271 -12.99  0.001897627    1.099    0.090
        37 -13.9466    154.8228    146.6396   1.1310132787e+02   2.2929791501e+01    0.6111215    0.4267028  70.34  0.002943027    2.137    0.532
        38 -11.4794    123.5747    196.9134   1.2765501772e+02   1.9673862608e+01    0.2781254     0.226754 -13.15   0.00182779    1.669    0.401
        39 -12.0934    134.6742    106.5315   1.0897368122e+02   3.4408325842e+01    0.5036334    0.1521216 -42.73  0.001589685    3.437    0.709
        40 -19.1434     73.5962     96.1302   1.2382266547e+02   4.7712561006e+01     17.69758    0.8770422 -57.60   0.02486207   19.028    0.947
        41 -12.6299    202.8502    166.4355   1.0740320647e+02   1.1171291559e+01    0.5137484     0.465011   3.05  0.002466373    1.162    0.139
        42 -13.0955    118.5796    108.4930   1.1357667007e+02   3.7228241630e+01    0.4569446    0.2614651 -49.23  0.002029325    1.790    0.441
        43 -10.8535    205.3627    110.2350   9.5004360218e+01   1.8706518071e+01    0.2915706    0.1857814  41.48  0.001006987    1.544    0.352
        44 -10.9968     45.5011     92.5819   1.3234035738e+02   5.2154233294e+01    0.2150693    0.1890471  55.63 0.0006528511    1.186    0.157
        45 -10.9143     41.8189     92.1482   1.3351010341e+02   5.2648463597e+01    0.2216591    0.1626643 -83.47   0.00046654    1.300    0.231
        46 -11.5198     22.0820    244.2446   1.5008321507e+02   2.4453374776e+01    0.1662564     0.098452  75.29  0.000980511    1.475    0.322
        47 -10.2455    103.9258     81.9198   1.1081539375e+02   4.5668907487e+01    0.2101425    0.1922749   6.55  0.000386204    1.199    0.166
        48 -10.4298    142.7619     79.9722   9.9778397484e+01   3.7735288541e+01    0.2137145     0.197726 -31.23 0.0004720529    1.083    0.076
        49 -14.4140    149.0251     56.0587   9.0816716646e+01   4.0379215458e+01     1.145632     1.001773 -21.46   0.00154663    1.155    0.134
        50 -14.4180    206.1625    179.9269   1.0923677292e+02   8.8616032738e+00    0.7598137    0.5569023  28.07  0.003619025    1.134    0.118
        51 -13.1308    163.5198     32.8732   8.0113158744e+01   4.0015794043e+01    0.4370743    0.3887884 -10.49 0.0008660808    1.158    0.137
        52 -10.7109     13.5237     59.9495   1.3860066287e+02   6.2610221543e+01    0.1705687    0.1530879 -71.14 0.0004165803    1.083    0.077
        53 -10.9022    150.8115    245.3273   1.2808219707e+02   9.0767851357e+00    0.1446671    0.1208233  41.99 0.0003870651    1.213    0.176
