#   1 NUMBER                 Running object number                                     
#   2 MAG_AUTO               Kron-like elliptical aperture magnitude                    [mag]
#   3 X_IMAGE                Object position along x                                    [pixel]
#   4 Y_IMAGE                Object position along y                                    [pixel]
#   5 X_WORLD                Barycenter position along world x axis                     [deg]
#   6 Y_WORLD                Barycenter position along world y axis                     [deg]
#   7 A_WORLD                Profile RMS along major axis (world units)                 [deg]
#   8 B_WORLD                Profile RMS along minor axis (world units)                 [deg]
#   9 THETA_WORLD            Position angle (CCW/world-x)                               [deg]
#  10 FWHM_WORLD             FWHM assuming a gaussian core                              [deg]
#  11 ELONGATION             A_IMAGE/B_IMAGE                                           
#  12 ELLIPTICITY            1 - B_IMAGE/A_IMAGE                                       
         1 -12.7818     73.7128     50.2563   7.5051020884e+01   5.7849373813e+01     1.270797    0.8328772 -48.28  0.006411818    1.766    0.434
         2 -11.2607     79.3755     33.8418   6.6643728373e+01   5.9378334481e+01    0.9155743     0.559361  23.80  0.004533175    1.780    0.438
         3 -12.0347     26.1740     56.3365   9.6646966900e+01   6.2918342567e+01     1.158619    0.7877449   6.03  0.006863462    1.577    0.366
         4 -11.7733     60.1730     46.7421   7.8865305130e+01   6.0657462536e+01     1.292201    0.7389205 -29.09  0.006393961    1.732    0.423
         5 -11.3599     60.8861     36.4397   7.4501912940e+01   6.2236825343e+01    0.9155431     0.516106   9.32  0.003179552    2.566    0.610
         6 -13.2793     42.5594     45.7482   8.5836174453e+01   6.3257346860e+01    0.7571774    0.6207996  55.50 0.0007620846    1.861    0.463
         7 -12.2703    124.8012     27.9834   5.1932688098e+01   5.0315595188e+01    0.9172194    0.5768871  44.68  0.002808942    1.485    0.327
         8 -12.4481    120.2730     57.3361   6.3092400072e+01   4.7264938608e+01     2.401871     1.429926 -69.15  0.008299514    3.726    0.732
         9 -12.4941    117.6716     43.4284   5.9003079341e+01   4.9977037486e+01    0.8377236    0.6258057  88.78  0.002883408    1.898    0.473
        10 -11.4595    165.0943     17.9446   4.1705901896e+01   4.1672093351e+01    0.6377581    0.3673132  24.56  0.002788899    2.834    0.647
        11 -11.3059    144.3389     24.7112   4.7006480132e+01   4.6002307846e+01     1.135166    0.4382406  43.75  0.004263005    2.904    0.656
        12 -11.1417    154.3840     23.7556   4.5015219283e+01   4.3659778982e+01     1.161111    0.7343187  17.72  0.005402694    2.370    0.578
        13 -10.6761    147.1534     16.7705   4.4037393695e+01   4.6159362623e+01    0.4859835    0.3194937  40.09  0.002553578    1.622    0.384
        14 -11.4800    136.7345     22.7805   4.7767999027e+01   4.8054195820e+01    0.8795677    0.3381914  50.10  0.003565126    2.325    0.570
        15 -12.3738    131.2606     14.9825   4.6195206330e+01   5.0167040227e+01     1.471265    0.6292429  61.32  0.006466419    2.009    0.502
        16 -11.2072      7.9794     32.6136   9.7587680754e+01   6.8917477140e+01     2.070817    0.4037553 -49.45  0.008320771    3.244    0.692
        17 -10.2664     47.1071     19.1086   7.2631934923e+01   6.6860542972e+01    0.3338494    0.2553099 -15.11  0.001184687    1.170    0.146
        18  -9.7410     31.8627     12.1857   7.6372336580e+01   6.9890129268e+01    0.1906486    0.1423741  19.32 0.0004760266    1.242    0.195
        19 -11.8873     26.9061     27.9879   8.6114034445e+01   6.8111543740e+01    0.5192972     0.406581  16.27  0.002507514    1.316    0.240
        20 -11.9690     36.8751     17.6107   7.6580298999e+01   6.8503740561e+01    0.7016599    0.4457059 -19.98   0.00425114    1.415    0.293
        21 -12.3565     48.5817     12.9617   6.9068194296e+01   6.7413002138e+01    0.5133374    0.2849812  39.65  0.001559914    1.722    0.419
        22 -11.6876     20.1365     21.9511   8.6986061928e+01   6.9774639443e+01    0.6593133    0.2358756 -40.94  0.003172164    2.350    0.575
        23 -12.6155     16.9722     12.7534   8.4469065910e+01   7.1498012405e+01    0.8195472    0.5153577 -19.30  0.004011841    1.322    0.244
        24 -10.9536    198.3005     29.2736   4.0502417707e+01   3.2418310847e+01    0.5506258    0.3658326 -34.74  0.003005241    1.550    0.355
        25 -12.2657    113.7026     25.3349   5.3509155694e+01   5.3196606338e+01    0.8232496     0.364284  48.62  0.002806379    1.983    0.496
        26 -10.8792    213.5245     25.1723   3.7853620138e+01   2.9404400272e+01    0.4850504    0.3458551  27.82  0.002172521    2.214    0.548
        27 -11.1841     87.4881      7.6825   5.3242112318e+01   6.0744631126e+01    0.5383335    0.3437977  58.82  0.002086741    1.531    0.347
        28 -11.2131     90.8367     21.0271   5.7824719489e+01   5.8698549623e+01    0.5969923    0.3726983 -25.91  0.002391579    1.690    0.408
        29 -11.3198     86.0206     14.1897   5.6392332223e+01   6.0428388689e+01    0.7489241    0.4211025  16.11  0.003357064    2.233    0.552
        30 -10.9026    178.8430     21.0847   4.0751490130e+01   3.8002802629e+01    0.5614484     0.273393  46.17  0.001751492    2.383    0.580
        31 -11.8984     68.1395     17.9905   6.3804542839e+01   6.3500845565e+01    0.5040819    0.4146664  24.65  0.001840216    1.064    0.060
        32 -11.8237    246.9570      6.7845   3.1160023584e+01   2.4336714086e+01    0.5893385    0.4625438   7.67  0.003770153    2.244    0.554
        33 -10.8390    242.0812      3.8900   3.0904176200e+01   2.5636194577e+01    0.3380123    0.1957245  69.62  0.001521797    1.719    0.418
        34 -12.1684    238.1661     15.7463   3.3601500526e+01   2.5143436200e+01    0.9928592    0.3991819  76.93  0.004576102    2.477    0.596
        35 -11.3964    226.7993     15.2028   3.4390968814e+01   2.7619943391e+01    0.6451828    0.3230145 -84.55  0.002343894    2.148    0.534
        36 -12.0610     22.8007     11.6470   8.0762571364e+01   7.1046171641e+01    0.5111138    0.3296865  -6.24  0.002132616    1.381    0.276
        37 -11.0164    211.2874     18.6814   3.6557783988e+01   3.0662992235e+01    0.2518542    0.2340756 -52.86 0.0002937111    1.210    0.173
        38 -11.3039    105.9272     20.3753   5.3542573200e+01   5.5501156837e+01    0.4667068    0.3959496 -25.51  0.001349548    1.291    0.225
        39 -11.5538    192.4831      9.0719   3.6094084460e+01   3.6024446081e+01    0.9001206    0.4894036 -13.55  0.004285106    2.749    0.636
        40 -12.2598    104.5007     12.6587   5.0937895261e+01   5.6596678001e+01    0.4841098     0.482412 -62.54  0.002192573    1.187    0.157
        41  -9.7025      4.5407     12.6583   9.1544209542e+01   7.2581728941e+01    0.2631058    0.1811886  13.96  0.001852176    1.483    0.326
        42  -9.2585      5.3393      9.3011   8.9514394318e+01   7.3043369133e+01    0.1762411    0.1002838 -29.00 0.0005499651    1.377    0.274
        43 -11.4599    212.0325      9.0889   3.4276540635e+01   3.1538458755e+01    0.5348222    0.3399654  -2.66   0.00254781    2.793    0.642
        44 -10.1955     65.9342     10.3037   6.1081536509e+01   6.4750363692e+01    0.3083091    0.1859704  46.02  0.001026587    1.532    0.347
        45  -9.9301     62.4885      6.7755   6.0642393934e+01   6.5735482124e+01    0.3290111    0.2087898  23.11  0.001748004    1.450    0.310
        46  -9.7387    168.7002      9.9008   3.8967324781e+01   4.1605220773e+01    0.3231155    0.1378008  55.06  0.001449017    2.146    0.534
        47  -9.2221    163.1177     10.1101   3.9735713841e+01   4.2934163256e+01    0.1997768    0.1599334  49.58 0.0007276962    1.282    0.220
        48  -9.4559      1.1922      8.0989   9.1460959442e+01   7.3536250817e+01    0.2371454   0.06198319 -46.35   0.00107409    3.047    0.672
        49 -11.4392      2.7414      2.0069   8.7486139791e+01   7.4325607208e+01    0.3971791    0.1800299  10.25  0.002221876    2.340    0.573
        50 -10.1756     12.8856      1.8191   8.1213134605e+01   7.3431885725e+01    0.3143331    0.1517453  25.38  0.001299305    1.979    0.495
        51 -11.9191    234.1524      5.9103   3.1855009832e+01   2.7065453903e+01    0.7787555    0.4022668  89.05  0.004282341    1.848    0.459
        52 -10.9105    218.7525      3.3465   3.2445207458e+01   3.0638682750e+01    0.3152555    0.2594312 -34.84  0.001077623    1.394    0.283
        53 -10.8101    223.6340      1.9110   3.1769102746e+01   2.9721306224e+01    0.4014788    0.1888218  73.19  0.001463077    1.927    0.481
        54  -9.4402     78.4982      7.5325   5.5744548290e+01   6.2603343398e+01    0.2302927    0.1480047  49.99 0.0005819979    1.400    0.286
        55 -11.3172     75.0975      3.5416   5.4988204757e+01   6.3638021327e+01    0.6844747    0.2970974  46.50  0.003360409    1.886    0.470
        56 -10.6414    183.9955      4.9334   3.5914936046e+01   3.8423497853e+01    0.4218402    0.3026337 -37.45  0.002269747    1.478    0.323
        57 -11.0343    176.8295      5.7830   3.6899904562e+01   4.0044693505e+01     0.415451     0.204298  82.59  0.001048469    2.020    0.505
        58 -10.6179    169.2775      2.4184   3.6840790847e+01   4.2154552680e+01    0.2737841    0.1839841 -67.28 0.0001617869    1.534    0.348
        59  -9.5445    154.3152      7.3098   4.0098745688e+01   4.5323400437e+01    0.4343885     0.160391  69.54  0.001787352    2.407    0.585
        60 -10.6636    114.3424      3.5597   4.5411794611e+01   5.5149223717e+01    0.4414498    0.2976671  61.15  0.001375966    1.287    0.223
        61 -11.1884    106.9194      1.8444   4.6271136497e+01   5.6979398334e+01    0.7364851    0.3834464  68.62  0.003628124    1.904    0.475
        62 -10.5821     41.5170      4.4179   6.7849190230e+01   6.9477652832e+01    0.3880487    0.2123345   5.59  0.002017407    2.136    0.532
        63 -12.1611    134.2982      2.5351   4.1555334145e+01   5.0543016450e+01    0.4233543    0.2535704  72.73 0.0005713816    1.533    0.348
        64 -10.1944    142.7153      2.9519   4.0413176874e+01   4.8495178722e+01    0.5897099    0.3000275  89.15  0.002596811    2.482    0.597
        65 -10.2280    122.5695      5.0274   4.4382507877e+01   5.3116447587e+01    0.3784236    0.1677795  63.75 0.0003788765    1.937    0.484
        66  -9.5262    122.5183      1.4116   4.3134930261e+01   5.3416696578e+01    0.2922531    0.1270421  57.74  0.001073321    1.843    0.457
        67  -9.0568     54.8678      4.1033   6.2162012133e+01   6.7345424378e+01    0.1606247    0.1468852  11.34 0.0004024332    1.276    0.216
        68  -9.7216    158.4695      2.4759   3.8143832690e+01   4.4744370447e+01    0.3639436    0.1740803  50.14  0.001737675    2.035    0.509
        69  -9.3176    151.8608      1.3644   3.8665517529e+01   4.6427469362e+01    0.2469399    0.1098375  73.86 0.0007735168    2.056    0.514
        70 -10.3827     82.2308      1.3175   5.1949881979e+01   6.2378858589e+01    0.1974042   0.09740207  54.09 0.0003452504    1.735    0.424
        71 -11.1949    206.2473      2.4129   3.3237846692e+01   3.3516466478e+01     0.537642    0.2113646  78.69  0.001830194    2.390    0.582
        72  -8.7259     29.7276      1.6439   7.1946557225e+01   7.1469271961e+01    0.1201696   0.07153653   1.06 0.0007000522    1.644    0.392
        73  -9.7397    239.8034    146.6025   6.2120314129e+01   4.8606167995e+00    0.2447801    0.1708463 -33.02 0.0006009216    1.239    0.193
        74 -10.0300    142.9662    249.5418   9.9958232319e+01   3.0480891983e+00    0.1765255    0.1717856  14.71  0.001257209    1.182    0.154
        75 -10.7697    249.3992    141.3983   5.9489291388e+01   4.1005735456e+00     0.548062    0.2229698 -31.20  0.002219946    2.440    0.590
        76  -9.1570    107.7208    145.9595   9.1183649491e+01   3.0765862537e+01    0.2159715     0.192826 -61.93 0.0004366682    1.102    0.092
        77 -11.2284     46.5377    146.7254   1.0852230323e+02   3.9543328805e+01    0.7484548    0.3032475 -64.87  0.003093031    2.138    0.532
        78 -10.8241     33.2024    144.2878   1.1191420955e+02   4.1539369545e+01    0.3181938    0.2501273  77.50  0.001173593    1.263    0.208
        79  -9.1479    234.1682    143.7367   6.2440366537e+01   6.3446871211e+00    0.2199471     0.146961 -70.32 0.0009502182    2.761    0.638
        80  -9.9416    133.0229    140.6465   8.3258772589e+01   2.7219260606e+01     0.319274     0.235984 -50.32 0.0008212163    1.342    0.255
        81 -10.1749     27.4539    140.0386   1.1297130898e+02   4.3128768213e+01    0.3666887    0.2018268 -71.77   0.00103358    1.547    0.354
        82 -11.8850     29.9995    132.9315   1.1127906675e+02   4.4668947833e+01    0.6291375    0.3855834 -88.26 0.0003519546    1.704    0.413
        83 -10.7660     21.6224    135.2420   1.1401327214e+02   4.4814116817e+01    0.5187643    0.3115493 -76.11  0.002768183    1.433    0.302
        84 -10.0808     25.4968    135.4794   1.1293407934e+02   4.4431683459e+01    0.2837159    0.1878263 -70.43 0.0009535204    1.264    0.209
        85 -10.3076    217.0182    137.9664   6.4148673787e+01   1.0563649669e+01    0.4176775    0.2760317 -53.23  0.001444749    1.694    0.410
        86 -10.1791     39.7135    138.2503   1.0921851071e+02   4.2401231715e+01    0.3161881    0.2128809  26.16  0.001410509    1.723    0.420
        87  -9.8365     79.9876    137.0987   9.7213913439e+01   3.7565141299e+01    0.4811907    0.2873356 -27.59  0.001900759    2.533    0.605
        88 -10.2721     67.0579    136.0419   1.0081474362e+02   3.9694286417e+01    0.4201446    0.1971849 -49.08   0.00116325    2.038    0.509
        89 -10.3369     47.1944    135.7694   1.0664650472e+02   4.2223291416e+01      0.47255    0.1778355 -63.99  0.001328216    2.304    0.566
        90 -10.5365     92.9932    131.3170   9.2191979244e+01   3.6915829947e+01    0.6837714    0.3341247 -56.74  0.002669888    2.004    0.501
        91  -9.6701    244.9442    134.5040   5.8712891933e+01   6.0236593041e+00    0.1769199    0.1361958  47.03 0.0004343785    1.526    0.345
        92 -10.0382     74.1378    132.5468   9.8032565271e+01   3.9574247454e+01    0.3288254    0.2149669 -29.67  0.001458147    1.965    0.491
        93  -9.9202     61.4566    132.4957   1.0182536242e+02   4.1330498819e+01    0.3647404    0.3077346  -4.90  0.002001543    1.438    0.305
        94  -9.7595     39.0103    133.1104   1.0864738432e+02   4.3761432404e+01    0.2683314     0.200016  19.96 0.0008747881    1.608    0.378
        95  -9.7250    104.0216    130.9321   8.8916153508e+01   3.5082691839e+01    0.2231189    0.2159563 -24.34            0    1.063    0.059
        96 -10.7896     10.1788    127.8607   1.1640140257e+02   4.7475969073e+01     0.601387    0.2002643 -57.96  0.002618452    2.304    0.566
        97  -9.3625     78.9307    128.6817   9.5798072577e+01   3.9825490064e+01    0.2569155    0.1878374 -48.59 0.0005326364    1.297    0.229
        98  -9.7861     81.4349    125.0728   9.4260771996e+01   4.0334285495e+01    0.3460819    0.2356692  41.98  0.001597582    1.558    0.358
        99  -9.0563    223.8551    126.8039   6.0429427104e+01   1.1267769002e+01    0.1927683    0.1566432 -56.04 0.0003984589    1.318    0.241
       100 -10.3139     22.8514    127.0352   1.1256907464e+02   4.6744911628e+01    0.1917241    0.1746354 -66.75 0.0003236716    1.106    0.096
       101 -11.4896     18.7829    122.3660   1.1314827182e+02   4.8213739236e+01    0.3122797    0.1733833 -62.66 0.0002201587    1.450    0.310
       102 -10.0823      2.3707    126.0671   1.1844564347e+02   4.8399439209e+01    0.2914247    0.1784128  88.69  0.001106361    1.526    0.345
       103  -9.3303     58.4751    118.5088   1.0002209868e+02   4.5210601658e+01    0.2449058    0.1278199 -58.67 0.0006535804    1.705    0.414
       104 -10.8136     55.0408    123.4791   1.0209224232e+02   4.4397142899e+01    0.5672936    0.2946933 -34.31  0.002228087    2.554    0.608
       105 -11.2396     45.1861    119.8177   1.0450979616e+02   4.6441292848e+01    0.6069753    0.3593922 -89.76  0.002657878    2.286    0.563
       106  -9.7009    239.3309    125.6613   5.7664783285e+01   8.5391080360e+00    0.1392106    0.1010535 -63.76  0.000705187    1.740    0.425
       107 -12.2171    103.9772    122.4571   8.6929046654e+01   3.7133060735e+01    0.4395897    0.3943568 -17.83 0.0009609985    1.199    0.166
       108  -9.9315     49.5333    123.1409   1.0375157322e+02   4.5129556045e+01    0.3325609    0.2550366   5.38  0.001234378    1.618    0.382
       109  -8.6236    139.5211    122.4221   7.7165373634e+01   3.0036576528e+01     0.155814    0.1522867 -12.37 9.068006e-05    1.026    0.025
       110  -9.7319     70.7071    121.3572   9.6757730302e+01   4.2857903477e+01    0.3705462    0.2405751 -11.61  0.001185108    2.410    0.585
       111  -9.0028    221.4570    120.4985   5.9394103758e+01   1.2872795512e+01    0.1438916    0.1280593 -40.61 0.0001034303    1.036    0.035
       112  -9.1299    148.2131    120.1940   7.4411492334e+01   2.8658716056e+01    0.2628038    0.1736857  -1.25 0.0009396871    2.745    0.636
       113  -9.4005    185.2483    118.9891   6.5762258325e+01   2.0763515388e+01    0.2104194    0.1251432 -40.52 0.0008897744    1.599    0.374
       114 -11.5027     49.6422     98.4801   9.8609346628e+01   5.1163115710e+01     1.757444      0.59991 -49.71  0.006662512    2.455    0.593
       115 -11.8396      7.0948     88.7987   1.1186271224e+02   5.7040991813e+01      0.64886    0.4490283  15.00  0.001817791    1.754    0.430
       116 -11.5827      9.7980     97.4827   1.1234766538e+02   5.4843817456e+01    0.8782712    0.6554002  70.85  0.001475374    1.595    0.373
       117 -11.5838     17.1524    101.0430   1.1041840944e+02   5.3523357901e+01    0.3642765    0.3087081   0.83 0.0003328621    1.404    0.288
       118 -11.0383     42.4232     94.3165   1.0020526945e+02   5.2948383889e+01    0.3416366    0.2889287  46.83 0.0004900557    1.398    0.285
       119 -11.4348     27.1346     86.2657   1.0399686621e+02   5.6269184120e+01    0.5761561    0.5070588 -30.57 0.0006155425    1.133    0.117
       120 -11.1428     18.7393    106.0475   1.1071371310e+02   5.2205046295e+01    0.2343355    0.1918928 -51.68 0.0002078389    1.104    0.094
       121 -12.1751     34.7525     93.7012   1.0282370428e+02   5.3855110583e+01     1.225593    0.8017948 -45.75   0.00489691    1.329    0.247
       122 -12.2701     42.7595     85.1453   9.7879457844e+01   5.5049864032e+01    0.8846365    0.4619158  17.80  0.003590326    2.311    0.567
       123 -11.8131     24.6670    113.7442   1.1002328592e+02   4.9877012258e+01    0.9770592    0.4695682  19.71  0.004499827    2.525    0.604
       124 -12.2536     25.1617    108.2475   1.0895120299e+02   5.1182132212e+01     1.062573    0.6414823 -15.06  0.005312506    2.237    0.553
       125 -11.7198     18.2973     90.1572   1.0805675703e+02   5.6030521191e+01    0.4731074    0.2636189 -61.49  0.002014249    1.455    0.313
       126  -8.6840     13.6974    118.7134   1.1420109046e+02   4.9473219093e+01    0.1294696   0.08018202 -45.85 0.0003041863    1.561    0.359
       127  -9.7426    113.6861    115.5946   8.2408541951e+01   3.6904197070e+01    0.3212035    0.2287411 -24.81  0.001403701    1.699    0.411
       128  -8.8983     81.3578    116.7091   9.2382686921e+01   4.2399481533e+01    0.2305342    0.1224821  56.12 0.0006593491    2.762    0.638
       129  -9.3592     67.2553    114.2611   9.6294983762e+01   4.5094647568e+01     0.375287    0.2523551 -89.60  0.001650076    2.137    0.532
       130  -9.6739     65.6942    110.6796   9.5990896620e+01   4.6186333062e+01    0.4810827    0.1842088  28.03  0.001723891    3.090    0.676
       131 -10.4135      7.0330    114.4642   1.1569120469e+02   5.0931488345e+01    0.2418503    0.2244978 -35.02 0.0008934403    1.252    0.201
       132 -12.5945      2.1910    111.3618   1.1679739359e+02   5.1951748261e+01    0.3734454    0.2194287 -73.99 0.0005998195    1.375    0.273
       133 -11.2359      3.9549    104.6653   1.1536286175e+02   5.3460494393e+01    0.4343735    0.3484289  47.93   0.00246289    1.494    0.331
       134  -9.0470    126.8180    113.8049   7.8284512309e+01   3.4649454988e+01    0.2132221    0.1892791 -88.02 0.0006385997    1.301    0.231
       135 -11.5688     22.2213     94.9413   1.0756164981e+02   5.4616260807e+01    0.5218643    0.3657211   1.68  0.002779636    1.723    0.420
       136 -10.1999    107.4924    111.9842   8.3263529707e+01   3.8943893971e+01    0.4042039    0.3298462  70.27  0.001392809    1.494    0.331
       137 -10.8594    102.7736    109.2527   8.3945855120e+01   4.0472008708e+01    0.6920291    0.5387819 -30.67  0.003343747    1.353    0.261
       138 -11.0185    170.2668    110.4852   6.6767608348e+01   2.5794691244e+01      0.45522    0.3479068 -38.54  0.001403661    1.273    0.214
       139  -9.7898     48.8862    112.4221   1.0188707336e+02   4.7864942501e+01    0.2544931    0.1864911 -63.72  0.001037369    1.238    0.192
       140 -10.0567    120.3971    109.3645   7.8870306227e+01   3.6977812882e+01    0.3554401    0.2550933 -29.28  0.001145356    1.547    0.353
       141 -11.3911     79.4730    108.3757   9.0967804311e+01   4.4709293684e+01    0.6376197    0.3819171  30.98  0.001299251    1.822    0.451
       142  -9.2917     59.0422    109.6898   9.7955666283e+01   4.7310991427e+01    0.2383453     0.183608 -70.88 0.0004844095    1.334    0.250
       143  -9.8495    132.4417    111.7106   7.6221692100e+01   3.3928284098e+01    0.4203284    0.1900642 -53.87  0.001414831    2.617    0.618
       144 -10.1633    157.3514    106.6545   6.8666306718e+01   2.9497512768e+01    0.3927092    0.2889282 -13.20  0.001640193    1.770    0.435
       145 -10.6786    143.6765    106.1246   7.1821878249e+01   3.2683300972e+01    0.3794996    0.3125255  86.14  0.001464241    1.518    0.341
       146 -11.5305    145.4037     99.9803   6.9703631203e+01   3.3577806369e+01    0.4661214    0.3781907 -33.56 0.0002781987    1.245    0.197
       147 -10.8807     89.4577    104.5274   8.6796926962e+01   4.3970259902e+01    0.5336528    0.3631816 -49.29  0.002499191    1.392    0.282
       148 -10.2534     85.9943    103.7431   8.7691424769e+01   4.4743127032e+01    0.3336728    0.2444305 -35.08 0.0008584363    1.382    0.276
       149  -9.3749    181.6577    104.3177   6.2779114062e+01   2.4431645255e+01    0.1579467    0.1192988 -76.52 0.0007049034    1.715    0.417
       150  -9.5482     57.2566    102.4402   9.6901337920e+01   4.9293934546e+01    0.2786156    0.1800183 -55.67  0.000796241    1.389    0.280
       151 -10.0234    209.9836     97.7514   5.5931141982e+01   1.9332313153e+01    0.2691552    0.2036359 -37.61  0.001388186    1.233    0.189
       152 -11.2701     67.7257     95.6780   9.1631661183e+01   4.9478901026e+01    0.5834677    0.4668365  14.27   0.00302956    1.381    0.276
       153 -10.6389     77.4845     96.9158   8.8655262775e+01   4.7717750601e+01    0.4868473    0.2556769  47.60  0.001593729    2.302    0.566
       154 -10.0121     82.7649     93.4092   8.5935312168e+01   4.7659170956e+01    0.3710073    0.2557178  22.52 0.0009084453    1.650    0.394
       155 -10.7922     77.1405     92.9603   8.7689885168e+01   4.8677821017e+01    0.5006564    0.3932121  -0.13  0.001792492    1.473    0.321
       156  -9.7707     57.0435     97.5109   9.5794398136e+01   5.0495828439e+01    0.2721689    0.1994868 -73.37  0.001381969    1.564    0.361
       157 -10.2247    117.5757     93.2550   7.5151880651e+01   4.1083101808e+01     0.445642    0.3427255   7.07  0.001749163    1.639    0.390
       158 -11.0842    120.8876     88.2226   7.2734613088e+01   4.1425892980e+01    0.7734833    0.3826408 -47.93  0.002960156    2.108    0.526
       159 -10.7203    125.9859     93.9799   7.3024065227e+01   3.9135304767e+01    0.4136831    0.3426901 -36.54  0.001149139    1.196    0.164
       160  -9.9263    122.3184     93.6623   7.3939049958e+01   3.9992057492e+01    0.2367086    0.2221272 -67.65 0.0005943467    1.150    0.130
       161 -10.9559     89.7130     89.9332   8.2661747092e+01   4.7232816279e+01    0.9031115    0.4884045 -24.76  0.003231137    2.897    0.655
       162  -9.4756    120.9575    101.0400   7.6426341316e+01   3.8703273712e+01    0.2520792    0.1939717  -2.12  0.001131738    1.679    0.404
       163  -9.3695    160.8080     93.9192   6.4414034112e+01   3.1247072221e+01    0.2949525    0.2073296  83.76  0.001083605    2.066    0.516
       164  -9.7951    103.1422     93.5592   7.9492755031e+01   4.3937305144e+01      0.33391    0.2616202   5.52  0.001593313    1.537    0.349
       165 -10.3880     99.5701     90.9751   7.9837579638e+01   4.5185952868e+01    0.4968966     0.293356  41.83  0.001406303    1.748    0.428
       166 -10.5402    104.8754     86.4130   7.6848759348e+01   4.5122204355e+01    0.6083274    0.3541689 -22.06  0.002292342    2.527    0.604
       167 -10.9503    113.8217     83.7363   7.3383838979e+01   4.3840656390e+01     0.494964    0.4006281 -68.30   0.00241465    1.526    0.345
       168  -8.8116    137.5911     93.6975   6.9885419531e+01   3.6626369155e+01    0.1659008    0.1218308  11.56 0.0001215664    1.858    0.462
       169 -10.6565    183.5313     85.6430   5.7518309116e+01   2.7465607012e+01    0.7324958    0.2698206 -44.27  0.002530526    2.653    0.623
       170 -10.2910     66.4578     88.7396   9.0205940886e+01   5.1254028893e+01    0.3360292    0.2411778 -12.22 0.0007835306    1.675    0.403
       171 -10.4792     67.1532     82.0771   8.8064390744e+01   5.2637498941e+01    0.3974154    0.3300018 -28.21  0.002209655    1.130    0.115
       172 -10.2468    109.3289     80.7643   7.3780548225e+01   4.5374832732e+01    0.3338015    0.3115207 -21.49 0.0009645896    1.042    0.040
       173 -10.5436     80.3783     84.0180   8.4016037225e+01   5.0133971927e+01    0.4586133    0.3391704 -26.65  0.002293946    1.399    0.285
       174 -11.3929     74.2289     79.0663   8.4647712290e+01   5.2201598961e+01    0.7694421    0.5305097  54.97   0.00366616    1.932    0.482
       175  -9.8548     75.6247     75.1979   8.2954304604e+01   5.2789009639e+01    0.2966268    0.2108846 -37.97  0.001504584    1.318    0.242
       176 -10.4368    165.7311     83.5831   6.0478093180e+01   3.2033502113e+01    0.4010331    0.3417685 -63.48  0.001306379    1.240    0.193
       177 -11.2118    142.7397     84.2842   6.5865894582e+01   3.7308002715e+01    0.5597316    0.3362225  42.39   0.00125941    1.718    0.418
       178  -9.9388     60.2740     83.3405   9.0915393724e+01   5.3332383150e+01    0.2971103    0.2201591 -50.22 0.0007810169    1.255    0.203
       179 -10.7494     57.9785     77.8109   9.0173228070e+01   5.4860048854e+01    0.3207645    0.2532099 -55.93 0.0009459108    1.304    0.233
       180 -11.6774     53.0703     75.9293   9.1475219177e+01   5.5908337369e+01    0.6331849    0.4311502 -53.02  0.002497375    1.401    0.286
       181 -10.8166     47.0454     74.8557   9.3483082464e+01   5.6874681730e+01    0.3574858    0.2469179 -49.86 0.0008091761    1.300    0.231
       182 -10.2531    127.4161     82.9843   6.9379035587e+01   4.1044634514e+01    0.3060102    0.2953949  76.81  0.001249912    1.110    0.099
       183 -10.3135    126.9565     77.4354   6.7802459002e+01   4.2214432732e+01    0.4015201    0.3198912   1.97 0.0009508539    1.515    0.340
       184  -8.6343      3.2734     83.5674   1.1235842329e+02   5.8449361112e+01      0.12313   0.08375108  78.65 0.0003411876    1.837    0.456
       185  -9.2824     21.1960     80.8449   1.0505923435e+02   5.7982767143e+01    0.1817175    0.1675996 -82.35 0.0007604588    1.253    0.202
       186 -10.3916    232.8955     77.8184   4.7824951737e+01   1.7782911405e+01    0.3848937    0.2552899 -36.70  0.002036583    1.389    0.280
       187 -10.7538    152.0103     91.7756   6.5818288005e+01   3.3709615217e+01    0.4629704     0.342332 -66.47  0.001648659    1.668    0.401
       188  -9.6831    103.2464     79.3691   7.5174772361e+01   4.6892190651e+01    0.3145742    0.2278853 -21.89 0.0007746271    1.545    0.353
       189 -11.2072    103.9609     74.1870   7.3307750515e+01   4.7770992800e+01    0.3574124    0.3044038 -49.19 0.0003361592    1.251    0.201
       190 -10.5721     94.2430     76.0660   7.6951913501e+01   4.9313396637e+01    0.5634689    0.3881071  25.72  0.001966768    1.599    0.375
       191 -11.5289     86.0299     73.5403   7.8839293981e+01   5.1339998999e+01    0.7769083    0.5061288  37.00  0.003367003    1.569    0.363
       192 -11.1536     78.4235     67.0538   7.9316797695e+01   5.3959551022e+01    0.6206571    0.4985018 -86.61  0.003119649    1.977    0.494
       193  -9.6962    174.8573    247.1383   9.3279544378e+01  -1.3737200650e+00    0.2292105    0.1902614  22.49  0.001523403    1.019    0.019
       194 -10.6282     81.9584     40.2089   6.8303238379e+01   5.7966419507e+01    0.5051665     0.395552 -53.28  0.002398739    1.688    0.408
       195 -11.2391    127.6360    241.8174   1.0208336820e+02   6.6918563208e+00    0.3152948    0.3056089   8.76   0.00168988    1.178    0.151
       196 -11.7703     14.0146     74.7621   1.0653154774e+02   5.9854986689e+01    0.5220121    0.3423382 -64.14  0.001807639    1.350    0.259
       197 -10.1354     14.7324     67.3360   1.0453957582e+02   6.1455540886e+01    0.3854155    0.2264094   9.29  0.001972432    1.969    0.492
       198 -11.6556      1.9370     71.2499   1.1060845992e+02   6.1301481000e+01     0.625748     0.241455 -69.82  0.002822826    2.350    0.575
       199 -12.5180      5.9877     62.4613   1.0706732326e+02   6.3029818328e+01    0.7056053    0.4303213 -13.79  0.004168201    1.784    0.439
       200  -9.0451    170.6290     77.7241   5.7847207453e+01   3.1913808237e+01    0.1531718    0.1157313  24.61 0.0005185978    1.685    0.406
       201 -12.2292    186.4141     70.4416   5.2950010227e+01   2.9383560921e+01    0.9254218    0.6055253 -43.17  0.002855624    1.470    0.320
       202  -9.9496    184.1837     61.1797   5.0838133415e+01   3.1388291418e+01    0.3156142    0.2512337 -74.71  0.001350606    1.332    0.249
       203  -9.2734     63.5200     76.0062   8.7576133115e+01   5.4479472511e+01    0.5642167     0.364455 -89.32  0.001985806    4.292    0.767
       204  -9.1747     66.4761     74.4807   8.6020018232e+01   5.4369672396e+01    0.2718121    0.1920321 -16.33 0.0007232988    1.593    0.372
       205  -9.1663    197.5150     74.9591   5.2282163255e+01   2.6040360809e+01    0.1966135    0.1299057  -7.15 0.0008093134    2.497    0.600
       206  -9.3123    114.4448     74.9049   7.0448207702e+01   4.5442409647e+01    0.3261776    0.1911368  30.93  0.001333059    2.027    0.507
       207 -11.2084     41.0201     71.1405   9.4792670247e+01   5.8357335703e+01    0.5382462    0.2714856 -48.36  0.002100992    1.680    0.405
       208 -11.5455     32.8114     72.0398   9.8334185536e+01   5.8988409226e+01    0.6462869    0.2571125  26.97  0.002389944    2.737    0.635
       209  -9.2211     24.6686     73.1780   1.0190458517e+02   5.9444877832e+01    0.3955883    0.1312809 -65.46  0.001418991    3.476    0.712
       210  -9.2409     22.8893     66.3904   1.0090152790e+02   6.1073980173e+01    0.3772087    0.3345338 -56.59  0.002520016    1.199    0.166
       211  -9.7340    152.9775     72.9227   6.0144987088e+01   3.6975177775e+01    0.4916692    0.1704808  43.12  0.001512233    3.426    0.708
       212 -11.7531    122.9845     69.0326   6.6210371722e+01   4.4652641868e+01    0.5381516    0.5189984  20.54  0.001653264    1.006    0.006
       213  -9.9071    172.4015     68.7554   5.5000464285e+01   3.3011668681e+01    0.3592115    0.3106653  13.63  0.001344816    1.391    0.281
       214 -10.1113    171.6773     64.5322   5.3949243512e+01   3.3873015526e+01    0.4647622    0.3387507  89.71  0.001560703    1.653    0.395
       215  -9.7414    162.0375     70.7325   5.7589726205e+01   3.5178177212e+01    0.3110595    0.2351196 -60.14  0.001314878    1.460    0.315
       216 -11.4096    219.8146     66.5581   4.6920555959e+01   2.2334856622e+01    0.5263002     0.347336  67.27    0.0020904    1.605    0.377
       217  -9.7085    192.5341     65.7074   5.0685107609e+01   2.8696623499e+01    0.2748317    0.2181088 -81.35 0.0008049809    1.347    0.258
       218  -9.5371     53.2200     65.9996   8.8385198556e+01   5.7987278399e+01    0.2747254    0.1762655  39.17  0.001038191    1.786    0.440
       219 -10.2648    200.0208     63.7891   4.9030640320e+01   2.7243483262e+01    0.5086861    0.3154026  88.49  0.002268472    2.110    0.526
       220 -11.5315     91.3580     63.0975   7.3582811173e+01   5.2354007708e+01    0.9620393    0.4328883  46.03  0.003271268    2.308    0.567
       221 -10.9029     87.5985     56.9352   7.2662268644e+01   5.4175450017e+01    0.5396813    0.2431115 -34.96   0.00148138    2.268    0.559
       222 -10.8281     91.8580     57.1934   7.1357246064e+01   5.3310220209e+01    0.4138331    0.3183887 -34.53  0.002201488    1.293    0.227
       223  -8.8855     64.7979     62.0391   8.2593274062e+01   5.7141417786e+01    0.3661585    0.2463144 -34.62    0.0013873    1.381    0.276
       224 -10.2930     59.4997     63.5631   8.5136997680e+01   5.7622132293e+01    0.3974971    0.2638027 -14.52  0.001976311    1.739    0.425
       225  -9.8220     57.3182     61.3092   8.5231799975e+01   5.8376119826e+01    0.2942162    0.2021924  -1.49  0.000889104    1.677    0.404
       226 -11.4602    234.2429     61.1630   4.3874790289e+01   2.0040071176e+01    0.5715157    0.4028004  68.25  0.002603304    1.512    0.339
       227  -9.4966    160.9649     61.7625   5.5196376977e+01   3.6911966343e+01     0.303722    0.2099647  58.39 0.0008655117    1.417    0.294
       228  -9.5103    105.8988     63.8787   6.9322193168e+01   4.9288072256e+01    0.2942116    0.2112059 -36.64  0.001450794    1.397    0.284
       229 -10.8181    106.9422     58.8563   6.7304122251e+01   4.9941440475e+01    0.3393676    0.2830192 -77.14 0.0008678367    1.622    0.384
       230  -9.0247    248.0000    240.9705   7.8696210585e+01  -1.0612799203e+01    0.1722639   0.05737604 -35.20  0.000703045    2.895    0.655
       231 -10.5070     66.0468     53.8363   7.9226166466e+01   5.8487815103e+01    0.3812973     0.290084 -65.12 0.0008797971    1.972    0.493
       232 -11.3172     26.7768     47.4772   9.3538825207e+01   6.4626945179e+01    0.6861322    0.3293101 -20.21  0.003046958    2.719    0.632
       233 -11.8648     21.1730     46.8261   9.5916225541e+01   6.5244080679e+01    0.6098933    0.4370227 -74.47  0.003492873    2.084    0.520
       234  -9.7538     22.5650     36.9827   9.1819035433e+01   6.6978162862e+01    0.7253774    0.4038684  47.59  0.003441746    3.407    0.707
       235  -9.7872     67.9691    240.4847   1.1405563574e+02   1.5492548562e+01    0.1828396    0.1034649  38.75  0.001027095    1.576    0.366
       236 -11.2349    148.4179    237.7610   9.7265081401e+01   4.1884710661e+00    0.5122151    0.2689433  39.36   0.00215899    1.630    0.386
       237 -11.0156     52.5988     49.0275   8.2790398544e+01   6.1354341467e+01    0.4533967    0.3839295  58.86  0.002681463    1.747    0.428
       238 -10.2911    167.7788    237.5994   9.3285791417e+01   1.2017677331e+00    0.1861496    0.1041152  42.72 0.0009515034    1.674    0.403
       239 -12.0563     58.1917     29.9758   7.2862167334e+01   6.3638073382e+01    0.4980889    0.3049625  21.93 0.0008762599    1.656    0.396
       240 -11.8091     49.1453     30.4274   7.6821977208e+01   6.4946951037e+01    0.7519792    0.3120581  38.24  0.003458891    2.443    0.591
       241 -12.3065     48.5297     60.5192   8.8485128766e+01   5.9696836877e+01    0.7620767    0.5266465  32.30  0.003596295    1.580    0.367
       242 -10.8099    198.4922    232.9241   8.6444898672e+01  -2.7473781006e+00    0.3394645    0.3045465  11.78  0.002299653    1.170    0.145
       243 -10.1913    247.6391    231.9108   7.7232681042e+01  -9.4133233349e+00    0.2495017    0.2142245 -46.28   0.00143444    1.909    0.476
       244 -12.6211    119.3210     37.8841   5.6651173407e+01   5.0360484118e+01    0.8085531    0.5792297 -84.23  0.002916398    2.088    0.521
       245 -10.0662    242.6765    231.8239   7.8080374373e+01  -8.7673911610e+00    0.2430669    0.2088447  44.75  0.001657997    1.841    0.457
       246  -9.3258    147.3321     60.7058   5.7699790505e+01   4.0377921506e+01    0.2653524    0.1715451  61.99 0.0008709556    1.592    0.372
       247 -11.0887     41.0390     57.0628   9.0454402512e+01   6.1279229208e+01    0.3961293    0.2724405  30.94  0.001384677    1.610    0.379
       248 -10.4418    136.3712     56.8435   5.8950267107e+01   4.3610720573e+01    0.6807832    0.4371678  -0.96  0.002779618    2.494    0.599
       249 -10.2410    135.0609     50.7131   5.7275748638e+01   4.4862731100e+01    0.3450498    0.2940106 -89.24  0.001821415    1.354    0.261
       250 -11.4171    145.9607     47.2421   5.3811935209e+01   4.2750573797e+01    0.9934338    0.4195268 -23.37  0.003492554    3.250    0.692
       251 -10.0663    145.5226     39.4629   5.1453632853e+01   4.3923432572e+01    0.2165767    0.2057845  56.21 0.0005569326    1.026    0.025
       252 -11.2444    156.7441     53.1571   5.3473406516e+01   3.9265222980e+01      1.22617    0.9121758 -15.84  0.006112298    1.612    0.380
       253 -10.8016    137.9616     33.2030   5.0942431243e+01   4.6552265520e+01    0.5484762    0.3423153 -61.89   0.00189874    2.173    0.540
       254  -9.4937     23.7869    231.7995   1.2196727563e+02   2.2434761845e+01    0.1654792    0.1005237  62.32 0.0006550926    1.327    0.246
       255  -9.3418     15.3052    233.7728   1.2365424066e+02   2.2908748136e+01    0.1913727    0.1131322 -87.82  0.001237253    1.466    0.318
       256  -9.2434    108.5056    229.5298   1.0455094236e+02   1.1888207044e+01    0.1299445    0.1124242  49.62 8.325566e-05    1.003    0.003
       257  -9.6582    233.6331    223.2377   7.8200708018e+01  -6.3868384425e+00    0.2218203    0.1293688  12.99  0.001197769    1.778    0.438
       258 -11.2608    155.6032     42.1063   5.0361331499e+01   4.1111827409e+01     0.767359    0.3980382  70.64  0.003204543    2.146    0.534
       259  -9.2079      9.9889    217.7431   1.2376975157e+02   2.6682616118e+01    0.1341619   0.08782088  40.93 0.0007175462    1.525    0.344
       260 -10.4363    164.8892    212.4136   8.9888268019e+01   6.0298248653e+00    0.2947427    0.2155153  46.54  0.000836617    1.408    0.290
       261 -12.2424    159.9352     29.8528   4.5945565845e+01   4.1602762023e+01    0.4644558     0.367753 -27.36  0.001080018    1.395    0.283
       262 -11.1630    164.0391     27.6899   4.4667222563e+01   4.0852889180e+01    0.3383392     0.241365 -40.08 0.0004445545    1.459    0.315
       263 -10.6228    245.2672     51.1996   4.0486789546e+01   1.9184118472e+01    0.3165431    0.1822302  83.65  0.001643812    2.005    0.501
       264  -9.0724    238.4397     55.5285   4.2144192198e+01   1.9978042075e+01    0.2172455    0.1086249 -38.45 5.030703e-05    1.769    0.435
       265 -10.5702    240.2630     50.6509   4.0878443622e+01   2.0286409415e+01    0.3242487    0.2683198 -37.12  0.001171135    1.258    0.205
       266  -9.6345    156.7590     63.3997   5.6523808646e+01   3.7668389806e+01    0.3225552    0.2146881  41.24   0.00100748    1.612    0.380
       267  -8.4305      2.3063     56.2872   1.0721363942e+02   6.4532191231e+01    0.1259517   0.06638847 -38.04 0.0001586015    1.569    0.363
       268  -9.6877    187.9132     55.1992   4.8636197239e+01   3.1400035543e+01    0.3152879    0.1751507  56.01  0.001434863    1.780    0.438
       269  -9.2931      7.0361     54.7451   1.0472459785e+02   6.4611992503e+01    0.2370752   0.09615751 -40.95 0.0004653071    1.969    0.492
       270 -10.1622    211.0929     52.8732   4.4763907237e+01   2.6321150566e+01    0.2456682    0.1824262  60.97  0.001356821    1.397    0.284
       271 -10.8109    199.7995     44.9884   4.4277116131e+01   3.0036996419e+01      0.50346    0.2446605  78.74  0.002067945    2.528    0.604
       272 -10.9822    173.7110     48.2873   4.9015864005e+01   3.5830507656e+01     0.564799    0.4073964  83.27  0.002862417    1.491    0.330
       273 -10.0457    176.2847     43.5650   4.7281381018e+01   3.5858574866e+01    0.3815255    0.2299766  57.17  0.001837584    1.588    0.370
       274 -11.5317    114.0075     38.6183   5.8236453231e+01   5.1475361269e+01     0.574548    0.2892789 -19.98 0.0009913794    2.516    0.603
       275 -11.1642    201.8584     48.8875   4.4988434431e+01   2.9014900252e+01    0.7406241    0.3926839 -37.32  0.003468654    1.808    0.447
       276  -9.4642     91.1241     47.9932   6.8255394616e+01   5.4984549896e+01    0.2830047    0.1798379 -39.85  0.001387652    1.647    0.393
       277 -10.5484     12.8837     47.7676   1.0009200944e+02   6.5680070434e+01    0.4037301    0.1583318 -34.21  0.001869005    2.390    0.582
       278  -9.3424    204.5088    208.5079   8.1048726321e+01   1.9141139779e-01     0.132777    0.1151651   4.62 -2.305292e-05    1.032    0.031
       279  -9.7941    153.2535    207.6941   9.1615329828e+01   8.8892545114e+00    0.2389069    0.2098377  55.35  0.000661723    1.239    0.193
       280  -9.4542     61.1731    206.6710   1.1225700928e+02   2.3408796449e+01    0.2098342    0.1579913  85.46 0.0006722952    1.241    0.194
       281 -10.8905     13.9798     23.5485   9.0942851944e+01   7.0067297146e+01    0.3220888    0.1654904 -30.33 0.0003591104    1.648    0.393
       282 -10.4004    238.3676    204.6618   7.3999353158e+01  -4.3451069579e+00      0.24632    0.1832801 -35.01  0.001511178    1.393    0.282
       283 -10.2354     16.7768    202.8530   1.2149464138e+02   2.9229264910e+01    0.3297274    0.1249948 -79.06  0.001561786    2.339    0.572
       284 -10.5613    245.6588    200.8911   7.2019397512e+01  -4.8207347008e+00    0.2132929    0.1520683  12.36 0.0006759795    1.326    0.246
       285 -10.7475    234.3300    196.9266   7.3264914712e+01  -2.5686357698e+00    0.4117209    0.2917399   5.05  0.001550487    1.389    0.280
       286 -11.0111      7.0223    192.8397   1.2286727128e+02   3.2328086015e+01    0.4176382    0.1698211 -55.19  0.002001534    2.786    0.641
       287 -10.7267    139.7617     43.7636   5.3996046721e+01   4.4737001362e+01     0.408802    0.3464715 -37.50 0.0009683777    1.243    0.195
       288  -9.4015    193.9448     46.4609   4.5449384051e+01   3.1214495118e+01    0.2012994    0.1116103 -84.47 0.0008090895    2.572    0.611
       289  -9.1347    101.4728     44.5211   6.3808317493e+01   5.3390426027e+01    0.1999497    0.1742021 -70.15 0.0007594709    1.499    0.333
       290 -10.7685     94.0550     41.1089   6.4755333391e+01   5.5441622837e+01     0.688463    0.2817604  46.99   0.00279353    2.297    0.565
       291  -9.3978     95.0335     36.2345   6.2600253158e+01   5.5928855346e+01    0.2918583    0.2088154  66.49  0.001462367    1.804    0.446
       292 -10.7071    189.1822     41.0277   4.4691719754e+01   3.3086402017e+01     0.528896     0.207333 -27.79  0.002005689    2.989    0.665
       293 -10.1617    231.5767     38.8171   3.9153449485e+01   2.3716542522e+01    0.2891952    0.1877529 -46.57 0.0008869007    1.351    0.260
       294 -10.1144    193.8008     39.0066   4.3539370912e+01   3.2252839885e+01    0.2292984    0.1820196  61.94  0.000458128    1.261    0.207
       295  -9.1221    184.2868     38.7984   4.4785967491e+01   3.4555289646e+01    0.2240136    0.1520523 -54.98  0.001151099    1.488    0.328
       296 -11.2077    176.8161     36.6080   4.5271393542e+01   3.6646245412e+01    0.4114081    0.3192223 -25.81   0.00227217    1.447    0.309
       297  -9.4173    217.1846     38.0475   4.0485676772e+01   2.6974136974e+01    0.2427746    0.1197351 -57.64  0.001099979    2.113    0.527
       298  -9.6874    132.9921     37.2031   5.3291742022e+01   4.7239258154e+01    0.3890667    0.2598706 -88.47  0.001765714    2.153    0.536
       299  -9.4546    206.6798     37.1533   4.1467180940e+01   2.9479962140e+01    0.2193586    0.1668523 -88.96  0.000591744    1.259    0.206
       300  -8.8969      1.3142    200.3198   1.2449317555e+02   3.1162504948e+01    0.1075077   0.07798456 -56.85 0.0005618055    1.653    0.395
       301 -11.8573    106.1383     32.6929   5.8126186825e+01   5.4011996374e+01    0.5487589    0.3188429  19.89  0.002123052    2.378    0.579
       302 -12.1446      4.9118    184.3157   1.2275772138e+02   3.4422980506e+01    0.6221526    0.4610104  78.54  0.003332073    1.091    0.083
       303 -10.8336    240.1137     31.2539   3.6706626908e+01   2.2882459535e+01    0.3971047    0.3209438 -34.81  0.001663445    1.362    0.266
       304 -10.8016    176.1322     30.6226   4.3717436430e+01   3.7556451806e+01    0.4344273    0.2322372  53.17  0.001335787    1.834    0.455
       305  -9.2939     35.8473     31.7789   8.3382948921e+01   6.6485767523e+01     0.151156    0.1408291  -4.60 0.0004909493    1.329    0.248
       306  -9.3009    221.5564     29.8890   3.8140292110e+01   2.7036755624e+01    0.1873813    0.1159117 -36.95  0.001020603    1.574    0.365
       307 -10.6516    189.4261     27.6472   4.1158127262e+01   3.4712403101e+01    0.3595018    0.2886952  12.80  0.001550631    1.724    0.420
       308  -9.1084     99.7095     30.4177   5.9016137198e+01   5.5701410125e+01    0.2234212    0.1210821  52.00 0.0006518961    1.723    0.420
       309  -9.6963     97.6062     26.4225   5.8055922321e+01   5.6641738671e+01    0.2595346    0.2244714 -42.36  0.001181789    1.363    0.266
       310 -10.2925    230.4668     27.2587   3.6706391865e+01   2.5417194526e+01    0.3321309    0.1995666 -39.84  0.001367408    1.540    0.351
       311  -8.7145    195.4587    199.5403   8.1200384771e+01   3.1972590698e+00    0.1353127      0.12237   5.99 0.0002387621    1.059    0.055
       312 -11.3443    183.2534     25.5221   4.1376903288e+01   3.6439175501e+01    0.4986899    0.3232153  56.11  0.002524549    1.519    0.342
       313  -9.9594    250.3430     26.6757   3.4902495690e+01   2.1360440577e+01    0.2262451    0.1511204 -31.91 0.0009480497    1.616    0.381
       314  -8.7946      1.2800     26.6567   9.9036761735e+01   7.0413925184e+01   0.09542415   0.08815106 -80.48  0.000700958    1.631    0.387
       315  -9.2169     82.7770    196.2416   1.0607968884e+02   2.2790926403e+01    0.3336752     0.211476  17.50  0.001551603    2.231    0.552
       316  -9.9450    169.8945    191.4693   8.5069491729e+01   9.1352379277e+00    0.3577493    0.2190503  23.28  0.001198089    1.853    0.460
       317  -9.0498    162.5002    191.0029   8.6613195343e+01   1.0552819402e+01    0.1849367    0.1301841 -76.91 0.0004448014    2.347    0.574
       318 -10.2698    239.7132    184.8355   6.9973899074e+01  -1.4751110913e+00     0.363257    0.2225046 -10.75  0.001122784    1.861    0.463
       319  -9.5408    168.8313     23.8583   4.2863043563e+01   4.0121095233e+01    0.2066596    0.1715192  47.64 0.0007234432    1.272    0.214
       320  -8.9134     59.5396     23.5245   6.9502641749e+01   6.4313576293e+01    0.2048351    0.1656647  14.67  0.001147859    1.059    0.056
       321  -9.9675     60.2593     19.9654   6.7621278658e+01   6.4650945949e+01     0.321849    0.2438905 -56.36  0.001302177    2.219    0.549
       322  -9.1975    223.4243     22.1543   3.6216393200e+01   2.7557442898e+01    0.2022079    0.1320734  84.94 0.0006776846    1.445    0.308
       323 -10.3894    250.3417    178.2018   6.6859098161e+01  -2.0316464626e+00    0.5190598      0.12718 -33.45  0.001649177    4.295    0.767
       324  -9.6437     74.5231     19.4081   6.2222471963e+01   6.2145791155e+01     0.285011    0.1780435  42.79 0.0008643498    1.447    0.309
       325  -9.1562    157.6375    179.7133   8.5555001779e+01   1.3749279587e+01    0.1520508    0.1133741   1.73  0.000702248    1.689    0.408
       326 -10.2311     52.0092    173.6691   1.1068741167e+02   3.2241606385e+01    0.5192463    0.2340892 -87.66  0.001921317    3.169    0.684
       327  -9.8319     27.6867    175.8754   1.1688685737e+02   3.4356445181e+01    0.2330544    0.1715449  50.72  0.000879326    1.346    0.257
       328 -10.6852      5.9969    198.9989   1.2346623243e+02   3.1053402813e+01    0.3277671    0.1297405 -72.62  0.001673308    2.115    0.527
       329  -9.5919    230.2776    175.4451   6.9771932915e+01   1.5554268312e+00    0.2213606    0.1264345  34.19 0.0004609727    1.851    0.460
       330  -9.9323    247.5853    173.9233   6.6468618680e+01  -9.3790451110e-01     0.434763    0.1657432  29.19  0.001574158    4.051    0.753
       331  -8.5177    194.3369     19.2857   3.8448571900e+01   3.4509802326e+01    0.1269086   0.09277754  44.89 0.0007015597    1.629    0.386
       332  -9.8204     38.8946    173.3404   1.1391060463e+02   3.3813768413e+01    0.3232048    0.2038459  43.49  0.001762213    1.590    0.371
       333 -10.3583     35.4915    169.9343   1.1438141625e+02   3.4996040273e+01    0.3223557    0.2327171 -70.59   0.00188055    1.230    0.187
       334 -10.1589    186.3972     15.2382   3.8303765513e+01   3.6825005739e+01    0.2441943    0.2002713  83.84 0.0004377477    1.077    0.071
       335  -9.0409    205.7228     17.4103   3.6800709834e+01   3.2073089228e+01    0.1775538    0.1051309  63.17 0.0009486629    1.631    0.387
       336 -12.1637    153.0120     35.9124   4.8947219866e+01   4.2554807971e+01    0.3560497    0.2953596  43.41 0.0003503283    1.229    0.186
       337  -9.0388    174.1079     16.0386   3.9981553990e+01   3.9686117892e+01    0.1596861    0.1315322  76.90 0.0005257723    1.080    0.074
       338  -8.6612    170.5328    171.5915   8.1004265142e+01   1.3002488317e+01    0.1469755    0.1379103   7.18 0.0002113227    1.018    0.018
       339 -10.0061      9.1569    156.0834   1.1957728380e+02   4.0697802316e+01    0.2735707     0.170207 -68.84  0.001131979    1.340    0.254
       340 -11.6543      9.6397    167.0747   1.2040295498e+02   3.8041936962e+01    0.4791657    0.3750307  67.28  0.002192549    1.200    0.166
       341 -11.3121     13.3905    159.8195   1.1886164412e+02   3.9471832050e+01     0.531306    0.2489662 -63.70  0.002105721    1.795    0.443
       342  -8.7130     94.4740     12.4397   5.3342434530e+01   5.8818605645e+01    0.1284077    0.1124387  38.73 0.0001383903    1.049    0.046
       343  -9.2255    198.0428    167.7638   7.4338257238e+01   8.5702523940e+00    0.2036407    0.1826251   0.86  0.001145149    1.058    0.055
       344  -8.9228    156.4791    166.0516   8.3061875345e+01   1.6870401789e+01    0.2246976    0.1476012 -45.89 0.0005812539    1.533    0.348
       345  -8.9425    152.4388    166.5113   8.4106984018e+01   1.7552053049e+01    0.1497414    0.1440111  -2.53 8.087316e-05    1.025    0.024
       346 -10.3278     19.0325    164.9410   1.1794468707e+02   3.7769815485e+01    0.3042729    0.2641047 -21.86  0.001553749    1.547    0.353
       347  -9.9081    205.0900    162.9682   7.1909600140e+01   8.1689121924e+00    0.3324856    0.2395558  49.72  0.001677043    1.601    0.376
       348  -9.8424    208.5657    160.7279   7.0750454225e+01   7.9441264568e+00    0.4297914    0.1270639 -44.75  0.001369871    3.456    0.711
       349  -9.6691    188.8226    163.9818   7.5436118983e+01   1.1037068779e+01    0.2458168    0.1616746 -15.25  0.001018738    1.961    0.490
       350  -9.6031     41.0743    164.0253   1.1229213687e+02   3.5845281279e+01    0.2626722    0.1511908  76.64  0.000946693    1.980    0.495
       351  -9.9799     27.6760    163.3287   1.1563104170e+02   3.7374193643e+01    0.2726535    0.1615251  45.26  0.001467407    1.720    0.419
       352 -10.3378     28.6856    160.6613   1.1508811047e+02   3.7928128835e+01     0.246143     0.153355 -63.50  0.001342118    1.422    0.297
       353  -9.3906     79.1158    160.2251   1.0167639054e+02   3.1926167331e+01    0.2744156     0.177837  85.04  0.001132136    1.989    0.497
       354  -9.9882    246.4456    158.7135   6.3569935929e+01   1.7138594569e+00    0.2632387    0.1113829 -40.67  0.001143712    2.096    0.523
       355  -9.5859    223.9323    157.0384   6.7084454055e+01   5.8271062641e+00    0.2641039    0.1709802 -54.90  0.001244613    1.968    0.492
       356  -9.3674    215.6028    157.7230   6.8762998050e+01   7.2050507741e+00    0.2300329    0.1603966  -7.06  0.001106244    1.733    0.423
       357 -10.9943     31.9225    153.1965   1.1338614532e+02   3.9451838371e+01    0.6122526    0.4468557  69.00  0.003523049    1.379    0.275
       358 -11.1608     15.8356    147.7516   1.1704871783e+02   4.2201154918e+01    0.5443782     0.332712  73.78  0.001642065    1.685    0.406
       359 -11.7700     13.0497    138.3497   1.1678742714e+02   4.4711016329e+01     1.133942    0.5760092  84.27  0.005367521    2.161    0.537
       360 -10.9037     22.2029    155.0130   1.1614903700e+02   3.9898856088e+01     0.504881    0.2567998  33.96 0.0008398652    2.109    0.526
       361 -11.2173     21.2877    150.6992   1.1592289255e+02   4.1033240936e+01    0.2224538    0.1733923 -79.36  0.000188653    1.063    0.059
       362 -11.7690     24.4691    147.5327   1.1471494109e+02   4.1537039352e+01    0.4085439    0.2068743 -58.13  0.001192528    1.728    0.421
       363 -10.0956    104.6169    154.3078   9.3723448747e+01   2.9283440288e+01    0.3731559     0.285845 -49.52  0.001839705    1.294    0.227
       364 -11.7496      3.7683    148.5354   1.2026507972e+02   4.2893687553e+01    0.6633232    0.3832715 -74.91   0.00236695    1.374    0.272
       365 -11.5252      3.1907    141.6902   1.1978984657e+02   4.4577562964e+01    0.5486276    0.3318996  58.87  0.003138431    1.744    0.426
       366 -10.8414    135.0124     45.7039   5.5654174095e+01   4.5603378214e+01    0.4448928    0.2604989  61.31  0.001004116    1.712    0.416
       367 -10.6169     63.1220    150.6542   1.0448624666e+02   3.6544029941e+01    0.4026183    0.2940902   2.21  0.001531964    1.920    0.479
       368 -10.3874     42.5539    149.3062   1.0999788997e+02   3.9334001939e+01    0.4796943    0.2420353  63.82  0.001987051    2.650    0.623
       369  -9.4546    215.5033    151.4985   6.7430736354e+01   8.3623332583e+00    0.1439104     0.128303 -20.09 0.0008106626    1.011    0.011
       370  -9.6604     71.5472    150.6278   1.0213082549e+02   3.5407413240e+01    0.3604673    0.2577204 -31.44  0.001748976    1.754    0.430
       371  -9.6536    234.7079    149.9758   6.3689640971e+01   5.1658532448e+00    0.2894893     0.194917  -9.01  0.001427109    1.816    0.449
