#   1 NUMBER                 Running object number                                     
#   2 MAG_AUTO               Kron-like elliptical aperture magnitude                    [mag]
#   3 X_IMAGE                Object position along x                                    [pixel]
#   4 Y_IMAGE                Object position along y                                    [pixel]
#   5 X_WORLD                Barycenter position along world x axis                     [deg]
#   6 Y_WORLD                Barycenter position along world y axis                     [deg]
#   7 A_WORLD                Profile RMS along major axis (world units)                 [deg]
#   8 B_WORLD                Profile RMS along minor axis (world units)                 [deg]
#   9 THETA_WORLD            Position angle (CCW/world-x)                               [deg]
#  10 FWHM_WORLD             FWHM assuming a gaussian core                              [deg]
#  11 ELONGATION             A_IMAGE/B_IMAGE                                           
#  12 ELLIPTICITY            1 - B_IMAGE/A_IMAGE                                       
         1 -14.4793     68.3470    144.3453   1.0298132005e+02   3.7577142022e+01     5.049022     2.539895  73.49   0.00601497    4.485    0.777
         2 -13.9366    224.3480     20.6352   3.6588974343e+01   2.7139806954e+01     1.036376    0.9317988  26.85  0.002644341    1.564    0.360
         3 -12.6052    216.3728     28.6132   3.9185948160e+01   2.7987693469e+01    0.5202377     0.431917  36.05  0.001096497    1.620    0.383
         4 -13.8796    199.8160     42.1960   4.4439861366e+01   3.0123653144e+01     1.382367     1.123284  20.62  0.003413676    1.701    0.412
         5 -14.0239    208.4462     36.2564   4.1886880045e+01   2.8862033129e+01     1.407191     1.167841 -33.01   0.00650435    1.336    0.252
         6 -10.3332      2.1356      3.3234   9.0965701983e+01   7.4258731407e+01    0.3381962   0.04561686 -46.30  0.001209623    5.139    0.805
         7 -12.1466    246.6911      2.4061   3.1053873341e+01   2.4376750869e+01    0.5817028     0.238542  80.11  0.002957572    2.305    0.566
         8  -9.5060     43.5006      1.0000   6.7079788297e+01   6.9763181276e+01    0.2395921   0.05855742  44.68 0.0009162966    3.787    0.736
         9 -10.4012    208.7367    197.3765   7.8890353784e+01   1.1620609884e+00    0.2319534     0.163121 -46.26 0.0006561037    1.652    0.395
        10 -10.0584    140.1267    249.7092   1.0125116356e+02   3.6127258615e+00    0.2107198     0.131033  48.17  0.001187114    1.467    0.318
        11 -12.9897     64.2333    174.8351   1.0868034362e+02   3.0642692882e+01      1.32087    0.6460199 -33.22  0.004161575    5.191    0.807
        12 -13.8256     85.3553    223.4776   1.0956788132e+02   1.6802607178e+01      2.54142    0.4694237  43.55   0.00822748    4.046    0.753
        13 -13.7984      3.3968    179.6414   1.2366002807e+02   3.5915759502e+01      2.19374    0.4786004 -79.48  0.001326164    4.105    0.756
        14 -16.0522     37.0308    188.7122   1.1679693903e+02   3.0673450754e+01        9.422     3.587729  79.57   0.03000693    4.979    0.799
        15 -13.1840     34.0163    204.4691   1.1881251064e+02   2.7465842962e+01    0.4724928      0.38713 -46.60  0.001136371    1.638    0.389
        16  -9.0860    151.4996    180.5279   8.7969687039e+01   1.4698904948e+01    0.2447066    0.1451059 -61.37 0.0006267858    2.183    0.542
        17  -9.1269    149.5770    177.5054   8.7841667989e+01   1.5701949961e+01    0.2033004    0.1431672 -59.16 0.0004563652    1.629    0.386
        18  -9.5783     99.3699    180.7166   1.0067917032e+02   2.3996620605e+01    0.2296488    0.1790762 -50.78 0.0006735026    1.372    0.271
        19  -9.8517    144.0749    178.8018   8.9389815893e+01   1.6466796747e+01    0.2547432    0.2226022 -44.35  0.001057088    1.203    0.169
        20  -9.0466    188.3373    174.6718   7.8591798334e+01   8.8633600612e+00    0.1414565    0.1181805  84.96  0.000705187    1.729    0.422
        21 -13.5451     63.8465    158.5687   1.0650951406e+02   3.4655854876e+01    0.5492936    0.4294662 -44.53  0.001405761    1.425    0.298
        22  -9.4409    173.0019    244.1605   9.3904287228e+01  -6.0462335905e-01    0.2955864    0.1840984 -76.94  0.001113436    5.395    0.815
        23  -9.6133    137.6268    167.6595   8.8796310159e+01   2.0137200455e+01    0.2642555    0.1793737  58.09 0.0007931711    1.691    0.409
        24 -15.8177     53.7255    246.6488   1.1804667359e+02   1.6518465623e+01     9.381376     2.700008  27.79  0.009184444   10.802    0.907
        25 -10.6343    134.0000    146.5224   8.5292318482e+01   2.5656252358e+01    0.8045003    0.2077243 -52.32   0.00209849    4.450    0.775
        26  -9.8399    174.7781    148.9207   7.6013241317e+01   1.6695679848e+01    0.2832305     0.217522 -62.57 0.0007485164    1.563    0.360
        27 -12.7857     83.6349    156.2315   1.0075018013e+02   3.2383898701e+01     1.100558     0.690721 -50.21  0.001099802    1.617    0.382
        28  -9.9546    101.0730    138.9270   9.2558685583e+01   3.3739055706e+01    0.3933687    0.2934094  -3.65  0.001757712    1.917    0.478
        29 -10.2786     31.6380    143.4055   1.1327430079e+02   4.2086411193e+01    0.2528867    0.2044779 -62.09  0.001083343    1.160    0.138
        30 -12.4828     86.1982    140.6299   9.7159132563e+01   3.5833630719e+01    0.3031008    0.2615434 -47.92 0.0004003275    1.170    0.145
        31 -11.9784     76.5919    162.6406   1.0370870598e+02   3.1871866925e+01    0.4316794    0.3571865  40.99 0.0004628424    1.237    0.191
        32  -9.3241     72.9891    172.7161   1.0615997921e+02   2.9945156348e+01    0.1847173    0.1655156  63.68 0.0002551241    1.065    0.061
        33 -10.2733     25.6688    134.5409   1.1383765500e+02   4.4806699236e+01    0.2678841    0.1909228  64.63  0.001140523    1.489    0.329
        34 -10.8686    107.4760    131.0305   8.9000819669e+01   3.4484664771e+01    0.5734323     0.339424  38.02  0.002422105    1.724    0.420
        35 -15.6121      8.6545    239.9313   1.2590273863e+02   2.2821461560e+01     2.048386     1.591955 -81.03   0.01585067    1.385    0.278
        36 -10.3898    135.6817    127.9862   8.0546439017e+01   2.9555811499e+01    0.3486807    0.2029998 -54.45  0.001387232    1.852    0.460
        37 -11.5112     66.9403    126.8815   1.0018837270e+02   4.2127042523e+01    0.5331089    0.2990105 -66.34  0.002343801    1.788    0.441
        38 -10.4747     98.3191    142.3067   9.4041040783e+01   3.3397257244e+01    0.3155807    0.2927387 -41.03 0.0009743928    1.124    0.110
        39  -9.6355    160.7337    127.7334   7.4249000763e+01   2.4178163209e+01    0.2583207    0.1281926 -54.35 0.0009031815    2.432    0.589
        40 -11.2701     96.6430    127.0803   9.1244929745e+01   3.7404630917e+01    0.3476269    0.2790061 -15.85  0.001635964    1.537    0.350
        41  -9.5134    115.9722    124.9982   8.5174749395e+01   3.4286285620e+01    0.2514867     0.193948  -8.65  0.001121548    1.724    0.420
        42  -9.6327    106.5086    119.4954   8.6551622107e+01   3.7417729808e+01    0.2392377    0.2320711 -31.44 0.0001565789    1.037    0.036
        43  -8.5667     61.2810    120.2727   1.0064349898e+02   4.4525153773e+01    0.1385942    0.1034702 -32.24 0.0002356503    1.497    0.332
        44  -9.3643    168.2004    113.0096   6.8823332553e+01   2.5575620667e+01    0.2698062    0.1831361 -70.63  0.001082148    2.123    0.529
        45 -10.1210    205.3739    110.3847   6.0656422660e+01   1.7700341676e+01    0.3296483    0.2517413  32.86  0.001074548    1.511    0.338
        46  -9.5619     30.0804    107.8424   1.0847204671e+02   5.0964569182e+01    0.1967214    0.1658414  78.15 0.0007981461    1.304    0.233
        47  -9.9163    134.4969    104.5975   7.4808467422e+01   3.4999313248e+01    0.3358971    0.1550182 -43.92  0.001211631    2.167    0.538
        48  -9.0360    119.3166    104.2870   7.8892400512e+01   3.8346397262e+01     0.156156    0.1239649   0.07 0.0002605333    1.589    0.371
        49 -12.1277    243.8709    102.1736   5.2609169754e+01   1.1138146062e+01    0.4397757    0.2860967  71.02  0.002230597    1.995    0.499
        50  -9.5844     62.0384    100.6281   9.6088807906e+01   4.9195592710e+01    0.3276046    0.1923332  81.27  0.001093588    4.138    0.758
        51 -10.8050     53.2387     91.6958   9.7013123851e+01   5.2420117982e+01    0.4449341    0.1982449 -60.37  0.001424555    2.228    0.551
        52  -9.9659     41.6561     91.9190   1.0125735392e+02   5.3672942261e+01    0.2080936    0.1735147 -18.90 0.0004429944    1.260    0.207
        53 -11.1919    249.9181     87.6977   4.8640587147e+01   1.2286801877e+01    0.2742504    0.1694786 -44.07 0.0007439391    1.380    0.276
        54  -9.7516    234.4618     86.4953   5.0403194006e+01   1.5593428408e+01    0.1378418    0.1208723 -52.32 9.845257e-05    1.010    0.010
        55 -13.4896     19.0735    219.2393   1.2288864174e+02   2.5893344979e+01     0.505356    0.4487674  87.27  0.002007564    1.276    0.216
        56  -9.0569     71.7417     82.8102   8.7978053135e+01   5.1874715647e+01    0.1845139    0.1672627  79.06  0.000529721    1.369    0.269
        57  -9.3760    160.1804     82.1940   6.2268743203e+01   3.3476465008e+01    0.2100857    0.1805703 -76.76 0.0005791758    1.286    0.223
        58 -10.4954    243.4959     77.5125   4.7211937085e+01   1.5155106566e+01    0.1341486    0.1148358 -54.40 3.416988e-05    1.009    0.009
        59  -9.5765     46.4000     61.7609   9.1298454332e+01   5.9795332024e+01    0.1957316    0.1714533  30.20  0.001211293    1.308    0.236
        60 -10.7398     13.5160     60.0038   1.0483208112e+02   6.3140930347e+01    0.2385574    0.1809975 -50.36 0.0004206871    1.095    0.087
        61 -14.7984      9.2287    207.4558   1.2413653155e+02   2.9313397318e+01      1.15267     1.034546  -9.16  0.008073443    1.734    0.423
        62  -9.2879    197.6688    223.0315   8.5667030865e+01  -1.1942582159e+00    0.1721046    0.1495672  -7.19  0.000522393    1.134    0.118
        63  -9.3281     59.8433    197.2348   1.1239996950e+02   2.5992140887e+01     0.191328    0.1485571  69.96 0.0004202967    1.147    0.128
        64 -11.8408    184.5655    215.9826   8.7116089737e+01   2.0738084508e+00    0.3914629    0.3243972 -68.74  0.002253557    1.770    0.435
        65  -9.4345      7.6661     51.2982   1.0522493870e+02   6.5303298903e+01    0.1055419   0.09010743  68.00 0.0003116791    1.649    0.394
        66 -10.1400    136.5834     42.8709   5.5489674246e+01   4.5649912722e+01    0.2558084    0.1975661  67.99  0.000429916    1.305    0.234
        67  -9.2785    138.6885     36.7285   5.3032603173e+01   4.5961635178e+01    0.1870825    0.1575836 -78.83 0.0009636934    1.342    0.255
        68  -8.5340    115.5199     31.4678   5.6506675290e+01   5.2174099304e+01    0.1404119    0.1249119  39.42 8.481627e-05    1.019    0.019
        69  -9.7800    189.5097     15.0591   3.8778561804e+01   3.5907072943e+01    0.1819681    0.1275195 -33.78 0.0005261397    1.548    0.354
        70 -11.3032    194.2461    196.1697   8.1572931187e+01   3.8418599064e+00     1.180096    0.7129608 -71.22  0.003590892    6.180    0.838
        71  -9.7736    109.8860    201.1206   1.0123339127e+02   1.7696133015e+01    0.2059427     0.171619  70.40 0.0003552227    1.216    0.178
