#   1 NUMBER                 Running object number                                     
#   2 MAG_AUTO               Kron-like elliptical aperture magnitude                    [mag]
#   3 X_IMAGE                Object position along x                                    [pixel]
#   4 Y_IMAGE                Object position along y                                    [pixel]
#   5 X_WORLD                Barycenter position along world x axis                     [deg]
#   6 Y_WORLD                Barycenter position along world y axis                     [deg]
#   7 A_WORLD                Profile RMS along major axis (world units)                 [deg]
#   8 B_WORLD                Profile RMS along minor axis (world units)                 [deg]
#   9 THETA_WORLD            Position angle (CCW/world-x)                               [deg]
#  10 FWHM_WORLD             FWHM assuming a gaussian core                              [deg]
#  11 ELONGATION             A_IMAGE/B_IMAGE                                           
#  12 ELLIPTICITY            1 - B_IMAGE/A_IMAGE                                       
         1 -11.5018    233.6388     36.4615   5.0457002168e+01   2.1824493541e+01    0.8237419    0.2412519 -34.25  0.003122463    2.627    0.619
         2 -10.4273    168.6665     35.8625   5.8211942427e+01   3.7899926252e+01    0.6556708    0.1851002 -27.96    0.0020374    3.236    0.691
         3  -9.2106    136.7638     24.9650   5.9791175048e+01   4.7744870259e+01     0.279988    0.1971655  -7.37 0.0002721773    1.593    0.372
         4  -9.8647    231.3512     19.8468   4.6236530652e+01   2.4054453997e+01    0.4556919     0.193832  -7.07  0.001651073    3.445    0.710
         5  -9.5830      9.0790     15.8563   1.0704196697e+02   7.3798803957e+01    0.3068925    0.1599083 -71.62 0.0008658907    2.154    0.536
         6  -8.2976     80.2819     11.9714   6.8054916839e+01   6.3450568891e+01    0.2257578   0.08132636 -45.51 0.0005626239    3.950    0.747
         7  -8.4626     38.8159     10.7965   8.5503691180e+01   7.1490599385e+01    0.1621403    0.1448294 -44.43 0.0003433335    1.256    0.204
         8  -9.4217     18.6764      9.1053   9.7121859887e+01   7.4353741665e+01    0.1804378     0.163176  16.24 0.0001869623    1.278    0.217
         9  -8.0281    160.6507      8.6693   4.9805220137e+01   4.3067755792e+01    0.1602678    0.1012465  36.47 0.0007048539    1.768    0.434
        10  -8.3654    132.7529      8.3519   5.3746054595e+01   5.0667194568e+01    0.1513654    0.1039392 -50.61 0.0002453884    1.588    0.370
        11  -9.6853    116.5730      5.3636   5.5370781666e+01   5.5268134218e+01    0.2448921    0.2303544 -56.46 0.0002766092    1.140    0.123
        12  -9.9570    111.0088      4.9700   5.6310080374e+01   5.6759523008e+01    0.2130013    0.1975129  30.34  0.001203381    1.032    0.031
        13  -8.2013     64.7511      5.0106   6.9643551697e+01   6.7697392974e+01    0.1669417    0.1088156 -25.18 0.0003258337    1.454    0.312
        14  -9.7109     50.9623      3.4076   7.4553884606e+01   7.0611253797e+01    0.2331329      0.17415 -20.66 0.0003079174    1.223    0.182
        15  -9.2184     19.0668      4.5191   9.4164454179e+01   7.5184436516e+01    0.1617062    0.1185376  21.80 0.0003759708    1.504    0.335
        16  -7.9273    153.4987      3.4655   4.8780394159e+01   4.5481951708e+01    0.1431767    0.1385757  88.13 -1.235954e-05    1.010    0.010
        17  -8.2956    121.6139      2.1236   5.2962343055e+01   5.4233519063e+01    0.1929798    0.1329542   6.69 0.0003776927    1.616    0.381
        18 -10.0113     14.8551      1.9795   9.5674882323e+01   7.6100723125e+01    0.1855694     0.159665 -13.73 0.0003085403    1.132    0.117
        19  -9.0480     74.3373      5.3257   6.6330701149e+01   6.5607718896e+01     0.149869   0.09715252  21.92 0.0002005779    1.723    0.420
        20  -9.6460    216.7793    228.2282   9.3506083841e+01   2.0997548531e+00    0.1674914    0.1024868   1.04 0.0005802508    1.699    0.411
        21  -9.3727    224.8671    249.0905   9.5030834068e+01  -7.8810836611e-01    0.1559048    0.1452476 -29.07  0.001389601    1.966    0.491
        22 -10.4608    210.0832    249.5448   9.7338763998e+01   1.0106087159e+00    0.3119856    0.1779652  37.34  0.002020519    1.425    0.298
        23  -9.8208    168.0806    249.5869   1.0405447236e+02   6.4357944291e+00    0.1981506    0.1280896  25.62 0.0005283027    1.269    0.212
        24  -8.0220    145.7262    229.7559   1.0568865039e+02   1.1769510233e+01    0.1011326   0.07012719  21.72 0.0006792402    1.442    0.307
        25  -9.7701    247.7877    226.7417   8.8581884762e+01  -1.7620542318e+00    0.2643735     0.136184  44.58  0.001644451    2.407    0.584
        26 -10.2094    240.6304    221.8186   8.8920813679e+01  -4.3865629843e-01    0.3239009     0.237543  52.01  0.002226595    2.456    0.593
        27  -8.8777    225.6559    231.7131   9.2607111118e+01   6.1317210578e-01    0.1509904    0.1220119 -44.74 0.0008482818    2.291    0.563
        28  -9.2466    198.7982    226.7086   9.6192872307e+01   4.6905302024e+00    0.1781677    0.1496577 -32.45  0.001408236    1.643    0.391
        29  -8.8453    205.9147    225.5852   9.4877784618e+01   3.8269635653e+00    0.1714851    0.1418388 -45.36  0.001258778    1.967    0.492
        30  -9.6400    228.9258    222.3727   9.0780404581e+01   1.0367504895e+00    0.2823271    0.1411591  43.62  0.001710773    2.109    0.526
        31 -10.2518    248.0999    217.6752   8.7194317690e+01  -1.0335018832e+00    0.3395889    0.2380469 -30.36  0.002546489    1.916    0.478
        32  -9.0087    219.8242    217.7106   9.1524278699e+01   2.7060386469e+00    0.1544025    0.1456818 -60.59 0.0008648605    2.007    0.502
        33  -9.7770    216.4722    234.2094   9.4371210712e+01   1.5791433063e+00    0.2549976    0.1711169  46.45  0.001798886    1.903    0.474
        34  -8.6898    239.7448    215.4159   8.8097393660e+01   2.4741950473e-01    0.1909926    0.1688495  58.28   0.00134949    2.258    0.557
        35  -9.5479    232.9483    213.6869   8.8871120802e+01   1.3110267665e+00    0.1829773    0.1443388 -16.44  0.001254959    1.455    0.313
        36  -9.9368    240.6807    208.8129   8.6940655476e+01   7.2930332727e-01    0.2910392    0.2378867 -48.84  0.002055229    2.466    0.594
        37  -9.7433    235.2750    203.2661   8.6891297733e+01   1.9930967088e+00    0.3257149     0.225499 -33.71  0.002263842    1.887    0.470
        38  -9.1394    231.3204    199.3964   8.6884335206e+01   2.9308766606e+00    0.1762546    0.1651893 -17.45 0.0008242388    1.634    0.388
        39  -9.6989    246.9382    207.2495   8.5757422417e+01   4.0852915186e-02    0.2761778    0.1878577 -38.24  0.001367113    2.285    0.562
        40  -9.8615    243.4990    201.4340   8.5343839133e+01   1.0409000513e+00    0.3095678    0.2453231 -25.58   0.00234272    1.628    0.386
        41  -8.8183    229.4747    207.4671   8.8454165959e+01   2.3845750728e+00    0.1682577   0.09570253 -37.95    0.0010325    2.388    0.581
        42  -8.4292    224.5551    208.0538   8.9319638212e+01   3.0113700974e+00    0.1243021   0.09507165 -50.43 0.0008075245    2.494    0.599
        43  -8.4877    206.5237    208.5157   9.2317979223e+01   5.5346226540e+00    0.1130634   0.08751308  23.12 -1.508536e-05    1.067    0.063
        44  -8.4922    217.5301    204.7623   8.9935190627e+01   4.3467529977e+00    0.1309226    0.1030926 -30.57 0.0009394357    1.626    0.385
        45  -9.0614    172.9121    203.3089   9.7393921402e+01   1.1184741293e+01    0.2322214    0.1514287 -49.01  0.001409849    2.101    0.524
        46  -8.2107    223.5449    201.4886   8.8450694655e+01   3.8251805804e+00    0.1119242   0.08724002  17.83 0.0002313833    1.085    0.078
        47 -10.0269    225.0113    193.7598   8.6961676414e+01   4.4251753255e+00    0.4507011    0.1855066 -44.03  0.001919179    4.654    0.785
        48  -8.2081    201.6586    197.3049   9.1406421462e+01   7.5240215241e+00    0.1047922   0.08849858  54.66 0.0004713454    1.682    0.405
        49  -9.7909    250.0269    200.8373   8.4274292380e+01   2.1699559101e-01    0.2569701    0.1401852 -27.63   0.00138033    1.925    0.480
        50 -10.2747    246.4692    193.3039   8.3561790491e+01   1.4102088415e+00    0.2900494    0.2370182 -29.51  0.001642344    1.704    0.413
        51  -9.0620    243.9989    188.0163   8.3038908347e+01   2.2744656894e+00    0.1860895    0.1808303 -26.64  0.001440912    1.782    0.439
        52  -8.8886    230.9736    194.2826   8.6101733016e+01   3.5028207766e+00    0.1757973    0.1423338 -12.29 0.0008871615    1.319    0.242
        53  -9.4313    230.6410    188.1743   8.5128803812e+01   4.1905369930e+00    0.3297836    0.1924286 -40.01  0.001929777    2.352    0.575
        54  -8.4249    185.4275    193.4630   9.3644390152e+01   1.0508027722e+01    0.1205717   0.09574942  22.56 0.0002604414    1.033    0.032
        55 -10.2188    237.0730    186.9628   8.3916716636e+01   3.3758182110e+00    0.3185998    0.1777726 -29.88  0.001592283    1.894    0.472
        56  -9.3753    235.6983    181.1832   8.3126541948e+01   4.1835857994e+00    0.2328643    0.1848353 -32.76 0.0009676641    1.644    0.392
        57  -9.1625    231.7622    178.9563   8.3350030534e+01   5.0146624220e+00    0.1627482    0.1493607   6.75 0.0006755441    1.387    0.279
        58  -8.6070    215.3637    187.1637   8.7431472024e+01   6.6019916722e+00    0.1498325    0.1035102 -36.52 0.0009434424    1.787    0.440
        59  -9.0243    241.4974    172.9915   8.0768258225e+01   4.1877357429e+00    0.3130318    0.2208848  72.20  0.001429792    4.672    0.786
        60  -9.7283    249.4802    184.9594   8.1693161856e+01   1.8022967136e+00    0.3302331    0.1603807 -25.22  0.001825455    1.977    0.494
        61 -10.2711    247.5672    178.7657   8.0891493975e+01   2.6932537940e+00    0.5044765    0.1999149 -34.31  0.002564887    2.756    0.637
        62  -9.6098     77.6876    185.6629   1.1431131141e+02   2.8158914903e+01    0.2166969    0.1861142  46.43 0.0006205376    1.138    0.121
        63  -9.1201    224.1208    184.0941   8.5470896801e+01   5.6094880375e+00    0.2222188    0.1468704 -41.23  0.001301539    2.093    0.522
        64  -9.9117    241.5549    181.0980   8.2209872385e+01   3.3285792813e+00    0.3135332     0.223745 -38.45  0.001918623    1.953    0.488
        65  -8.9028    219.0349    177.8062   8.5200193984e+01   7.1114663696e+00    0.2010219    0.1443568 -35.79  0.001273601    1.690    0.408
        66  -8.4850    197.6044    176.8264   8.8696292138e+01   1.0688181357e+01    0.1563714    0.1137958 -40.74 0.0009491252    1.701    0.412
        67  -8.6135    210.5080    176.0441   8.6315538623e+01   8.6810044977e+00    0.1702043    0.1126524 -28.33  0.000839051    1.589    0.371
        68  -8.6133    232.7956    174.5471   8.2397522240e+01   5.3408984577e+00    0.1803176    0.1279002 -21.15  0.001151661    1.390    0.280
        69  -9.2832    223.7336    173.3523   8.3630468476e+01   6.8874262114e+00    0.2381614     0.146161 -40.85  0.001039538    2.128    0.530
        70  -8.9957    188.3336    172.8298   8.9663757776e+01   1.2768451190e+01    0.2262844     0.110529 -44.57  0.001079797    2.589    0.614
        71  -8.2799    250.6930    172.3163   7.9269274313e+01   2.8955721399e+00    0.1725362     0.101029 -25.10  0.000573479    1.629    0.386
        72  -9.8298    246.1184    169.2263   7.9381203212e+01   3.8932302117e+00    0.2977954    0.2737451 -64.29  0.002090534    2.008    0.502
        73  -8.8369    227.9146    171.5429   8.2625614082e+01   6.4362786049e+00    0.2154493    0.1486464 -41.77  0.001296346    1.984    0.496
        74  -9.0497    234.2954    164.6513   8.0334503034e+01   6.2135905350e+00    0.2267979    0.1462554 -41.34  0.001052092    2.078    0.519
        75  -8.5532    206.7466    170.6051   8.5979371792e+01   9.9727309634e+00    0.1688463    0.1074407  46.54 0.0009484794    1.663    0.399
        76  -9.1664    218.7379    168.3335   8.3529517368e+01   8.2815280053e+00    0.2560584    0.1526359 -42.58  0.001130522    2.222    0.550
        77  -9.5774    237.4175    169.1012   8.0680487998e+01   5.2296615680e+00    0.3390363    0.1815349 -34.11   0.00140768    2.029    0.507
        78  -8.7102    199.3995    165.2040   8.6271195067e+01   1.1914145291e+01    0.1662391    0.1154852 -41.25  0.000951532    1.736    0.424
        79  -8.7802    240.0466    164.0247   7.9327863173e+01   5.3817310494e+00    0.1581966    0.1460741 -41.65 0.0007376387    1.666    0.400
        80  -8.7723    213.0770    163.7110   8.3612081709e+01   9.7863778702e+00    0.2454698    0.1958744 -57.06  0.001460899    2.051    0.512
        81 -10.3587    235.4691    147.4127   7.6785235893e+01   8.0190055479e+00    0.4083896    0.3230491 -52.11  0.002008484    1.968    0.492
        82  -9.2261    241.9489    153.3308   7.6978834124e+01   6.2754317810e+00    0.2852155    0.2123615 -40.29   0.00110763    1.767    0.434
        83  -9.7181    244.1514    149.2930   7.5850442487e+01   6.3773643501e+00    0.3804327    0.2529723 -37.05   0.00178708    1.760    0.432
        84  -9.0591    246.7488    162.3918   7.8009748471e+01   4.5256232741e+00     0.250605    0.1951082 -28.64  0.001454877    1.487    0.328
        85  -9.5442    245.6297    157.5232   7.7245156237e+01   5.2270698252e+00    0.2908775    0.1844159 -26.98  0.001075077    1.529    0.346
        86  -9.2562    250.6601    158.0591   7.6608242602e+01   4.3917097885e+00    0.2877491    0.1019838 -26.75  0.001334913    2.612    0.617
        87  -9.9160    250.4353    152.2049   7.5504728435e+01   5.0579376237e+00    0.5395685     0.144519 -34.13  0.002158454    3.623    0.724
        88  -9.7693    242.4072    134.1292   7.2999449079e+01   8.4163784107e+00    0.3853914    0.1799999 -37.35   0.00171301    2.265    0.559
        89  -9.3236    247.3828    144.1398   7.4340727970e+01   6.4363867402e+00    0.2467172     0.194045 -36.73 0.0008253678    1.573    0.364
        90  -9.8873    243.6299    140.1421   7.4072934689e+01   7.5087686963e+00    0.4150554     0.214877 -34.81  0.002167128    1.963    0.491
        91  -9.1004    205.7034    162.6287   8.4674694232e+01   1.1174569926e+01    0.2459648    0.1924346 -70.67  0.001337592    2.498    0.600
        92  -8.7414    221.5025    161.4925   8.1783341630e+01   8.6554488330e+00    0.1946919    0.1070757 -39.15 0.0008760242    2.143    0.533
        93  -9.3672    237.9169    158.9835   7.8692521054e+01   6.2806008660e+00    0.2471387    0.2014189 -38.32  0.001589394    1.642    0.391
        94  -8.8327    231.2596    159.5903   7.9846402400e+01   7.2814908645e+00    0.2022329    0.1371682 -33.02 0.0007800953    1.615    0.381
        95  -8.9507    197.4907    157.9939   8.5241526604e+01   1.3224086057e+01    0.1599081    0.1112316 -57.51 0.0005465872    2.399    0.583
        96  -8.8255    226.6632    157.1311   8.0101745403e+01   8.3267979099e+00    0.1826518      0.14483 -31.19  0.001169012    1.441    0.306
        97  -8.4906    216.4425    156.9145   8.1736524388e+01   1.0073215832e+01    0.1549651    0.1044049 -51.28 0.0008045906    2.370    0.578
        98  -8.2086    222.2962    156.6629   8.0718368570e+01   9.1130698621e+00    0.1091608   0.09998421 -55.40 0.0005740161    1.652    0.395
        99  -9.1751    233.5137    153.9333   7.8389736601e+01   7.5751113085e+00    0.2322692    0.1979875 -48.49  0.001307991    1.750    0.428
       100  -9.2094    204.1869    152.8997   8.3047917634e+01   1.2733321559e+01    0.3505874    0.2630585  84.55  0.001714393    2.913    0.657
       101  -8.3745    145.3434    154.6710   9.4945634475e+01   2.3170297527e+01    0.1349426    0.1033744  73.07 0.0003779751    1.747    0.428
       102  -9.4277    228.7449    149.7931   7.8316074507e+01   8.8640561785e+00    0.4384431    0.1774954 -21.64  0.001873032    2.796    0.642
       103  -8.2287    221.3557    152.6560   8.0081524984e+01   9.7685596120e+00    0.1143648    0.1022703 -70.48  0.000703726    1.825    0.452
       104  -9.5383    212.0058    151.2465   8.1363079047e+01   1.1570623449e+01    0.2160795    0.1571596 -40.48  0.001251365    1.644    0.392
       105  -9.0916    224.2888    147.1734   7.8499732052e+01   9.9483079179e+00    0.2149791    0.1761016  77.54  0.001240042    2.150    0.535
       106  -8.6450    208.0322    145.5173   8.0879741756e+01   1.3043073648e+01    0.1917141    0.1190317  42.21 0.0005822016    1.547    0.354
       107  -8.5389    214.5845    142.8442   7.9207218904e+01   1.2216900997e+01    0.1768326    0.1132327 -39.60 0.0007989301    1.766    0.434
       108  -8.9239    182.1652    142.3319   8.4949651549e+01   1.8324752889e+01    0.2402826     0.178615 -64.91  0.001044245    2.114    0.527
       109  -9.3572    230.2502    141.3358   7.6350419091e+01   9.6392501624e+00    0.3122761     0.192471 -42.61  0.001572525    2.034    0.508
       110  -8.8247    250.4012    140.2298   7.3110818582e+01   6.3863008065e+00    0.2068038    0.1291896 -28.57 0.0009476695    1.513    0.339
       111  -9.3709    248.8510    135.5142   7.2358989925e+01   7.1733779297e+00    0.3132286     0.188934 -43.82  0.001282776    2.222    0.550
       112  -9.8842    248.6154    129.9040   7.1214132632e+01   7.8559033819e+00    0.3318177    0.2680766 -39.69  0.001890019    1.534    0.348
       113  -7.9529    203.6805    141.3082   8.0762666512e+01   1.4419696531e+01    0.1195178     0.107704 -77.66 0.0007032898    1.639    0.390
       114  -9.3496    198.8758    140.6734   8.1484470311e+01   1.5406094557e+01    0.2634269    0.2090042 -57.65  0.001465252    1.803    0.445
       115  -9.0828    166.8104    141.1979   8.7771044588e+01   2.1452075029e+01    0.2243277    0.1577758  87.33 0.0009590523    2.908    0.656
       116  -8.7036    224.2135    140.2339   7.7078141106e+01   1.0834369516e+01    0.1642545     0.146867 -33.11  0.000914078    1.365    0.267
       117  -8.9485    218.9093    138.6320   7.7603031037e+01   1.1989468057e+01    0.2479157    0.1586067 -42.52  0.001045498    1.879    0.468
       118  -8.9679    173.1990    138.6473   8.5938465328e+01   2.0633190836e+01    0.2744839    0.2204362 -72.31   0.00145688    1.830    0.454
       119  -8.5577    192.9905    137.4888   8.1878536916e+01   1.6985839369e+01    0.2006679    0.1260431  45.21 0.0009825927    1.556    0.357
       120 -10.1732    235.1469    136.2509   7.4530399239e+01   9.4111211329e+00    0.4298866     0.246891 -41.77  0.001714449    2.120    0.528
       121  -8.5462    208.8412    138.6295   7.9296451815e+01   1.3833042665e+01    0.1813809    0.1214217  53.71 0.0009495894    1.769    0.435
       122  -9.2059    121.4335    136.0000   9.6879625094e+01   3.1005913106e+01    0.3162446   0.07486372  41.37 0.0009385035    3.965    0.748
       123  -9.0093    225.3204    134.0147   7.5582002309e+01   1.1427899575e+01    0.1983678    0.1900632 -80.52  0.001111188    1.504    0.335
       124  -9.0854    179.6940    133.1393   8.3461774808e+01   2.0242891638e+01    0.2106032    0.1767089 -51.86 0.0009098495    1.440    0.306
       125  -9.0139    198.1099    131.6899   7.9681404120e+01   1.6850816510e+01    0.2285101    0.1771607 -38.40 0.0008194566    1.404    0.288
       126  -8.9720    143.3899    132.2299   9.0942887121e+01   2.7580674363e+01    0.1939472     0.133892 -55.99  0.000947548    1.696    0.411
       127  -8.4880    206.0097    131.0149   7.8135585210e+01   1.5423911078e+01    0.2002309    0.1691272 -65.97  0.001133405    1.734    0.423
       128  -8.4506    137.2723    131.6644   9.2229567118e+01   2.8874380738e+01    0.1370998    0.1110497  87.67 0.0004323008    1.600    0.375
       129  -8.9444    233.9165    129.7935   7.3338777474e+01   1.0417716462e+01    0.2272535    0.1542022 -47.40  0.001222235    2.000    0.500
       130  -8.9788    220.9712    129.7468   7.5352424835e+01   1.2775367957e+01    0.1877719    0.1570208 -88.97 0.0009047092    1.981    0.495
       131  -8.2617    192.4002    130.2061   8.0394242089e+01   1.8187167469e+01    0.1872945    0.1241435 -42.02 0.0008428197    1.662    0.398
       132  -8.0780    212.2973    129.6238   7.6754146972e+01   1.4418290235e+01    0.1277118    0.1039788 -58.20 0.0007025473    1.750    0.429
       133  -8.6698    186.6649    129.3340   8.1273671297e+01   1.9455999541e+01     0.202744    0.1702835 -77.79  0.001094243    1.743    0.426
       134 -10.3042    236.5255    117.0931   7.0150128263e+01   1.1518078737e+01    0.3167591    0.2325577  62.42  0.001792107    1.856    0.461
       135  -8.9477    238.6877    121.3117   7.0775891765e+01   1.0606009976e+01    0.2089553    0.1413554 -43.94  0.001040337    1.803    0.445
       136  -9.1812    200.1875    126.7548   7.8207686557e+01   1.7164269972e+01     0.205149    0.1484915 -73.94 0.0009336864    2.666    0.625
       137  -8.9425    227.9538    125.4493   7.3302253791e+01   1.2042458772e+01    0.2454937    0.1643606 -38.42  0.001235176    1.618    0.382
       138  -9.1048    180.2979    125.6482   8.1665775156e+01   2.1316161399e+01    0.2854206    0.2362202 -83.73   0.00150628    1.769    0.435
       139  -9.2640    249.3887    124.1665   6.9879660630e+01   8.3877506041e+00    0.2134208    0.1967984 -30.25  0.001094247    1.360    0.265
       140  -9.6876    248.0103    119.0089   6.8948784512e+01   9.2280427071e+00    0.4291261    0.1982561 -37.38  0.001808092    2.195    0.544
       141  -8.2872    170.3196    124.6780   8.3439112323e+01   2.3510461778e+01    0.1371835    0.1146508 -84.56 0.0004094911    1.670    0.401
       142  -8.7696    235.2113    123.2087   7.1706022799e+01   1.0999775238e+01    0.1710504    0.1421611 -36.42 0.0007971016    1.376    0.274
       143  -8.9086    220.8847    121.7765   7.3591714757e+01   1.3843888570e+01    0.3432356    0.1459563 -43.29  0.001370614    2.932    0.659
       144  -8.1762    188.3492    123.6698   7.9668376061e+01   1.9993213260e+01    0.1358818    0.1128464 -77.90 0.0007048675    1.766    0.434
       145  -8.5681    203.4965    121.9673   7.6534100856e+01   1.7203320513e+01    0.1830548    0.1107444 -52.22 0.0008076358    2.391    0.582
       146  -8.7874    194.4747    121.4892   7.8030502829e+01   1.9084272836e+01    0.2455587    0.1191807 -43.61  0.001023661    2.340    0.573
       147  -8.8268    231.4537    120.2281   7.1605074890e+01   1.2060458330e+01    0.2664739    0.1510867 -36.19 0.0009844794    1.764    0.433
       148  -8.7958    231.3240    116.6738   7.0822781043e+01   1.2535100969e+01    0.1845876    0.1752557  85.14  0.001041121    1.448    0.309
       149  -8.4001    157.8063    120.5761   8.5126002067e+01   2.6797896231e+01    0.1993582    0.1344043  57.47 0.0007021488    1.667    0.400
       150  -7.9389     95.3205    120.6652   1.0057068527e+02   3.8829878705e+01    0.1468923    0.1052617  75.80 0.0007049703    1.703    0.413
       151  -9.9708    240.7149    126.1546   7.1541472533e+01   9.6584538466e+00    0.4268403    0.2786545 -45.68   0.00189849    2.006    0.502
       152  -9.3439     19.0453    119.0436   1.2251167247e+02   4.8846529536e+01    0.1867366    0.1552257  82.53 0.0005173993    1.016    0.016
       153  -8.2688    212.6752    116.3508   7.3676572299e+01   1.6174774159e+01    0.1328783    0.1061042 -60.35 0.0007048406    1.756    0.430
       154  -8.8581    186.4883    115.4819   7.8092610021e+01   2.1651723408e+01    0.2479639    0.1238361 -44.24  0.001025676    2.241    0.554
       155  -9.3716    140.6772    119.5187   8.8745286639e+01   3.0513208259e+01    0.2533619    0.1798838 -66.01  0.001184648    1.856    0.461
       156  -8.4604     70.7929    115.3812   1.0655098834e+02   4.3880030688e+01    0.1710238    0.1312138  26.02 0.0003466584    1.512    0.339
       157  -8.2036    191.5186    114.5515   7.6932640859e+01   2.0745535441e+01    0.1395832    0.1298472   5.47 0.0002515856    1.032    0.031
       158  -8.7259    247.5990    112.7634   6.7622211139e+01   1.0036981797e+01    0.2556652    0.1721461 -43.52  0.001042527    1.757    0.431
       159  -9.8948    244.0145    109.5322   6.7383160723e+01   1.1070131911e+01    0.2467515    0.1502012 -44.75 0.0008840974    1.980    0.495
       160 -10.2781    241.1610    111.8808   6.8311155190e+01   1.1307914529e+01    0.3331792    0.2159521 -50.74   0.00171321    2.161    0.537
       161  -8.2310    235.6494    112.3222   6.9195751473e+01   1.2274062663e+01    0.1260942   0.09942289 -55.40  0.000704839    1.748    0.428
       162  -8.7486    168.4193    112.2096   8.0864924127e+01   2.6018425981e+01    0.2050511    0.1334522 -47.51 0.0009459233    1.707    0.414
       163  -8.7087    177.1973    111.0086   7.8795856263e+01   2.4337613838e+01    0.2356544    0.1635873 -60.42  0.001074851    2.026    0.506
       164  -8.7557    134.0140    109.9611   8.8060300712e+01   3.3731427449e+01    0.2376838    0.1841587 -89.66  0.001131543    1.760    0.432
       165  -8.8344    183.3793    109.2100   7.7151317872e+01   2.3302384745e+01    0.2090429    0.1269491 -43.29 0.0008516675    1.759    0.431
       166  -8.9514    160.8537    108.5536   8.1547829337e+01   2.8282571718e+01    0.2991565    0.1880511 -53.45  0.001314379    1.945    0.486
       167 -10.7514    247.6307    105.3817   6.5951862054e+01   1.0906787373e+01    0.5817885      0.20602 -39.73  0.002317208    3.016    0.668
       168  -8.4449    171.6700    107.3304   7.8982563247e+01   2.6142532018e+01    0.1453806    0.1170349 -76.26 0.0007051745    1.716    0.417
       169  -8.7757    222.9455    105.2623   6.9428322074e+01   1.5636753371e+01     0.271378    0.1453206 -49.33  0.001154889    2.597    0.615
       170  -8.6640    205.7537    105.3730   7.2198729146e+01   1.9134088481e+01    0.2526087    0.1580818 -40.69  0.001221519    1.664    0.399
       171  -9.1850    229.7660    103.6676   6.8034079150e+01   1.4497467158e+01    0.2322448    0.1779731 -25.03 0.0009245155    1.189    0.159
       172  -9.3566    150.5549    103.3078   8.2476561744e+01   3.1470796127e+01    0.2866219    0.1406794 -44.28  0.001134075    2.109    0.526
       173  -8.8368    140.9742    103.4730   8.4743743702e+01   3.3519895960e+01    0.3228842     0.177533 -56.60  0.001254441    2.400    0.583
       174  -9.1921    238.6117    102.7425   6.6562202003e+01   1.2906577631e+01    0.1866089    0.1066694 -33.75 0.0009427912    1.618    0.382
       175  -8.2818    200.7102    103.3246   7.2546293732e+01   2.0495109780e+01    0.1367882    0.1093305 -59.45 0.0004674062    1.611    0.379
       176  -9.4955    167.2271    101.2790   7.8336715166e+01   2.8146381884e+01    0.3723487    0.2442562 -55.55  0.001652234    1.933    0.483
       177  -8.5640    189.8327    108.9700   7.5882986023e+01   2.1960434667e+01    0.2323033    0.1570163 -55.80 0.0009825536    1.998    0.500
       178  -9.5916    249.0849     99.1353   6.4329450255e+01   1.1380623442e+01    0.3644877    0.1494032 -45.09   0.00142926    3.307    0.698
       179  -9.0379    160.7388    100.9863   7.9625328329e+01   2.9640620452e+01    0.2815483    0.2068521 -54.30  0.001347952    1.579    0.367
       180  -8.3412    225.3138     99.6468   6.7722624654e+01   1.5903423211e+01    0.1358092    0.1005101 -53.79 0.0007045636    1.733    0.423
       181 -10.2895    213.6524     97.3211   6.8923164313e+01   1.8613487244e+01    0.5565617    0.3327471 -64.96  0.002127239    3.502    0.714
       182  -8.5860    203.0420     98.5247   7.0944231916e+01   2.0697306537e+01    0.2778315     0.156957 -59.49  0.001026148    3.317    0.699
       183  -8.6891    195.0297     98.0041   7.2183275080e+01   2.2511825370e+01    0.2245982    0.1748623 -64.59  0.001062795    1.722    0.419
       184  -8.8938    135.6284     96.8186   8.4277038343e+01   3.5959464519e+01    0.2166962    0.1377553 -51.39 0.0009472902    1.705    0.414
       185  -9.4209    236.3596     89.5516   6.3722703453e+01   1.4981841468e+01    0.4404292    0.2211315 -29.43  0.001780023    1.740    0.425
       186 -10.1845    235.3553     95.6599   6.5333213110e+01   1.4418006470e+01    0.2873181    0.2340412 -55.37  0.001247404    1.546    0.353
       187 -10.4185    231.4948     91.0034   6.4735236162e+01   1.5773996962e+01    0.4675424    0.2425512 -37.90  0.001687016    1.846    0.458
       188  -8.4005    153.6646     96.3035   7.9919239879e+01   3.2057078584e+01    0.1498352    0.1200741 -82.01 0.0007037915    1.664    0.399
       189  -9.4254    211.3168     92.6295   6.8106352899e+01   1.9758545671e+01     0.339728    0.2195233 -63.51  0.001482693    2.513    0.602
       190  -8.9672    164.9279     94.7503   7.7074518875e+01   2.9781598049e+01    0.2674827    0.1886085 -49.97  0.001066689    1.574    0.365
       191 -10.2137    248.6469     74.4100   5.8522358501e+01   1.4371648894e+01    0.3684606    0.2226478 -37.67  0.001957558    1.522    0.343
       192  -8.4178    239.2628     80.8781   6.1226539702e+01   1.5467943067e+01    0.2299709    0.1745537 -55.31 0.0006781027    1.597    0.374
       193  -9.5812    248.2674     92.8950   6.2981560951e+01   1.2271641372e+01    0.4447025    0.1779633 -44.02  0.001771333    3.069    0.674
       194  -9.4992    239.3851     76.2362   6.0064774172e+01   1.6005731507e+01    0.3427281     0.115586 -39.07 0.0008775532    2.765    0.638
       195  -8.7473    244.5137     88.0317   6.2301866401e+01   1.3567743527e+01    0.2247503    0.1962424 -86.67  0.001389271    1.549    0.354
       196  -8.9563    249.4944     80.5403   5.9902330358e+01   1.3492361531e+01    0.2440313    0.1779106 -50.02 0.0009415027    1.579    0.367
       197 -12.1146    243.9138     75.8363   5.9420896577e+01   1.5141510532e+01     1.217358    0.3540502 -35.49  0.004596723    2.841    0.648
       198 -10.1440    247.5829     86.2274   6.1490465623e+01   1.3191478575e+01    0.4775587    0.2544885 -49.85   0.00219039    2.473    0.596
       199  -9.0060    243.1608     82.9731   6.1252571805e+01   1.4439105389e+01    0.3577675    0.1430044 -38.32  0.001515809    2.332    0.571
       200  -9.1794    189.4716     93.5609   7.2010019055e+01   2.4417394643e+01     0.278203    0.2175363  82.59  0.001378372    1.742    0.426
       201  -8.9547    177.4500     93.6258   7.4262146520e+01   2.7120733898e+01    0.3632479    0.1900277 -58.21  0.001217769    3.522    0.716
       202  -8.8938    241.9323     93.1885   6.3862605516e+01   1.3443087537e+01     0.200748    0.1663224 -39.39  0.000847531    1.291    0.225
       203  -8.4066    149.6493     93.3203   8.0005325656e+01   3.3504041801e+01    0.1542146    0.1205321 -81.39 0.0007048087    1.743    0.426
       204  -8.4070    196.9675     91.9638   7.0278913226e+01   2.2986001220e+01    0.2277329    0.1717892 -61.71   0.00112009    1.736    0.424
       205  -8.5973    141.3757     92.2268   8.1626285416e+01   3.5569450624e+01    0.2187049    0.1376103 -49.45 0.0007625756    1.706    0.414
       206  -9.1162    158.3141     90.8202   7.7393822272e+01   3.1975387832e+01    0.2911796    0.2269761 -62.20  0.001404693    1.556    0.357
       207  -8.4690    183.5007     89.9933   7.2140911084e+01   2.6321302608e+01    0.2138153    0.1139858 -52.13 0.0008102761    2.522    0.604
       208  -9.0436    151.0339     88.5500   7.8356098258e+01   3.4053475504e+01    0.2899593    0.2088192 -52.58  0.001095062    1.543    0.352
       209  -9.5497    226.0870     87.6507   6.4657466282e+01   1.7310451105e+01    0.2677947    0.1656128 -40.04  0.001076011    1.612    0.380
       210  -8.8382    188.6418     87.4963   7.0534804777e+01   2.5533186371e+01     0.292292    0.2086608 -55.84 0.0008045281    1.718    0.418
       211  -8.9307    185.6058     83.6847   7.0031110492e+01   2.6815209322e+01    0.2892148    0.2063761 -67.24  0.000936669    1.968    0.492
       212  -8.3691    197.5049     87.0015   6.8874682121e+01   2.3596882214e+01    0.2161472    0.1064517 -49.31 0.0008106685    2.624    0.619
       213  -8.7538    164.0813     86.7125   7.5022591898e+01   3.1348253646e+01    0.2766456    0.1952054 -41.70  0.001303531    1.431    0.301
       214  -9.3461    179.4592     85.5237   7.1664907555e+01   2.7956595624e+01    0.2633537    0.2012287 -66.45  0.001258301    1.704    0.413
       215  -8.0893    239.2661     85.6012   6.2381959994e+01   1.4891098838e+01    0.1376955   0.08964755 -46.84  0.000304578    1.729    0.421
       216  -8.6267    206.0373     85.0133   6.6961271522e+01   2.1974935748e+01    0.2265634    0.1651518 -56.44 0.0007632209    1.694    0.410
       217  -9.7070    170.8947     83.8117   7.2825875246e+01   3.0235267284e+01    0.2968389    0.1848311 -56.16  0.001233622    2.093    0.522
       218  -8.2040    200.6690     83.3395   6.7373102267e+01   2.3414587518e+01     0.148382    0.1088621 -60.39 0.0007051745    1.742    0.426
       219  -8.4314    193.3788     83.6726   6.8672871599e+01   2.5024504415e+01    0.1521257    0.1116742 -66.07 0.0007021255    1.844    0.458
       220  -9.3345    159.3378     82.1884   7.4714208594e+01   3.3233387753e+01      0.34608    0.2153791 -47.17  0.001337935    1.722    0.419
       221  -8.7661    126.6250     82.7964   8.2579139718e+01   4.0680543239e+01    0.2224303    0.1385572 -50.62 0.0009497913    1.707    0.414
       222  -8.9996    225.3598     81.8667   6.3299831795e+01   1.8210160554e+01    0.2788378   0.09920086 -35.51  0.001069253    2.479    0.597
       223  -9.0772    210.0319     81.0512   6.5297860432e+01   2.1638991505e+01    0.3253301    0.1876641 -49.91  0.001419825    2.087    0.521
       224  -8.5253    211.3818     77.1211   6.4052628275e+01   2.1873967716e+01    0.2194359    0.1313079 -27.67  0.001023178    1.542    0.352
       225  -8.3555    215.3039     80.6562   6.4411457729e+01   2.0530984142e+01     0.143657    0.1025327 -54.47 0.0004205216    1.685    0.407
       226  -9.6972    166.7824     78.2284   7.2027368471e+01   3.2125507390e+01    0.4017262    0.2539366 -39.41  0.001439549    1.562    0.360
       227  -8.7116    150.6584     79.4959   7.5800626533e+01   3.5754980543e+01    0.2679956    0.1408368 -35.92  0.001068348    1.886    0.470
       228  -9.3172    235.3266     77.6318   6.0917001857e+01   1.6665426065e+01    0.4230448   0.09843568 -40.72  0.001256894    4.553    0.780
       229  -9.0397    201.2843     78.3100   6.5914149871e+01   2.3991628581e+01    0.2879025    0.1895408 -59.30   0.00106568    2.030    0.507
       230  -9.5347    195.0827     72.7072   6.5352223013e+01   2.6226442575e+01    0.3174193     0.238759  -3.63  0.001076054    1.462    0.316
       231 -10.1700    193.9798     68.0194   6.4197631853e+01   2.7153558360e+01    0.3695342     0.254341 -48.49  0.001467632    1.557    0.358
       232 -10.9245    190.3647     72.6525   6.6108658064e+01   2.7348682064e+01    0.4424975    0.3123247  10.64  0.002053886    1.752    0.429
       233 -10.2455    187.3966     69.1963   6.5609460614e+01   2.8561378875e+01     0.361589    0.2060085 -47.38  0.001122527    1.927    0.481
       234  -9.3714    174.6758     78.4163   7.0550075461e+01   3.0209131393e+01    0.3513928    0.2336235 -40.90  0.001621642    1.502    0.334
       235 -10.1819    184.0016     77.7070   6.8639978693e+01   2.8104055817e+01    0.2857823    0.2229879 -69.48  0.001104881    1.636    0.389
       236  -8.9296    130.4688     78.0498   8.0158688416e+01   4.0730508811e+01    0.2359669    0.1485339 -40.04 0.0007248173    1.576    0.365
       237  -8.3254    223.4854     76.4974   6.2178585942e+01   1.9301088521e+01    0.1385673    0.1239943 -23.53 0.0001828538    1.045    0.043
       238  -8.4945    206.4925     74.5048   6.4075231796e+01   2.3332991114e+01    0.1435213    0.1313047 -34.75 0.0002194154    1.092    0.085
       239  -9.6916    230.3548     71.6777   6.0037147250e+01   1.8439757340e+01     0.320134    0.1796385 -55.52  0.001398661    2.434    0.589
       240 -10.8312    229.4731     68.0065   5.9201516419e+01   1.9081451420e+01    0.3675242    0.2536808 -37.47  0.001959939    1.349    0.259
       241  -9.7592    182.6502     68.6257   6.6248654196e+01   2.9792001440e+01    0.4257863    0.2334133 -56.53   0.00161143    2.583    0.613
       242  -9.4248    163.5953     72.1445   7.0847322947e+01   3.3888844022e+01    0.3832093    0.2380809 -43.29  0.001360837    1.639    0.390
       243  -8.7112    150.7000     72.3710   7.3619099649e+01   3.6984971275e+01     0.288023    0.1782335 -45.62  0.001232375    1.681    0.405
       244  -9.1681    157.6528     76.1864   7.3291375709e+01   3.4657034088e+01    0.3501579     0.245916 -58.75  0.001408525    1.744    0.427
       245  -8.5020    210.6357     71.8500   6.2744918366e+01   2.2751082067e+01     0.214735    0.1131308 -38.20 0.0009359652    1.791    0.442
       246  -9.1945    199.6640     70.4754   6.4003317828e+01   2.5466627521e+01    0.4718489    0.1172621 -37.76  0.001439679    3.548    0.718
       247  -8.9009    175.4129     72.3181   6.8629491863e+01   3.0987896289e+01    0.2419901    0.1779065  14.97  0.001117706    1.650    0.394
       248  -9.5447    222.6265     71.3520   6.0953280305e+01   2.0146169242e+01    0.2674375    0.1848772  87.04  0.001107297    2.071    0.517
       249  -9.1312    107.1247     70.6985   8.4212833567e+01   4.7351806178e+01    0.2773499    0.2017817 -53.34  0.001310766    1.428    0.300
       250 -10.6092    229.7480     39.5095   5.1645556542e+01   2.2363460903e+01    0.7863366      0.16989 -45.39  0.002077257    5.750    0.826
       251 -11.5397    246.4124     44.8511   5.1426072124e+01   1.8159049092e+01    0.8343475    0.4413227 -49.77  0.004032243    1.981    0.495
       252 -10.1592    237.8761     42.6503   5.1674322360e+01   2.0219071377e+01    0.4390754    0.1729286 -32.00  0.001385634    2.066    0.516
       253 -10.9281    194.0652    248.7291   9.9749573724e+01   3.1298945917e+00    0.3803784    0.2246434  38.28  0.002765121    1.361    0.265
       254 -11.0397    248.8798     62.9576   5.5696026797e+01   1.5641573745e+01    0.8680385    0.2968678 -30.51   0.00359062    2.325    0.570
       255  -8.8543    212.5996     66.7598   6.1084301190e+01   2.2977890389e+01    0.2425332    0.1677426 -58.79  0.001173637    1.765    0.434
       256  -9.4958    203.4303     67.3107   6.2548733660e+01   2.5021077341e+01    0.4159487    0.2243356 -31.23  0.001835514    1.701    0.412
       257  -8.7648    157.1233     69.8611   7.1466381691e+01   3.5844444769e+01    0.2381459    0.2079531 -60.16 0.0008371909    1.252    0.201
       258 -10.1061    250.1018     54.9229   5.3587109012e+01   1.6295928692e+01    0.7846221   0.07529319 -32.79  0.002305315    4.617    0.783
       259  -8.9418    170.7762     70.7333   6.9022834071e+01   3.2362613089e+01    0.3147526    0.1916693 -41.36  0.001067303    1.639    0.390
       260  -8.2726    122.3056     68.6386   7.9286930456e+01   4.4389688182e+01    0.1589634    0.1202374 -73.12 0.0004851807    1.733    0.423
       261  -8.7233    152.6858     66.5500   7.1357794323e+01   3.7483343128e+01    0.2800187    0.1379531 -33.60  0.001075386    1.995    0.499
       262  -8.9224    146.4473     66.5471   7.2714922090e+01   3.9016381965e+01    0.3299143    0.1494541 -33.73  0.001212059    2.194    0.544
       263  -8.7224    139.1575     67.0084   7.4533228127e+01   4.0710010266e+01    0.2651194    0.1669446 -58.15  0.001072751    2.039    0.510
       264  -9.1984    163.9738     65.0320   6.8580099636e+01   3.4934182811e+01    0.3168283    0.2103729 -31.46  0.001382354    1.473    0.321
       265 -10.4450    197.6374     64.4573   6.2609987099e+01   2.6777683483e+01    0.3517941     0.195535 -45.82  0.001392336    1.905    0.475
       266  -9.2244    171.2230     64.1789   6.6943705159e+01   3.3266073497e+01    0.3415009    0.2333794 -41.83  0.001252107    1.461    0.315
       267  -8.9897    111.5152     63.5357   8.0546653535e+01   4.7809433038e+01    0.2850198    0.1340869 -50.14  0.001030003    2.398    0.583
       268  -8.2582    217.3018     63.6336   5.9600641604e+01   2.2313071468e+01    0.1495424   0.09788436 -52.76  0.000485004    1.736    0.424
       269 -11.5262    192.1779     55.5510   6.0835190215e+01   2.9311246689e+01    0.8476334    0.3010492 -36.25  0.003029065    2.521    0.603
       270  -9.5611    182.9715     62.9455   6.4506242388e+01   3.0544745169e+01    0.2470054    0.1724627 -58.54  0.001127244    1.713    0.416
       271  -8.7266    157.6762     55.4607   6.6733402795e+01   3.8004128798e+01    0.2724983    0.1396123 -29.81  0.001066545    1.932    0.482
       272 -10.2433    242.2177     61.4613   5.6040760960e+01   1.7172000162e+01    0.2477282    0.1611671 -25.27 0.0008252042    1.331    0.249
       273  -8.8779    201.2009     61.7899   6.1317906639e+01   2.6291054726e+01     0.246778    0.1341272 -59.32 0.0009100604    2.717    0.632
       274  -8.5204    221.4087     60.2224   5.8153633194e+01   2.1815176238e+01    0.2011871    0.1138924 -36.01 0.0006745994    1.595    0.373
       275  -8.4986    206.5884     59.7628   5.9977816135e+01   2.5284178890e+01     0.206041    0.1215753 -36.52 0.0006144954    1.570    0.363
       276  -9.3604    153.2553     59.3710   6.8912988054e+01   3.8510467831e+01    0.3384856    0.1946474 -34.47   0.00101373    1.691    0.409
       277  -8.5304     25.8530     59.9140   1.1134178108e+02   6.2429697149e+01    0.1657475    0.1399571  78.48 0.0002773627    1.266    0.210
       278  -9.1051    164.7928     58.5206   6.6362161583e+01   3.5735402387e+01    0.3493791    0.2028839 -28.99  0.001475828    1.701    0.412
       279 -11.9620    219.7451     47.3946   5.4861579993e+01   2.3746315487e+01      1.18444    0.3441032 -49.19  0.003098585    5.852    0.829
       280 -12.3701    231.2008     51.4166   5.4659152135e+01   2.0690969494e+01    0.8366947    0.3270818 -33.63  0.003483525    2.132    0.531
       281 -11.8973    226.6930     52.0269   5.5324148718e+01   2.1620272528e+01    0.8833462    0.1919984 -41.40  0.002597811    4.403    0.773
       282  -9.8080    158.0989     61.6949   6.8682838752e+01   3.6926237753e+01    0.4379786    0.2502886 -34.11  0.001383125    1.698    0.411
       283  -8.6391    175.5299     55.8857   6.3602422738e+01   3.3414186063e+01    0.2288446    0.1434847 -29.67 0.0006447763    1.538    0.350
       284  -8.6254    169.6671     55.5267   6.4512054075e+01   3.4948264302e+01    0.2687353    0.1371603 -29.59  0.001066116    1.903    0.475
       285  -8.0947    198.3011     55.6691   5.9972083031e+01   2.7800707420e+01    0.1522963    0.1049101 -55.98 0.0005577524    1.649    0.393
       286  -8.7128    139.6219     54.8064   7.0314700932e+01   4.2669966367e+01    0.2283772     0.135692 -42.40 0.0009503672    1.695    0.410
       287  -8.3943    215.2959     53.9027   5.7193471111e+01   2.3991409801e+01    0.2532459   0.05904238 -42.17 0.0007007661    4.444    0.775
       288  -7.8186    211.3295     54.6460   5.7904948183e+01   2.4823936916e+01     0.153743   0.09912378 -55.21  0.000560392    1.777    0.437
       289  -9.6910    153.0172     52.0684   6.6520382464e+01   3.9709978610e+01    0.4279368    0.2001407 -39.51  0.001300538    2.089    0.521
       290  -8.2839     82.5257     54.4833   8.6534264115e+01   5.5663733463e+01    0.1469047    0.1365215 -22.74 -3.277975e-05    1.073    0.068
       291  -9.1657    185.5069     53.0542   6.1100422522e+01   3.1303075667e+01    0.2290478    0.1408934 -28.00 0.0008674397    1.555    0.357
       292  -8.9318    146.6872     58.4648   7.0001015236e+01   4.0304075876e+01     0.276093    0.1391665 -32.14  0.001066008    1.965    0.491
       293  -8.7044     95.6924     52.6520   8.1419276491e+01   5.3360684552e+01    0.1538454    0.1171645   0.09 0.0007043509    1.704    0.413
       294  -9.2337    178.6358     50.8913   6.1518753872e+01   3.3329869459e+01    0.3103611    0.1638054 -42.04  0.001268906    1.883    0.469
       295  -8.6404    172.8177     50.8048   6.2453939508e+01   3.4823011530e+01    0.2589362    0.1732635 -33.76 0.0006251235    1.433    0.302
       296  -8.9993    174.2871     45.5254   6.0510171403e+01   3.5171986941e+01    0.4126302    0.1498072 -23.52  0.001343384    2.987    0.665
       297 -10.3314    193.9433     49.0493   5.8634987892e+01   2.9732402320e+01    0.5150796   0.09996296 -38.80  0.001408881    4.317    0.768
       298  -8.9087    158.2515     48.5459   6.4309643150e+01   3.8889910673e+01    0.2924955    0.1667138 -39.10  0.001221076    1.717    0.417
       299  -8.4210    100.2547     47.7179   7.8089228692e+01   5.3294000407e+01    0.2417477    0.1249926 -26.37 0.0008968135    2.384    0.581
       300  -9.1951    181.5048     47.0267   5.9850539780e+01   3.3123040660e+01     0.226717    0.1409659 -28.85 0.0005462391    1.536    0.349
       301  -9.3638     95.2194     46.5556   7.9211807438e+01   5.4611881776e+01    0.2904206    0.2052438 -38.93  0.001391631    1.368    0.269
       302  -8.0705    204.3119     46.6503   5.6527608525e+01   2.7491750361e+01    0.1549134    0.0999152 -54.67 0.0004131991    1.719    0.418
       303  -8.5559    162.8212     44.6940   6.2173670244e+01   3.8254568711e+01     0.294114    0.1170545 -25.30  0.001002014    2.616    0.618
       304 -10.1043    200.4528     43.7712   5.6180454264e+01   2.8788045493e+01    0.2583208     0.199334 -36.03  0.001100046    1.213    0.176
       305  -8.5652    188.4035     44.2214   5.7953407376e+01   3.1738125997e+01    0.2190127    0.1235033 -37.68 0.0009039385    1.670    0.401
       306  -8.5680    178.8284     43.5498   5.9159290787e+01   3.4265704552e+01    0.2509526     0.165251 -34.02 0.0008861173    1.444    0.308
       307  -8.6458      1.3410     43.8691   1.1962118628e+02   6.7871103661e+01    0.1794721   0.08232925 -62.75  0.000371367    1.657    0.397
       308  -8.3420    183.3868     43.2405   5.8375363276e+01   3.3138038103e+01     0.216476    0.1250374 -37.68 0.0005224058    1.641    0.391
       309  -8.4731    131.6452     42.2106   6.7566013811e+01   4.6680805923e+01    0.2186249    0.1448328 -18.75 0.0009475147    1.663    0.399
       310  -8.9772    146.5937     39.8000   6.3491264990e+01   4.3176644052e+01    0.4246275    0.1426726 -29.25  0.001372799    2.884    0.653
       311 -10.6568    222.8170     38.0623   5.1957922164e+01   2.4106650028e+01    0.2665907     0.186591  41.60  0.001389254    1.614    0.380
       312  -8.4416    140.3723     39.8576   6.4775288613e+01   4.4788506105e+01    0.2214735    0.1456621 -13.20 0.0009462172    1.757    0.431
       313  -8.7566    185.3868     39.2584   5.6833145783e+01   3.3129867479e+01    0.2194923    0.1249891 -36.02 0.0008658487    1.645    0.392
       314  -8.6422    151.4631    249.4532   1.0680255470e+02   8.6363163806e+00    0.1058035   0.07477248  32.58 0.0004192565    1.059    0.056
       315  -8.2536     66.5472     38.5023   8.6257041258e+01   6.1825888632e+01      0.14162     0.129252 -28.05 8.732429e-05    1.014    0.014
       316 -12.4324    242.2383     53.5657   5.4041774007e+01   1.8070375192e+01    0.9966267    0.5616191 -45.56  0.004957396    1.761    0.432
       317  -8.9045    193.7760     36.9424   5.4985838902e+01   3.1278385202e+01    0.1942168    0.1156488 -23.46 0.0004781766    1.629    0.386
       318 -10.4885    201.5923     34.6444   5.3327907846e+01   2.9590145596e+01    0.4161806    0.2213694 -15.80  0.001759309    2.025    0.506
       319  -8.2747    189.3043     35.6961   5.5182876162e+01   3.2562309367e+01    0.1526115    0.1042078 -57.18 0.0007010697    1.598    0.374
       320  -8.5395    173.3368     35.0731   5.7229395453e+01   3.6772979940e+01    0.2290458    0.1182706 -37.50 0.0008455472    1.839    0.456
       321  -9.2706    149.3753     33.8988   6.0808529758e+01   4.3252656702e+01    0.3746214    0.1397317 -27.86  0.001282695    2.601    0.616
       322  -8.5157    144.1517     35.1476   6.2261215710e+01   4.4463055185e+01    0.2171679    0.1718896 -50.48   0.00100444    1.330    0.248
       323  -9.0038    133.6879     33.3685   6.3719270794e+01   4.7446665024e+01    0.3675905    0.2236881  -9.88  0.001501072    2.039    0.509
       324 -10.3311    246.5204     32.2699   4.8238024598e+01   1.9463619433e+01    0.2536724     0.102221 -29.10 0.0008743457    2.000    0.500
       325  -8.9498    173.4196     39.8015   5.8780230976e+01   3.6151992512e+01    0.2633352     0.189086 -14.75 0.0009208618    1.474    0.321
       326  -8.3196    186.4852     32.9748   5.4699037722e+01   3.3608080010e+01    0.2253062    0.1410123 -22.79 0.0007089903    1.572    0.364
       327  -8.5063    160.5194     38.9987   6.0630840249e+01   3.9633826945e+01    0.2327759    0.1462884 -27.90 0.0007101736    1.561    0.360
       328  -8.3656     26.9782     33.5505   1.0307395341e+02   6.8417681590e+01     0.166616    0.1279369  18.06  0.000283161    1.496    0.332
       329  -8.1813    116.6597     32.3413   6.7240311318e+01   5.1944480970e+01    0.1595627    0.1151851 -64.90 0.0007049345    1.772    0.436
       330 -10.1143    241.0611     29.9514   4.8097847347e+01   2.0874681374e+01    0.3977238    0.1161315 -41.44  0.001491434    2.890    0.654
       331  -8.7871      1.5016     31.1094   1.1679800777e+02   7.0833954949e+01    0.1833529   0.09738128 -67.56 0.0005320003    1.500    0.333
       332  -8.4200    170.4580     29.1005   5.5648772086e+01   3.8256288641e+01    0.2273728     0.144133 -23.68  0.000890722    1.567    0.362
       333  -7.8598    125.6565     29.6863   6.4009810875e+01   5.0036153389e+01    0.1623557    0.1110496  27.34 0.0007047193    1.708    0.415
       334  -8.4162    174.4012     28.1412   5.4762980594e+01   3.7326312867e+01    0.2319292    0.1431423 -26.14 0.0009953567    1.575    0.365
       335  -8.4559    172.2706     24.6336   5.3875776259e+01   3.8291588559e+01    0.2887287    0.1304439 -30.36 0.0006874266    2.052    0.513
       336  -8.2346    152.6981     28.3101   5.8171139773e+01   4.3083015297e+01     0.156724    0.1108405 -59.62 0.0007015552    1.606    0.377
       337  -9.2543     42.1921     27.7781   9.2611110551e+01   6.7819364104e+01     0.185784    0.1675501 -46.98 0.0004111832    1.127    0.113
       338  -7.8290    187.3396     27.6458   5.2900226231e+01   3.4000702625e+01    0.1626264   0.09929622 -56.42 0.0007041696    1.807    0.447
       339  -9.0726      1.4356     27.0254   1.1578939651e+02   7.1770637979e+01    0.1858843   0.09648499 -66.80 0.0004149754    1.540    0.351
       340  -9.7851      3.5001     23.5092   1.1348723555e+02   7.2462018959e+01    0.2136176   0.09915647 -66.21 0.0007382233    1.759    0.432
       341  -8.4877    250.5152     25.9894   4.6348089884e+01   1.9253384029e+01    0.1960133    0.1100365 -24.62 0.0007635784    1.535    0.349
       342  -8.4582    156.7760     26.0057   5.6656923148e+01   4.2270791201e+01    0.2030021    0.1219591 -24.35 0.0008747031    1.662    0.398
       343  -9.6635    187.4503    246.9066   1.0059286645e+02   4.1671895423e+00    0.2422459    0.1443983 -38.54   0.00174539    2.285    0.562
       344  -9.8980    208.1691     22.3919   4.8996008586e+01   2.9299815137e+01    0.3828721    0.1975953  -7.38  0.001567386    2.406    0.584
       345  -9.9621    242.8946     22.8936   4.6138361981e+01   2.1185758499e+01     0.252159    0.1517915 -30.86  0.001343137    1.401    0.286
       346  -8.1523    232.6628    247.3277   9.3641809121e+01  -1.5938175061e+00   0.08632929   0.06920961  37.51 0.0007051812    1.728    0.421
       347  -8.6926    179.4597     37.4769   5.7112170110e+01   3.4878151736e+01    0.2799342    0.1133561 -37.10  0.001031253    2.273    0.560
       348  -8.9104     84.9924     21.4935   7.1421513331e+01   6.1065659135e+01    0.2260012    0.1836791 -25.90 0.0005553108    1.186    0.157
       349  -7.8940    178.7008     21.6711   5.2040110559e+01   3.6915676425e+01    0.1516214    0.1071343  29.97 0.0007029627    1.640    0.390
       350  -8.2450    161.0000     20.9179   5.4176638424e+01   4.1720053126e+01    0.2435721   0.08370565 -22.70 0.0007985032    2.915    0.657
       351  -8.8316    118.4468     24.3570   6.3430698143e+01   5.2606172208e+01    0.2463446    0.1480627 -19.91 0.0003389408    1.759    0.431
       352  -8.3282     74.3028     20.3228   7.4588327905e+01   6.3542354981e+01    0.1454735    0.1051931   9.05 0.0005600365    1.634    0.388
       353 -10.1991    177.4641    242.3233   1.0168497667e+02   5.9581063755e+00    0.2076594    0.1965763   4.42  0.001017429    1.429    0.300
       354  -8.7768    155.6841     15.8616   5.3112599040e+01   4.3699238411e+01    0.2888579    0.1405695 -10.06  0.001075404    2.510    0.602
       355  -8.4943    140.4982     16.5093   5.5755978768e+01   4.7734662241e+01    0.1476877    0.1429252  40.78 0.0001003163    1.022    0.022
       356  -9.0306      2.3324     15.9534   1.1175939262e+02   7.4197787730e+01    0.1731947    0.1252684 -53.49 0.0005848549    1.089    0.082
       357  -8.4948     23.5150     15.4694   9.7289666348e+01   7.2590149312e+01    0.1268427    0.1067449 -36.90 0.0001655768    1.019    0.018
       358  -9.4895     29.9555     12.9819   9.1954059344e+01   7.2319735608e+01    0.1920206    0.1609726 -25.90 0.0003645051    1.038    0.037
       359  -9.4754    250.1270    245.1732   9.0816521263e+01  -3.5020854148e+00    0.1514981    0.1121232   8.37  0.000518177    1.232    0.188
       360  -8.1477    142.3442     11.2999   5.3384945223e+01   4.7782865657e+01    0.1598481    0.1031559  36.43  0.000703687    1.677    0.404
       361  -8.9792    202.8321    243.3107   9.7698715022e+01   2.5072956253e+00     0.162702    0.1025972  39.68  0.001182728    1.446    0.308
       362  -8.7848    210.2934    242.0456   9.6365380212e+01   1.6592094086e+00     0.138044      0.10274  16.01 0.0004732186    1.120    0.107
       363  -9.1516    240.7506    240.9239   9.1600733224e+01  -2.0577563130e+00    0.1666661    0.1137337  45.23  0.001219006    2.133    0.531
       364  -8.9267    248.6277    240.3935   9.0383748769e+01  -2.9601864373e+00    0.1265367    0.1031768  27.81 0.0008084713    1.620    0.383
       365  -9.5191    206.7964    237.2472   9.6297494238e+01   2.5633110866e+00    0.2328272    0.1371682  46.85  0.001526601    2.005    0.501
       366  -8.5000    243.8514    236.8031   9.0583054354e+01  -2.1023369057e+00     0.126033   0.09638187  22.07 0.0006639255    1.317    0.241
       367  -9.1948    230.1088    236.9023   9.2639619916e+01  -4.1029836024e-01    0.1755127     0.144461  53.80  0.001332569    2.298    0.565
       368 -10.2904    189.6548    234.7527   9.8749686095e+01   5.1065114596e+00    0.2234225    0.1912514 -78.95  0.001666532    2.323    0.570
       369  -9.3267    245.1725    230.9618   8.9570780719e+01  -1.7877848619e+00    0.1256422    0.1131962 -25.86  0.001055276    1.977    0.494
       370  -9.6250    235.4359    229.7547   9.0845975809e+01  -4.6717560914e-01    0.1924125    0.1668474 -11.68  0.001479566    1.605    0.377
       371  -8.2569    207.5506    231.4498   9.5411564574e+01   3.0224259231e+00    0.1081206   0.07652827  22.72 0.0001253724    1.018    0.018
       372  -9.0429    229.4539    228.4398   9.1567622644e+01   4.1567340997e-01    0.1714211    0.1541484  61.51 0.0009218809    2.258    0.557
