#   1 NUMBER                 Running object number                                     
#   2 MAG_AUTO               Kron-like elliptical aperture magnitude                    [mag]
#   3 X_IMAGE                Object position along x                                    [pixel]
#   4 Y_IMAGE                Object position along y                                    [pixel]
#   5 X_WORLD                Barycenter position along world x axis                     [deg]
#   6 Y_WORLD                Barycenter position along world y axis                     [deg]
#   7 A_WORLD                Profile RMS along major axis (world units)                 [deg]
#   8 B_WORLD                Profile RMS along minor axis (world units)                 [deg]
#   9 THETA_WORLD            Position angle (CCW/world-x)                               [deg]
#  10 FWHM_WORLD             FWHM assuming a gaussian core                              [deg]
#  11 ELONGATION             A_IMAGE/B_IMAGE                                           
#  12 ELLIPTICITY            1 - B_IMAGE/A_IMAGE                                       
         1  -8.8583    189.5385     14.7474   6.6519684334e+01   3.6194267725e+01     0.353342    0.2402506 -80.46  0.001124833    1.532    0.347
         2  -9.5903    233.5993     10.1728   6.0692858378e+01   2.6166293016e+01    0.3241625    0.2236823 -42.48  0.001690869    1.459    0.315
         3  -7.9177    206.2513      5.0430   6.2183377175e+01   3.3149344237e+01    0.1687107    0.1477493 -72.67  0.000365179    1.117    0.104
         4  -7.2922    134.4439    241.2284   1.2927564534e+02   6.3222343256e+00    0.1545349     0.116842 -83.55 0.0003924259    1.537    0.349
         5  -9.0504     59.5467    249.8083   1.4357019370e+02   1.6331051938e+01    0.2684245    0.1258467  66.87   0.00146254    1.994    0.498
         6 -10.1389     47.2650    248.7657   1.4551499859e+02   1.8126104257e+01    0.2595737    0.1983763 -88.21  0.001944366    1.253    0.202
         7  -9.9011     39.9746    244.7982   1.4641965910e+02   1.9766807013e+01    0.3581765    0.1362544  64.71  0.001781937    2.552    0.608
         8  -6.9303    125.3995    237.4611   1.3050622757e+02   8.5262764663e+00    0.1274521    0.1047178  62.15 3.521997e-05    1.034    0.033
         9  -7.2021    113.8387    237.6412   1.3271100994e+02   1.0425427673e+01    0.1797871   0.09522621  52.42 0.0005074796    1.606    0.377
        10 -11.7593     57.0623    229.6307   1.4231523822e+02   2.0483174269e+01    0.9416466    0.5923697  62.09  0.005963199    1.301    0.231
        11  -7.3409    106.9362    236.4799   1.3386977189e+02   1.1767093670e+01    0.1789309    0.1058775  47.00 -3.282095e-05    1.450    0.311
        12  -7.0780     74.5756    236.7463   1.3983739011e+02   1.6676776784e+01    0.1034933   0.09344626  21.21 0.0003006334    1.761    0.432
        13  -7.1669    109.5704    233.4653   1.3301896762e+02   1.1900711138e+01     0.125737    0.1058613  63.58 3.855624e-05    1.057    0.054
        14  -8.6568     80.3909    231.9216   1.3830648779e+02   1.6756241777e+01    0.2704354    0.2142062 -44.69   0.00150648    1.909    0.476
        15  -7.1440    124.7823    232.0163   1.2992821184e+02   9.6222735264e+00    0.1488461    0.1038345 -62.95 0.0004200498    1.598    0.374
        16  -7.3502     29.0465    230.0161   1.4718863855e+02   2.3869116421e+01    0.1331973   0.09504712  78.83 0.0003017935    1.011    0.011
        17  -7.2103    104.2122    228.4285   1.3343931580e+02   1.3733116620e+01    0.1739288    0.1006825  54.68 0.0004337566    1.498    0.332
        18  -7.0359    118.2841    226.3212   1.3045002394e+02   1.1798554541e+01    0.1147911     0.104131  -0.15 0.0002322901    1.593    0.372
        19  -7.3159    130.7880    224.3871   1.2773011180e+02   1.0003943669e+01    0.1800886    0.1146292  37.24 0.0003462779    1.590    0.371
        20  -7.2689     88.5676    223.7910   1.3590012537e+02   1.7120144851e+01     0.158025    0.1075643 -87.55 0.0003997183    1.445    0.308
        21  -7.6850    158.0490    222.9952   1.2211365532e+02   5.3577415770e+00    0.1997368    0.1472469  69.50 0.0003366758    1.568    0.362
        22  -7.4238     81.0366    223.2939   1.3728132754e+02   1.8361283371e+01    0.1724306    0.1331311  65.17 0.0003417659    1.075    0.070
        23  -7.4725    137.9410    222.2552   1.2600646020e+02   9.1366122077e+00    0.1843827    0.1490037  50.76 0.0003137508    1.081    0.075
        24  -7.7388     75.5254    221.8941   1.3817687261e+02   1.9455054170e+01    0.1726136    0.1100154 -71.44 0.0006012412    1.522    0.343
        25  -7.6187     94.9488    221.5256   1.3440663738e+02   1.6575659386e+01    0.1853494    0.1108134  47.30 0.0004078111    1.496    0.332
        26  -7.5511    117.6392    219.9875   1.2973941337e+02   1.3134358523e+01    0.1792569    0.1531395  85.96 0.0005936831    1.134    0.118
        27  -7.7751     84.8375    218.7871   1.3605264162e+02   1.8698282800e+01    0.1777182    0.1571348  77.59 0.0005364889    1.159    0.137
        28  -9.0288     68.8688    217.2594   1.3895688441e+02   2.1352712105e+01    0.3667105    0.1607835 -81.88  0.001595562    2.828    0.646
        29  -8.3301     78.1289    217.6631   1.3722478426e+02   1.9933217454e+01    0.1759671    0.1419939  63.68  0.001054051    1.111    0.100
        30  -7.0810    163.9969    216.2496   1.1985047869e+02   5.4724859754e+00    0.1806032    0.1050655  43.57 0.0004121459    1.525    0.344
        31  -8.0682     73.2301    216.3890   1.3803026458e+02   2.0909571335e+01     0.172667   0.09680031  54.13 0.0004554203    1.568    0.362
        32  -7.5936    132.3596    234.3593   1.2877665094e+02   7.8936386092e+00    0.1777542    0.1477169  17.87 0.0006467836    1.616    0.381
        33  -7.5591    139.4383    214.7177   1.2458550360e+02   1.0300300705e+01    0.1621948    0.1316057 -43.61 0.0003793407    1.467    0.318
        34  -7.3371    146.5761    214.5038   1.2309887831e+02   9.0323744740e+00    0.1365188    0.1204107  59.12 0.0001230116    1.029    0.028
        35  -7.8253    114.8744    212.5627   1.2928146107e+02   1.5089391994e+01    0.2013873    0.1725589 -65.12 0.0004648428    1.271    0.213
        36  -7.9582     87.1089    212.8751   1.3491713917e+02   1.9564324279e+01    0.2221016    0.1680171 -85.23 0.0007809215    1.228    0.185
        37  -8.4930     71.2310    212.0047   1.3794345063e+02   2.2105508916e+01    0.2114924    0.1602326  56.72 0.0005435147    1.213    0.175
        38  -8.7252     64.9697    211.0107   1.3905364948e+02   2.3193090405e+01    0.1873626    0.1553164  81.65 0.0004770489    1.081    0.075
        39  -7.3556    122.4389    214.5346   1.2801906939e+02   1.3379371170e+01    0.1354874    0.1159032  66.30  9.61405e-05    1.019    0.019
        40  -7.3972    127.4860    210.0349   1.2633061567e+02   1.3384021092e+01    0.1871942    0.1330386 -60.55 0.0004534017    1.507    0.336
        41  -8.0578     96.2827    208.2718   1.3249624501e+02   1.9076683168e+01    0.2036115    0.1641512 -88.03 0.0005495394    1.152    0.132
        42  -8.9603     63.8206    203.1469   1.3843438306e+02   2.5018162338e+01    0.1988097    0.1600949  77.07 0.0005586589    1.033    0.032
        43  -9.7342     69.2141    199.7032   1.3695854615e+02   2.5010758116e+01     0.789919    0.3074227  64.29  0.002701366    4.265    0.766
        44 -10.2390     72.7092    206.6178   1.3705184208e+02   2.3028250848e+01    0.4880292    0.2916669  84.02  0.002576785    1.747    0.428
        45  -9.3745     67.6227    206.1185   1.3800664437e+02   2.3856836834e+01    0.2699255     0.214313  53.46 0.0008131418    1.266    0.210
        46  -7.4936    110.2508    208.6094   1.2967880164e+02   1.6689688614e+01    0.1693081    0.1212636  38.79   0.00026304    1.475    0.322
        47  -7.4591    136.0072    207.2998   1.2414715858e+02   1.2385115800e+01    0.1898854    0.1606269  58.47 0.0003760503    1.056    0.053
        48  -9.9892    124.0055    206.0098   1.2645004534e+02   1.4823222475e+01    0.1952884    0.1718876  66.48  0.001162262    1.007    0.007
        49  -9.6143    174.1353    204.0279   1.1570465524e+02   5.7888952685e+00     0.235187    0.2236101 -36.38  0.001415158    1.151    0.131
        50  -7.7145    118.4709    205.9179   1.2759067196e+02   1.5823247051e+01    0.2015366    0.1646859  58.10 0.0005783719    1.091    0.083
        51  -7.3364    159.5053    204.5110   1.1880313301e+02   8.5114914556e+00    0.1412047    0.1267727  56.06 3.481606e-05    1.043    0.041
        52  -7.3358    153.1657    203.7482   1.1999160079e+02   9.8709305812e+00    0.1751513    0.1596437   8.33 0.0004133735    1.297    0.229
        53  -8.3406     79.8089    203.8416   1.3529549928e+02   2.2578296767e+01    0.1792694    0.1589082  87.72 0.0003018859    1.147    0.128
        54  -8.0372    194.0284    199.5082   1.1084610190e+02   2.7711257612e+00    0.2550688    0.1998758 -63.70  0.001349918    1.634    0.388
        55  -8.2306    192.3796    194.4754   1.1022119745e+02   3.9966171202e+00    0.3733172    0.1354637 -48.91  0.001305175    3.289    0.696
        56  -8.6335     76.1172    199.1749   1.3548209867e+02   2.4131599218e+01    0.2288524    0.1661203  88.02 0.0003693166    1.253    0.202
        57  -7.5959     59.5356    199.5182   1.3889300795e+02   2.6378785651e+01    0.1280544    0.1009056  81.86 1.353798e-05    1.025    0.024
        58  -7.9050    107.0245    197.9377   1.2883087933e+02   1.9488409933e+01    0.2022237    0.1767141  71.51 0.0003426123    1.022    0.021
        59  -7.1095    116.0400    197.0010   1.2676524381e+02   1.8123732047e+01    0.1658056    0.1474153  79.49 0.0003952115    1.033    0.032
        60  -7.9578     91.7827    197.1253   1.3194863539e+02   2.2179221141e+01    0.1945078    0.1571129  75.70 0.0003381797    1.093    0.085
        61  -7.6888    142.0047    196.5034   1.2112065013e+02   1.3450251468e+01     0.209024    0.1300829  46.75 0.0004854392    1.483    0.326
        62  -6.8223    111.7040    195.6927   1.2749565363e+02   1.9164677280e+01    0.1257108    0.1118963 -15.66 0.0002483125    1.588    0.370
        63  -7.3453     57.6322    194.7190   1.3874813862e+02   2.7674981200e+01    0.1123699    0.0971852 -39.12 0.0007014101    1.689    0.408
        64  -6.9410     46.6769    194.2901   1.4091247240e+02   2.9155757604e+01    0.1287117   0.07619151  71.76 0.0004152915    1.608    0.378
        65  -7.4680     76.0519    193.5028   1.3478824422e+02   2.5382424670e+01     0.188574    0.1200182  45.80 0.0005435351    1.545    0.353
        66  -7.1089    136.4641    192.5080   1.2163265012e+02   1.5331620755e+01    0.1451971     0.128412  70.22 6.120175e-05    1.066    0.062
        67  -6.8156     87.7358    192.2933   1.3214848349e+02   2.3877624434e+01    0.1342249   0.09127817  77.29 0.0001665593    1.505    0.335
        68  -7.8559     82.0264    189.5110   1.3299383169e+02   2.5375138619e+01    0.1907925     0.161377 -87.06 0.0003928022    1.060    0.057
        69  -7.0644    141.5790    189.4845   1.1999783644e+02   1.4988301950e+01    0.1436616    0.1319227  69.60 8.414786e-05    1.023    0.023
        70  -7.9435     16.6391    188.5674   1.4625726933e+02   3.3673531886e+01    0.1926694    0.1346365  78.96 0.0004875427    1.151    0.131
        71  -7.3387     74.9877    187.4693   1.3423436314e+02   2.6878686099e+01    0.1833588   0.09192633  61.98  0.000346584    2.256    0.557
        72  -7.3863     89.2429    186.0138   1.3093786818e+02   2.5037857502e+01    0.1886679    0.1560221 -85.62 0.0003939569    1.091    0.083
        73  -7.0923     82.6815    184.7253   1.3219205520e+02   2.6347209809e+01    0.1199434    0.1068418 -29.88 0.0002542688    1.570    0.363
        74  -7.2671    144.0410    183.0337   1.1829629220e+02   1.5871699946e+01    0.1689344    0.1603422  86.06 0.0009520681    1.047    0.045
        75  -7.3617     76.9133    181.6774   1.3303360375e+02   2.7901400466e+01    0.1814179    0.1532786  74.26 0.0005558292    1.073    0.068
        76  -6.5055    136.3185    181.6835   1.1976166406e+02   1.7666871990e+01    0.1512507    0.1098246  78.42 0.0007039784    1.655    0.396
        77  -6.9048     35.6436    179.7383   1.4164886622e+02   3.3640901615e+01    0.1091366   0.08844594 -47.36 0.0002458412    1.623    0.384
        78 -10.2440    100.9991    175.9943   1.2676293534e+02   2.5379216261e+01    0.2024267    0.1791576  84.00            0    1.013    0.013
        79  -6.8641     39.6842    176.6824   1.4047356134e+02   3.3873859243e+01    0.1171116   0.08671674 -49.61 0.0007038438    1.651    0.394
        80  -6.8163     49.3552    175.2608   1.3823506948e+02   3.3063915889e+01    0.1140668   0.09468202 -41.44 0.0003576443    1.619    0.382
        81  -7.1125     32.9943    175.2078   1.4172578032e+02   3.4936992760e+01    0.1367398   0.09364623  42.09            0    1.631    0.387
        82  -7.0173     45.7449    170.9760   1.3850630640e+02   3.4467794174e+01    0.1602367   0.09206525 -70.43 0.0005849252    1.472    0.321
        83  -7.2926    121.6247    169.8208   1.2092987746e+02   2.3098729944e+01    0.2055082    0.1342822 -68.33  0.000552922    1.670    0.401
        84  -7.0776     97.5186    170.4766   1.2665298516e+02   2.7229780978e+01     0.142823    0.1264864  87.03 -2.578187e-05    1.016    0.015
        85  -7.4669     50.1570    166.8243   1.3700661822e+02   3.4893569433e+01    0.1679823    0.1310609 -62.46 0.0006273122    1.258    0.205
        86  -6.5884    117.3434    165.3055   1.2109033029e+02   2.4925006685e+01    0.1426714    0.1192452 -10.53 0.0007041793    1.688    0.408
        87  -7.2158    109.0077    165.5407   1.2309996358e+02   2.6386009242e+01    0.2015769    0.1135828  64.11 0.0003934693    2.294    0.564
        88  -7.4144     97.7001    164.6674   1.2562140662e+02   2.8544580383e+01    0.1376221     0.111702 -29.30 0.0003819267    1.650    0.394
        89  -7.5670     39.0607    164.0606   1.3915046852e+02   3.6801200531e+01    0.1912926    0.1232433  78.55 0.0003730045    1.537    0.349
        90  -7.3262     50.6355    157.7724   1.3568698867e+02   3.6927378542e+01    0.1838116    0.1060091 -77.42  0.000719002    1.610    0.379
        91  -6.8668    117.6415    156.6727   1.1935878900e+02   2.6855479550e+01     0.149011     0.120153 -12.04 0.0007043509    1.784    0.439
        92  -7.7064      2.9441    155.7290   1.4614795156e+02   4.1986452775e+01    0.1693733    0.1237425 -66.16 0.0005386014    1.260    0.206
        93  -7.0468     24.5544    154.4792   1.4127857815e+02   4.0449772284e+01    0.1227001   0.09532991 -79.09 7.181201e-05    1.022    0.022
        94  -8.7298    120.3683    149.2554   1.1719091616e+02   2.8053112441e+01    0.3036994    0.2526531 -38.33 0.0006310979    1.332    0.249
        95  -7.0129    132.5123    149.4969   1.1428957909e+02   2.5606417947e+01    0.3307053    0.1398181  28.95 0.0008106132    5.769    0.827
        96  -8.1769    185.8572    140.5730   1.0008054280e+02   1.5968517263e+01    0.2626173     0.210028 -42.44 0.0002587234    1.244    0.196
        97  -7.8032    133.3199    138.9272   1.1175668264e+02   2.7848531386e+01     0.269884    0.1764129   3.23 0.0009030373    3.515    0.716
        98  -8.8016    231.3509    133.8290   8.9680192572e+01   7.2490365652e+00    0.2495115    0.2180861  30.32 0.0002485731    1.236    0.191
        99  -7.8986    118.2044    133.8909   1.1439342364e+02   3.2022802009e+01    0.2222132    0.1955352 -82.39 0.0003565293    1.170    0.146
       100  -7.5391     21.2049    112.3998   1.3640251850e+02   5.0259304769e+01    0.1490856    0.1069096  47.16 0.0006647478    1.683    0.406
       101  -7.6687    134.7023    106.3467   1.0334588340e+02   3.4778279091e+01    0.1585569     0.122353 -81.51 0.0003771183    1.677    0.404
       102  -7.7407    203.4902     93.4413   8.4899296469e+01   2.1078298684e+01    0.1512631     0.144608 -73.79 6.957999e-05    1.008    0.008
       103 -10.5676    147.3825     85.9688   9.4556029277e+01   3.6046214227e+01    0.5988817    0.4171178 -34.52  0.002747829    1.486    0.327
       104  -8.3154    184.9910     77.9794   8.4271887262e+01   2.8383118069e+01     0.242808    0.1865449  22.92  0.001016243    1.701    0.412
       105  -7.7113    170.3120     74.3141   8.6155186077e+01   3.2654460137e+01    0.1533801    0.1194876  20.16 0.0005436687    1.635    0.388
       106  -8.1839    149.5139     73.4933   9.0426361604e+01   3.7837965119e+01    0.1495755      0.14564  36.10 0.0008103537    1.026    0.025
       107  -8.4750    187.8246     70.9919   8.1852961619e+01   2.8874545269e+01    0.2369798    0.2069469  66.68  0.000358801    1.115    0.103
       108  -8.0119    139.3820     70.7912   9.2001374370e+01   4.0678488605e+01    0.2029488    0.1423046 -24.58 0.0005852216    1.596    0.373
       109  -9.8532    157.9444     66.9279   8.6620978475e+01   3.6942330582e+01    0.3635661    0.2659009  39.88  0.001427005    1.430    0.301
       110  -9.7468    242.9816     58.7734   7.0495772390e+01   1.7535860600e+01    0.2635039    0.2380032 -75.18 0.0003906969    1.064    0.060
       111  -8.5800    246.9995     54.5310   6.9061740135e+01   1.7267513835e+01    0.2413542     0.187961 -37.08  0.000439753    1.335    0.251
       112  -8.2758    128.6586     58.1806   9.0712406006e+01   4.5223274703e+01    0.2347968    0.1927548  57.69 0.0004243547    1.262    0.208
       113  -9.1570    152.2535     54.8263   8.4229239643e+01   4.0256774128e+01    0.3124857    0.2395774  59.91 0.0008426622    1.268    0.211
       114 -10.4087    169.2829     48.2051   7.8890958600e+01   3.7057689921e+01    0.5624843    0.4342238  19.80  0.002829132    1.640    0.390
       115  -7.9664    243.6629     47.9403   6.7975997478e+01   1.8982722402e+01    0.2577026    0.1740347  51.26  0.001359239    1.739    0.425
       116  -7.5930    115.5741     42.1932   8.8759778804e+01   5.0470410068e+01    0.1849622    0.1284528 -12.44 0.0005678666    1.628    0.386
       117  -7.5714    227.9885     41.3173   6.8295944290e+01   2.3552499108e+01    0.2709198    0.1206617  75.14  0.001092882    2.484    0.597
       118  -7.7632    157.1391     36.7358   7.7776361611e+01   4.1614087117e+01    0.2705554    0.1794836  13.34  0.001225412    2.189    0.543
       119 -10.0322    139.0432     34.8130   8.0800002252e+01   4.6193022868e+01    0.2269707    0.2146093  32.57            0    1.048    0.046
       120  -8.7687    183.4627     23.8981   6.9761799774e+01   3.6672375498e+01    0.3702556    0.2319831  84.29  0.001129126    1.681    0.405
       121  -9.1711    170.2108     24.3977   7.1896608753e+01   3.9896528785e+01    0.3463085    0.2051839  74.87  0.001577543    1.701    0.412
       122  -8.5494    165.6435     22.4660   7.2073435965e+01   4.1239846545e+01    0.3863913    0.1457665 -32.49  0.001553482    2.752    0.637
       123  -9.3666     38.3270    249.5342   1.4700942206e+02   1.9097902313e+01    0.2080158     0.135792  80.04  0.001482907    1.168    0.144
       124  -7.4917    119.5057    242.3436   1.3221177726e+02   8.6411724578e+00     0.244936    0.1046843  32.73 0.0009443877    3.482    0.713
