#   1 NUMBER                 Running object number                                     
#   2 MAG_AUTO               Kron-like elliptical aperture magnitude                    [mag]
#   3 X_IMAGE                Object position along x                                    [pixel]
#   4 Y_IMAGE                Object position along y                                    [pixel]
#   5 X_WORLD                Barycenter position along world x axis                     [deg]
#   6 Y_WORLD                Barycenter position along world y axis                     [deg]
#   7 A_WORLD                Profile RMS along major axis (world units)                 [deg]
#   8 B_WORLD                Profile RMS along minor axis (world units)                 [deg]
#   9 THETA_WORLD            Position angle (CCW/world-x)                               [deg]
#  10 FWHM_WORLD             FWHM assuming a gaussian core                              [deg]
#  11 ELONGATION             A_IMAGE/B_IMAGE                                           
#  12 ELLIPTICITY            1 - B_IMAGE/A_IMAGE                                       
         1 -14.1126    186.5311     32.5019   6.2899464806e+01   3.4098407208e+01      1.11199      1.06284  -1.61  0.003026165    1.041    0.039
         2 -15.0535    193.6953     22.0069   5.8495165290e+01   3.3341861804e+01     2.723058     1.586959  20.11  0.001373937    2.162    0.537
         3 -10.7936     40.7532      3.2341   8.9417269156e+01   6.9489685919e+01    0.2034114   0.08090368 -28.96 0.0008992956    2.476    0.596
         4  -9.7317     66.0135    236.9609   1.2732784988e+02   2.2869360457e+01    0.1338463   0.09734783  59.95            0    1.054    0.051
         5 -15.8079    119.9092    238.7076   1.1902771194e+02   1.5713331345e+01      6.25167     2.365994  49.14    0.0358378    1.994    0.499
         6 -10.7845     44.9213    210.6713   1.2900734749e+02   2.9172987696e+01    0.1816664    0.1054086  58.77 0.0006830773    1.310    0.237
         7 -11.4944     39.9157    207.7578   1.2965213567e+02   3.0167472840e+01    0.2529988    0.1081466  49.63 0.0009692426    1.786    0.440
         8 -11.9522    116.0250    211.7751   1.1700748448e+02   1.9950653027e+01    0.3104496    0.1882541  75.78  0.001019002    2.172    0.540
         9 -10.3368     50.3100    213.2147   1.2828457287e+02   2.8185645983e+01    0.1639001   0.09795959  50.09 0.0004408474    1.332    0.249
        10 -14.6109     53.2289    229.8268   1.2885781634e+02   2.5347853510e+01     1.013044    0.9182188 -40.62  0.009126235    1.955    0.488
        11 -10.2958      1.6684    206.2762   1.3572785371e+02   3.3988993719e+01    0.1038854   0.07030535  40.40 0.0006615568    1.626    0.385
        12 -12.3244    106.3944    202.1162   1.1766468745e+02   2.2799701268e+01    0.4004428    0.1863466  43.77  0.001378667    1.767    0.434
        13 -13.4825     69.5924    194.9684   1.2357343709e+02   2.8886310645e+01    0.5891891    0.4754644  71.29  0.004660137    1.058    0.055
        14 -11.6727    182.5075    233.9260   1.0851707550e+02   7.0049423783e+00    0.3734714    0.1646388  52.12  0.002014976    2.257    0.557
        15 -12.9810    195.4312    194.9512   1.0087924205e+02   9.3218987107e+00     0.694462    0.5413727  71.20  0.003905111    1.905    0.475
        16 -10.4062     81.9833    194.5095   1.2128805375e+02   2.7384835145e+01    0.2428717    0.1507735  49.40  0.001629459    1.334    0.251
        17 -10.9631     37.5185    231.5714   1.3135655375e+02   2.6773062329e+01    0.1926388    0.1632704 -54.00  0.001077126    1.975    0.494
        18  -9.7586    180.6346    193.3220   1.0319237355e+02   1.2092947242e+01    0.1188574   0.08895384  67.91 0.0007039049    1.788    0.441
        19  -9.8021     66.9096    233.3013   1.2695157340e+02   2.3282994499e+01    0.1285692   0.08652067  57.27 0.0002232222    1.069    0.064
        20 -10.2814     59.0552    188.1988   1.2489911830e+02   3.1299295960e+01    0.1729758     0.161757  75.40  0.001443827    1.337    0.252
        21 -11.5380    207.7357    183.8718   9.6926910890e+01   8.4872244299e+00    0.2635208    0.2478734  11.63  0.001173761    1.248    0.199
        22 -11.6187    211.0077    181.0202   9.5869123210e+01   8.2413547200e+00    0.3134695     0.220367  15.77   0.00144746    1.420    0.296
        23 -10.1285     75.9223    182.5236   1.2122208280e+02   3.0207630679e+01    0.1624355    0.1316101  82.29 0.0005087033    1.116    0.104
        24 -12.1310     81.1986    179.6723   1.1991325021e+02   3.0013623292e+01    0.2924667    0.2059719 -44.82  0.001892593    1.983    0.496
        25 -12.5144     84.6474    174.1670   1.1862533897e+02   3.0520283000e+01    0.3324558    0.2798263 -53.42  0.001244209    1.466    0.318
        26 -10.7380     99.4584    180.4884   1.1648181219e+02   2.7327675811e+01    0.2128377    0.1642747  61.61 0.0005913111    1.115    0.103
        27 -19.3634     16.0498    133.0937   1.2881575329e+02   4.5916349175e+01     15.62423     1.702214 -74.44   0.04032083    9.748    0.897
        28 -11.4919    197.7698    175.0799   9.7115470978e+01   1.1386066312e+01    0.3259783    0.2971752 -41.34  0.001082434    1.396    0.284
        29  -9.5094     51.6333    174.2827   1.2508301955e+02   3.4603581300e+01    0.1323813    0.0883961 -69.38  0.000560559    1.490    0.329
        30 -15.8824     72.1175    149.5878   1.1821974550e+02   3.6767903208e+01     4.263276      2.06766  82.06   0.01689577    4.052    0.753
        31 -11.0639    203.6643    167.6143   9.4705770311e+01   1.1253096785e+01    0.4051013    0.2873268  40.98  0.001892964    1.219    0.180
        32 -10.3184    177.4655    169.5008   9.9810801480e+01   1.5912000311e+01    0.1294202    0.1104008  36.79 0.0001494834    1.011    0.011
        33 -11.4384    145.4949    168.4837   1.0575795462e+02   2.1891785948e+01    0.2256029     0.199222  48.04 0.0006233001    1.017    0.017
        34  -9.7516     42.4937    221.0267   1.3002127649e+02   2.7824882484e+01    0.1141391   0.09518894 -27.36    0.0005046    2.481    0.597
        35 -10.3400     36.3498    223.2767   1.3110640290e+02   2.8124030532e+01    0.1228523   0.06931826  61.25 0.0002925714    1.295    0.228
        36 -12.5465     97.0594    157.3893   1.1393343980e+02   3.1798177483e+01    0.5209676    0.3894871 -26.38  0.003026273    2.117    0.528
        37  -9.2957    141.5809    158.4582   1.0485608842e+02   2.4239872202e+01    0.1277754    0.1139159  54.53 0.0001820681    1.045    0.043
        38  -9.1473    128.6457    156.3066   1.0714395033e+02   2.6890890464e+01    0.1321719    0.0933842  72.39 0.0003802957    1.717    0.418
        39 -10.7712    134.0000    148.0165   1.0458139459e+02   2.7406629189e+01    0.3380743    0.1896727 -58.32  0.001364703    2.158    0.537
        40 -11.3781    133.5696    142.8632   1.0372464203e+02   2.8402985688e+01    0.6088865    0.2113544 -55.67  0.002072683    4.171    0.760
        41 -10.7086    174.7043    149.0919   9.6501770223e+01   1.9483784376e+01    0.2362401    0.1736375  52.46  0.000630283    1.340    0.254
        42 -10.4592     42.3010    214.2201   1.2965336909e+02   2.8894369196e+01    0.1635543   0.08283616  61.07 0.0007216374    1.552    0.355
        43 -11.5428    144.8987    145.7966   1.0187963707e+02   2.5789947868e+01    0.3692076    0.2658904 -89.53  0.001856973    2.093    0.522
        44 -11.7007    108.0517    141.3334   1.0903567932e+02   3.3102033755e+01    0.4488742     0.295128 -30.75  0.002269119    2.276    0.561
        45 -12.3907     96.2861    142.1391   1.1179726277e+02   3.4804885024e+01    0.2263186    0.2209506  29.56 0.0004032966    1.219    0.179
        46  -9.7583    129.4696    140.4726   1.0416183520e+02   2.9578828919e+01    0.1305906    0.1218429  50.74 0.0008090831    1.029    0.029
        47  -9.9034     48.0812    217.6124   1.2892694422e+02   2.7747345574e+01    0.2415118    0.1397894  27.91  0.001577509    2.609    0.617
        48 -11.5233     78.3776    134.4865   1.1468193056e+02   3.8912298828e+01     0.242943    0.1906995 -73.50  0.001451403    1.205    0.170
        49 -11.3397    115.2488    131.5285   1.0563771736e+02   3.3767564264e+01    0.2664418    0.2292597  13.86 0.0007309695    1.430    0.301
        50 -11.7176    104.2349    129.0252   1.0771179962e+02   3.6107547669e+01     0.518503    0.3400816  77.50  0.001068479    2.118    0.528
        51 -11.1281    119.5247    125.6785   1.0350364056e+02   3.4137259215e+01    0.3656729    0.2193157 -24.26  0.001511604    3.005    0.667
        52 -10.8539    160.7292    128.1912   9.4944006583e+01   2.5695327258e+01    0.3659458    0.2850721  69.26  0.001920677    1.551    0.355
        53 -11.2042    136.6108    123.6157   9.9173411662e+01   3.1337319790e+01    0.4092919    0.3634722 -72.50  0.002338944    1.243    0.195
        54 -10.1816    110.4918    120.0151   1.0447200397e+02   3.6827440780e+01    0.1920346    0.1722052  52.72 0.0003147643    1.095    0.087
        55 -11.8360     66.6543    115.7964   1.1452295990e+02   4.4290840454e+01    0.3294851    0.1946387 -83.63  0.001675188    2.065    0.516
        56 -10.3097    167.7126    112.4930   8.9832521587e+01   2.6865605527e+01      0.33403     0.245191 -82.50  0.001510312    2.204    0.546
        57 -10.2112    205.5039    110.1677   8.1910100718e+01   1.8819458319e+01    0.2560627    0.1943571  43.81 0.0006266995    1.255    0.203
        58  -9.5150    134.4778    102.9366   9.4851625493e+01   3.5607142651e+01    0.2148842    0.1396211 -42.37 0.0009848083    1.562    0.360
        59 -12.2482    171.3618     70.6722   7.7655650711e+01   3.2825696380e+01    0.5081472    0.3543789 -79.26  0.002106707    2.327    0.570
        60  -9.8564     38.0538     57.5567   1.1098456005e+02   5.9809303739e+01    0.1573119    0.1200301  29.70  0.001015887    1.568    0.362
        61 -13.9023    175.6815     41.9621   6.7778762102e+01   3.5796647463e+01     1.015228    0.8201764 -13.23  0.000863055    1.252    0.201
        62 -10.1683    168.2263    248.0148   1.1239100747e+02   7.6633009604e+00    0.1374012    0.1049518  43.31 0.0003100439    1.088    0.081
        63 -10.9143     86.3215    238.5563   1.2429853649e+02   2.0187801933e+01    0.1860476     0.129641  70.13 0.0005154265    1.265    0.210
        64 -10.0356    158.2056     28.1945   6.6248263630e+01   4.2044353176e+01    0.2063739    0.1759551 -59.10  0.000534166    1.362    0.266
