#   1 NUMBER                 Running object number                                     
#   2 MAG_AUTO               Kron-like elliptical aperture magnitude                    [mag]
#   3 X_IMAGE                Object position along x                                    [pixel]
#   4 Y_IMAGE                Object position along y                                    [pixel]
#   5 X_WORLD                Barycenter position along world x axis                     [deg]
#   6 Y_WORLD                Barycenter position along world y axis                     [deg]
#   7 A_WORLD                Profile RMS along major axis (world units)                 [deg]
#   8 B_WORLD                Profile RMS along minor axis (world units)                 [deg]
#   9 THETA_WORLD            Position angle (CCW/world-x)                               [deg]
#  10 FWHM_WORLD             FWHM assuming a gaussian core                              [deg]
#  11 ELONGATION             A_IMAGE/B_IMAGE                                           
#  12 ELLIPTICITY            1 - B_IMAGE/A_IMAGE                                       
         1 -15.3254      5.5780    133.1240   1.3067332268e+02   4.6346473842e+01     7.163336        0.999 -78.91   0.02165552    7.017    0.857
         2 -13.4428    204.1359     29.7955   5.8483608884e+01   3.0251748799e+01     1.480545     1.269789  41.99  0.005824308    1.189    0.159
         3 -13.4957    220.4412     12.8324   5.1498993966e+01   2.7860883996e+01     1.045296    0.8862063  29.04  0.002148193    1.290    0.225
         4 -10.7829     72.3025    174.9631   1.2030400807e+02   3.1293924579e+01     0.201857    0.1658114  77.99 0.0003355802    1.054    0.052
         5 -12.0336    216.7498    248.7019   1.0381004002e+02  -6.7318176374e-01    0.3234951    0.1810202  31.14  0.002256396    1.365    0.267
         6 -12.2869    197.5533    248.1539   1.0666057089e+02   2.1644010588e+00    0.3421972    0.2328455  44.38  0.002597642    1.224    0.183
         7 -12.1737    181.4061    245.5809   1.0885903173e+02   4.8004760731e+00    0.2827817    0.2087575  23.37  0.002183411    1.375    0.273
         8 -12.2118    125.3522    249.8931   1.1806390761e+02   1.2379830001e+01    0.5520775    0.1228985  42.40  0.002471093    3.280    0.695
         9 -13.2889      9.5342    207.7254   1.3380737687e+02   3.2254068922e+01    0.6812707    0.5237886  46.71  0.004146287    1.476    0.323
        10 -13.2115     40.4495    210.7921   1.2891243383e+02   2.8732930152e+01    0.7562572    0.5963798  75.57  0.005225644    1.171    0.146
        11 -12.6600    139.9195    249.6344   1.1577110628e+02   1.0375672646e+01    0.6744078    0.1485673  44.81  0.003010785    3.175    0.685
        12 -10.5354    108.4852    241.4827   1.2000102893e+02   1.5767653265e+01    0.1042359   0.07461312  54.05 4.289639e-05    1.003    0.003
        13 -13.8773     29.5626    221.9208   1.3125101827e+02   2.8072306692e+01    0.5204896      0.35762  69.88  0.002441465    1.048    0.046
        14 -12.7195    167.2961    248.9405   1.1143045989e+02   6.5141996257e+00    0.6241927    0.2343375  51.01  0.003295491    2.455    0.593
        15 -10.9795    129.2554    232.4254   1.1582281210e+02   1.4072647740e+01    0.2131599   0.08251832  40.66  0.001141013    2.090    0.521
        16 -11.6568    118.0750    231.7514   1.1759644659e+02   1.5763805356e+01    0.2794634    0.1131675  45.13   0.00159621    1.837    0.456
        17 -11.6792    105.4488    230.1624   1.1953040768e+02   1.7743444918e+01    0.3360065    0.1063068  41.16  0.001681447    2.554    0.609
        18 -11.3460     91.9279    227.3958   1.2152533091e+02   1.9961485624e+01    0.3186522   0.06546314  43.84  0.001387729    3.367    0.703
        19 -11.6514     58.5154    212.9146   1.2601946906e+02   2.6372007347e+01    0.5183934     0.144087  57.57  0.002295189    3.716    0.731
        20  -8.9387    152.6828    213.0591   1.0970570207e+02   1.3133528718e+01    0.1464096    0.1263348  47.69 0.0003469625    1.102    0.093
        21 -12.8825     24.2903    228.1057   1.3234017132e+02   2.7636303059e+01    0.2009343    0.1636233 -83.62 0.0007309023    1.518    0.341
        22 -11.7585     53.5305    195.6511   1.2566097470e+02   2.9846333005e+01    0.2203542     0.188539  60.80 0.0005565206    1.267    0.211
        23 -11.9049     60.7073    187.4583   1.2370043293e+02   3.0450712827e+01    0.2110687    0.1781622  72.77  0.000346537    1.149    0.130
        24 -11.4627     28.6343    186.8851   1.2954571328e+02   3.4042673480e+01    0.3859784    0.1175962  62.54  0.001797042    3.426    0.708
        25 -12.1153      6.6083    186.3098   1.3340156936e+02   3.6152630952e+01    0.4622425    0.1764698  67.02  0.002472474    2.161    0.537
        26 -12.1017    240.4842    248.9667   1.0032152874e+02  -4.0508015713e+00    0.5847805    0.1272595  40.96  0.002684766    3.179    0.685
        27 -10.2073     94.2171    151.0318   1.1277761580e+02   3.2853849450e+01    0.2737109    0.2193663 -73.00 0.0008214425    1.228    0.186
        28 -11.9642     82.3944    149.7371   1.1520568601e+02   3.4825742429e+01    0.2494517    0.2065598 -62.72 0.0005490021    1.286    0.222
        29  -9.1803     97.6627    146.9881   1.1141328887e+02   3.3132617435e+01    0.1705163    0.1488178 -83.47 0.0003826191    1.100    0.091
        30 -11.6617     68.3917    143.1992   1.1748130412e+02   3.8031477900e+01    0.4928361     0.314661  82.16   0.00183095    1.639    0.390
        31 -10.8198     64.6692    141.6922   1.1813642129e+02   3.8812037575e+01    0.2822749    0.1940719 -61.63  0.000901781    1.438    0.305
        32  -9.7247    107.1173    136.7105   1.0758963801e+02   3.3684776320e+01    0.3580846    0.2480172 -18.04  0.001102917    2.749    0.636
        33 -13.0578     58.1764    172.7506   1.2289216395e+02   3.3454065374e+01    0.4074793    0.2360037 -50.95  0.001825411    2.311    0.567
        34 -10.3827     94.0811    133.4654   1.1007370363e+02   3.6426641060e+01    0.2189736    0.1857287 -64.82 0.0003639327    1.173    0.147
        35  -9.0564    105.2036    123.1752   1.0555783408e+02   3.6768304847e+01    0.1702041    0.1426939  80.64 0.0003157178    1.216    0.178
        36  -8.9627    160.3207     78.3137   8.1291085484e+01   3.4311237711e+01    0.1572999    0.1175282  15.53 0.0007018311    1.654    0.395
        37 -14.9724     13.4906    240.7553   1.3440634085e+02   2.6778479579e+01     2.197127       1.5578  56.86    0.0207777    1.247    0.198
        38 -11.8602     80.0841    166.2692   1.1777760361e+02   3.1905750366e+01    0.4909994     0.408163 -61.62  0.003408317    1.377    0.274
        39 -11.6494     99.4891    248.9717   1.2199582165e+02   1.5964165281e+01    0.2842031    0.1189211  39.73  0.001728814    2.032    0.508
