#   1 NUMBER                 Running object number                                     
#   2 MAG_AUTO               Kron-like elliptical aperture magnitude                    [mag]
#   3 X_IMAGE                Object position along x                                    [pixel]
#   4 Y_IMAGE                Object position along y                                    [pixel]
#   5 X_WORLD                Barycenter position along world x axis                     [deg]
#   6 Y_WORLD                Barycenter position along world y axis                     [deg]
#   7 A_WORLD                Profile RMS along major axis (world units)                 [deg]
#   8 B_WORLD                Profile RMS along minor axis (world units)                 [deg]
#   9 THETA_WORLD            Position angle (CCW/world-x)                               [deg]
#  10 FWHM_WORLD             FWHM assuming a gaussian core                              [deg]
#  11 ELONGATION             A_IMAGE/B_IMAGE                                           
#  12 ELLIPTICITY            1 - B_IMAGE/A_IMAGE                                       
         1 -14.4159    232.1560     14.1075   5.8945286366e+01   2.5767210254e+01     3.886139     2.050246  87.41   0.02042086    1.830    0.454
         2 -11.2405      6.5631      2.8419   1.0824661098e+02   7.1200837140e+01    0.6735028    0.4169604  33.58  0.004732854    2.173    0.540
         3 -13.1716    120.9009      4.7904   7.1435770943e+01   5.2493287217e+01     2.194985    0.4807118  62.27  0.007272442    4.039    0.752
         4 -12.6665     79.2355      4.1134   8.1003908987e+01   6.1073121131e+01     1.569039    0.5141026  37.89  0.006747652    2.795    0.642
         5 -11.6948     67.8450      3.9743   8.4317250053e+01   6.3117577658e+01     1.405575    0.2151872  45.00  0.004917592    4.376    0.772
         6 -12.6002     44.7589      2.9935   9.1818553104e+01   6.6838863751e+01     2.319996    0.4798465  36.50  0.008498233    4.666    0.786
         7 -10.4513      3.8507     12.9276   1.1372855292e+02   7.0094839230e+01    0.3281539    0.2022017   0.45   0.00177043    1.440    0.306
         8 -10.4168     30.1954      3.0428   9.7638806769e+01   6.8750281433e+01    0.5551254    0.2250477  29.72  0.003059144    2.266    0.559
         9 -10.6708     91.4655      3.8542   7.7651214304e+01   5.8754052998e+01    0.6020806    0.2031133  40.50  0.002623376    2.576    0.612
        10 -10.5735    180.4397      8.1512   6.3094996291e+01   3.8334358691e+01    0.2785909    0.1661932 -73.10   0.00142092    1.939    0.484
        11  -9.8150    150.2040      9.5571   6.7711219841e+01   4.5378937108e+01     0.252196    0.1136494  69.39  0.001131858    2.051    0.513
        12 -13.0467     98.0922      4.1470   7.6136644439e+01   5.7400772343e+01     1.613027    0.7252576  38.36  0.008010939    1.988    0.497
        13 -11.0660    173.3577      7.6016   6.3856769177e+01   4.0069156368e+01    0.4910143    0.2241538 -89.81  0.001905282    3.248    0.692
        14 -10.1253    168.9398      2.7743   6.3198267710e+01   4.1551869950e+01    0.3149543    0.1609516  81.07  0.001166438    1.971    0.493
        15 -10.6029    162.0915      3.1243   6.4199298618e+01   4.3139701237e+01    0.5740775   0.08538088  60.96  0.001884699    3.854    0.741
        16 -13.3298     50.5142      9.1342   9.2313002170e+01   6.5392223716e+01      1.67581    0.5630262  41.68  0.007971936    2.705    0.630
        17 -11.9010     22.9237      8.4467   1.0314012785e+02   6.8965041081e+01    0.5527807    0.5065752 -30.57  0.004399097    1.798    0.444
        18  -9.7301    147.9917      2.6536   6.6107609662e+01   4.6489907075e+01    0.1903781      0.14053  65.65  0.001157239    1.124    0.111
        19 -10.1227    152.6929      1.9272   6.5203700839e+01   4.5450686231e+01     0.303216    0.1493571  66.05 0.0008695519    1.665    0.399
        20 -10.7914     20.2118      2.4214   1.0169713061e+02   6.9951162334e+01     0.603386    0.2411639  23.65  0.003290265    2.503    0.601
        21  -9.2303    170.8355    223.8832   1.1552251312e+02   2.7274407940e+00    0.2159167     0.174109  12.47  0.001217613    1.361    0.265
        22 -11.1884    209.0866    217.6758   1.0672126452e+02  -3.0394082891e+00     2.028037    0.9265549 -21.07  0.006581036    4.768    0.790
        23 -12.3287    224.3180    178.1872   9.6081526356e+01   9.3318047891e-01     3.036088     1.150098 -28.72  0.009511433    4.111    0.757
        24 -11.7297    240.7842    140.2576   8.5091207884e+01   4.5237643470e+00     1.543905    0.8674898  16.06  0.005069474    4.586    0.782
        25 -11.1317    215.2910    222.7495   1.0643236310e+02  -4.9053097892e+00     1.238075    0.6490147   6.73   0.00413862    4.692    0.787
        26 -12.1097    211.8785    245.3090   1.1096866342e+02  -7.7041944577e+00     1.406625    0.8135786  18.32  0.007254799    1.926    0.481
        27 -12.8214    227.8355    199.0284   9.9588433521e+01  -3.2463230644e+00     2.740036     1.192187 -25.96   0.01027244    3.203    0.688
        28 -12.2186    242.9939    149.6684   8.6731757653e+01   2.4533342413e+00     2.836732     1.300312 -19.73  0.007536065    6.321    0.842
        29 -11.5065    192.1591    245.2299   1.1473685275e+02  -4.4761182672e+00     1.396219    0.5476812  28.09  0.005098678    3.529    0.717
        30 -10.9541    205.3300    232.6796   1.1010398999e+02  -4.7683260446e+00    0.7390589      0.50499 -16.89  0.004091983    1.679    0.405
        31 -10.7299    228.5510    227.5315   1.0477229112e+02  -7.7971598043e+00      0.57024    0.3723709  -3.94  0.002612269    1.739    0.425
        32 -12.6819    246.6409    163.9987   8.9114581253e+01  -6.7855932382e-01      1.94277     1.079959 -22.98   0.00873091    2.121    0.528
        33 -11.0037    216.7900    231.1675   1.0763568401e+02  -6.4378409712e+00     0.898757    0.4829214  14.12  0.003875671    2.765    0.638
        34 -11.8813    241.1068    177.7349   9.2902596574e+01  -2.0195640884e+00     1.138957    0.4774974 -38.40  0.004811829    2.242    0.554
        35 -11.2721    248.0741    175.4799   9.1219507825e+01  -2.8505917669e+00    0.7555752    0.3980317 -26.00  0.003444374    2.055    0.513
        36 -11.5076    227.6712    218.7254   1.0334346896e+02  -6.3392738590e+00     0.748824    0.4537984 -12.05  0.003718527    2.040    0.510
        37 -11.8311    236.7245    197.6992   9.7675400216e+01  -4.5471618718e+00     1.449581    0.5649258 -26.43  0.004985148    3.870    0.742
        38 -11.0187    249.6020    183.4232   9.2551386966e+01  -4.4043756328e+00     0.520711    0.3604113 -12.53  0.002600886    1.525    0.344
        39 -11.9004    233.4770    245.3477   1.0695579782e+02  -1.1039425481e+01    0.9889836    0.5472363  13.16  0.005047837    2.145    0.534
        40 -11.5987    233.4217    210.7784   1.0079144049e+02  -6.0604696816e+00    0.8407381     0.474227   2.97  0.003549435    2.889    0.654
        41 -11.9944    248.5970    202.2277   9.6408715644e+01  -7.1932753604e+00    0.9796869    0.5012342 -17.86  0.004285605    2.607    0.616
        42 -11.4813    225.5155    241.3575   1.0774721774e+02  -9.2914257165e+00     0.805793     0.336292 -29.91  0.003650469    2.800    0.643
        43 -11.2141    230.5970    234.5324   1.0562783988e+02  -9.1238398637e+00    0.4949329    0.3781052   9.54  0.001680704    1.153    0.133
        44 -11.6125    236.0878    227.5783   1.0338440629e+02  -8.9864616882e+00    0.5962843    0.4084378 -10.75  0.002064466    1.475    0.322
        45 -11.7168    238.5056    217.8641   1.0117442278e+02  -7.9501775958e+00     0.798136     0.445257 -21.75  0.004027694    1.960    0.490
        46 -11.4060    241.3805    237.8526   1.0423412946e+02  -1.1209796060e+01    0.6780012    0.3805271  -5.62  0.003099216    2.325    0.570
        47 -11.4537    249.6289    246.8308   1.0430443340e+02  -1.3555517682e+01    0.5726997    0.2537345 -28.33  0.002950408    2.336    0.572
        48 -11.5488    242.4288    246.6226   1.0555100360e+02  -1.2512623646e+01    0.5164236    0.3134152 -12.11  0.002172392    1.749    0.428
        49 -12.3597    248.0919    236.3988   1.0277632475e+02  -1.1993602186e+01     1.113542     0.392941 -26.46  0.004373733    3.783    0.736
        50 -12.0529    247.1915    225.7160   1.0103607513e+02  -1.0409425916e+01    0.7380146    0.4400961 -13.34  0.003635086    1.826    0.452
        51 -12.3355    247.9469    214.7193   9.8884716711e+01  -8.9551841955e+00    0.6541675    0.3909607 -23.65  0.002399796    1.638    0.389
        52 -12.0224    243.0343    199.0831   9.6796775556e+01  -5.8126753027e+00    0.9961471    0.4029234 -25.71  0.003665892    3.460    0.711
        53 -11.6178    246.5807    191.5052   9.4683330127e+01  -5.1981764253e+00     0.560803    0.4579881   8.12  0.002297804    1.154    0.134
        54  -9.7397    170.9109    233.3344   1.1704858057e+02   1.0780014793e+00     0.337132    0.2407537  19.34  0.001545897    1.553    0.356
        55 -10.7532    124.7914    248.0615   1.2837760372e+02   6.4682988483e+00    0.7659596    0.2556098  39.19  0.003080841    2.672    0.626
        56 -10.4064    133.8786    245.4572   1.2625599922e+02   5.4067805105e+00    0.4412426    0.2742919  33.80   0.00194108    1.583    0.368
        57  -9.9653    199.3074    225.0327   1.0996181378e+02  -2.5332898422e+00     0.391749     0.262541  11.75  0.001873293    1.761    0.432
        58  -9.5651    190.6867    224.2544   1.1154570080e+02  -8.9347007731e-01    0.3594064    0.2390798 -20.59  0.001278024    1.858    0.462
        59 -11.0157    161.6241    235.1121   1.1920659052e+02   2.4111394929e+00    0.8565596    0.4422404  23.12  0.003399783    3.022    0.669
        60  -9.2412    183.9713    226.5462   1.1329102945e+02  -8.7200559917e-02    0.4607199    0.2192616  31.16  0.001971757    2.206    0.547
        61 -10.0611    169.9469    240.6255   1.1838444444e+02   2.9146011462e-02    0.5058181    0.3226701  15.27  0.001707179    2.134    0.531
        62 -11.3858    142.1490    246.7744   1.2479983286e+02   3.7773709633e+00     0.820625    0.4922516  24.81   0.00403876    2.126    0.530
        63 -10.8614    152.8641    243.4472   1.2220922508e+02   2.5112071755e+00    0.8324919    0.5158182 -12.71  0.003454573    3.656    0.727
        64 -10.5145    148.9770    238.7070   1.2230177531e+02   4.0011026474e+00    0.6319354    0.3407646  23.20   0.00263391    2.847    0.649
        65 -10.4889    169.0383    249.9043   1.1995857113e+02  -1.3093006485e+00    0.7544377    0.2534022  36.54  0.002964577    2.751    0.636
        66 -10.9487    177.5222    244.1968   1.1743518965e+02  -1.8483962838e+00    0.7389708    0.4233094  22.04  0.003171691    2.148    0.534
        67 -10.7278    157.3161    245.9986   1.2169364861e+02   1.3184445650e+00    0.6637093    0.4586696   1.94  0.003382817    2.297    0.565
        68 -10.1233    163.8748    245.4066   1.2031047806e+02   2.9169680395e-01     0.445368    0.2928042  30.50  0.001439207    1.441    0.306
        69 -10.4754    184.0623    237.3454   1.1506033559e+02  -1.8780412780e+00    0.5388908    0.3453235 -19.63  0.002742143    2.116    0.527
        70 -10.8450    191.2902    232.2250   1.1278348302e+02  -2.3038019458e+00    0.6651546    0.4595646  16.78  0.003079932    1.569    0.363
        71  -9.4265    163.5215    225.4512   1.1728894850e+02   3.7700900818e+00     0.283972    0.2253829  10.25  0.001407263    1.475    0.322
        72  -9.8295    174.7342    227.2576   1.1528453761e+02   1.4377191980e+00    0.3427985     0.212858  23.68  0.001462933    1.830    0.454
        73  -8.7218    130.4053    223.3967   1.2387980280e+02   1.0084762319e+01    0.2704568    0.1195922  29.30 0.0009573396    3.364    0.703
        74  -8.9550    180.6747    221.3529   1.1307414415e+02   1.3914304819e+00    0.2640047    0.2201619   5.49  0.001530427    1.280    0.219
        75  -8.8347    175.0547    221.1415   1.1419154193e+02   2.4469229824e+00    0.2867488    0.1915142   3.73  0.001321593    2.261    0.558
        76  -9.3875    148.8814    221.2166   1.1966022999e+02   7.1991377812e+00    0.2587524    0.1831812 -15.95    0.0012495    2.176    0.540
        77  -9.3050    185.9281    219.8793   1.1174648356e+02   6.9785583919e-01     0.323908    0.2421293  -3.05  0.001216214    1.617    0.382
        78  -9.7866    202.4660    217.1087   1.0792491416e+02  -1.7878528418e+00    0.4916225    0.3387485 -22.18  0.002424707    1.621    0.383
        79  -8.5964    204.5126    211.9821   1.0658019973e+02  -1.2948607720e+00    0.1893081    0.1258237 -24.54 0.0007403838    1.669    0.401
        80  -8.5749    165.9091    220.3742   1.1595643971e+02   4.2515468521e+00    0.2050468    0.1173467  31.19 0.0009381053    1.792    0.442
        81  -9.7723    193.6252    216.4476   1.0957706629e+02  -1.0064281525e-01      0.41858    0.2983799   0.49  0.002099155    1.736    0.424
        82  -9.2802     13.1124    217.6414   1.4663036523e+02   2.7869623191e+01    0.2094129    0.1225842  87.92  0.001336803    1.398    0.285
        83  -8.4000    159.2021    217.5914   1.1689627888e+02   5.9940107078e+00    0.2028638    0.1213924  31.25 0.0009426012    1.722    0.419
        84  -8.5587    179.8431    215.6467   1.1225132867e+02   2.5468652724e+00    0.2238085    0.1580732  24.86 0.0007964364    1.451    0.311
        85  -8.6749    171.0947    214.7900   1.1392085647e+02   4.3156022230e+00    0.2576918    0.1787829 -12.15  0.001224153    2.066    0.516
        86  -8.4411    185.7677    214.2118   1.1077626187e+02   1.7141294981e+00    0.1915055    0.1526044  10.18  0.001051527    1.343    0.255
        87  -8.2440      2.6685    212.7017   1.4816055039e+02   2.9876026550e+01   0.09877834   0.07539167 -58.29 0.0007030145    1.644    0.392
        88  -8.6102    200.4393    209.6748   1.0696672325e+02  -1.7104778378e-01    0.2203458     0.153512  16.61 0.0007584558    1.583    0.368
        89  -8.8070    186.9518    209.4769   1.0967585139e+02   2.3361885637e+00      0.25047    0.1889894 -12.19 0.0008820237    1.568    0.362
        90  -8.8749    192.9664    208.5018   1.0826261557e+02   1.3979033038e+00     0.259363    0.1889312 -17.80  0.000992336    1.588    0.370
        91  -8.4463    177.0144    208.9795   1.1165146784e+02   4.2794153632e+00     0.223974    0.1671025   4.42  0.001126663    1.678    0.404
        92  -9.4795    206.5433    206.2603   1.0510687064e+02  -6.8947195370e-01    0.3182454     0.231107  14.17  0.001311372    1.477    0.323
        93  -7.9799    183.5070    205.5114   1.0966051479e+02   3.6967404589e+00    0.1429424    0.1268491  18.23  0.000809267    1.080    0.074
        94  -9.0205    198.0777    202.1765   1.0603348732e+02   1.5716728596e+00    0.2918361    0.2268482   4.10  0.001257485    1.419    0.295
        95  -8.2398    206.1531    201.7687   1.0432925161e+02   1.5469899071e-01    0.1906928    0.1511225   3.26 0.0005832406    1.325    0.245
        96  -8.3385    186.8177    201.6462   1.0824888010e+02   3.7807801738e+00    0.1936555    0.1729536  -5.86 0.0005742412    1.146    0.128
        97  -7.7732    193.2944    201.3003   1.0684400726e+02   2.6221073470e+00    0.1406715    0.1053542   4.53 0.0003313849    1.571    0.363
        98  -9.3835    210.1285    199.1190   1.0302807947e+02  -1.1192779229e-01    0.2926044    0.2385248  16.54  0.001196902    1.183    0.155
        99 -10.2812      3.7302    196.9113   1.4686916407e+02   3.3043828227e+01    0.3119933    0.1649513  75.64  0.001848651    1.726    0.421
       100  -8.7438     14.1973    196.7899   1.4484440316e+02   3.2108367597e+01    0.2076967   0.08573734  67.50 0.0009518178    2.812    0.644
       101  -8.7539    202.6454    195.3431   1.0378795852e+02   1.9377787731e+00     0.284382    0.1913182   4.59  0.001305346    2.011    0.503
       102  -7.9703    191.3264    196.3597   1.0630208642e+02   3.8968277478e+00    0.1503634    0.1080979   1.78 0.0007042864    1.785    0.440
       103  -8.2685     19.6705    195.3074   1.4363872411e+02   3.1892054386e+01    0.1242987   0.07103217  70.18 0.0007038947    1.660    0.397
       104  -8.9199    209.4954    193.2050   1.0199543888e+02   1.0389857128e+00    0.2675836    0.2004827   7.61 0.0008239243    1.490    0.329
       105  -8.6920     39.0025    193.5150   1.3950478939e+02   3.0211986127e+01    0.1817695   0.07669741  56.56 0.0008102097    2.555    0.609
       106  -8.1406     46.6410    192.3117   1.3775175240e+02   2.9576239098e+01    0.1361501   0.08081181  69.38 0.0007042584    1.742    0.426
       107  -9.5922    215.1775    188.9409   1.0002685208e+02   7.3654970241e-01     0.484965    0.2385894 -30.33  0.001458433    2.311    0.567
       108  -8.9736    217.9761    182.4048   9.8160301814e+01   1.3704286270e+00    0.2697875    0.1860585 -18.23 0.0009208588    1.627    0.385
       109  -8.3913     11.6575    191.3287   1.4489453016e+02   3.3516668368e+01    0.1248648   0.06848549  70.20 0.0007051166    1.744    0.427
       110  -8.2388    205.2078    189.7923   1.0217411848e+02   2.4533879028e+00    0.1970844    0.1575023   3.93 0.0006440472    1.343    0.256
       111  -8.4307    198.7614    189.7763   1.0347803236e+02   3.6863071964e+00    0.2270427    0.1733036 -10.71  0.001155389    1.496    0.332
       112  -9.7387      3.8970    188.5480   1.4620217705e+02   3.4801819805e+01    0.2660542    0.1336039  59.99  0.001325101    1.933    0.483
       113  -8.5591    210.6272    187.6700   1.0066715859e+02   1.8115277434e+00    0.2211321     0.159917   1.57  0.001088063    1.668    0.401
       114  -9.3326    211.2050    180.7561   9.9147638071e+01   2.9488048683e+00    0.3548888    0.2353513 -18.53  0.001492922    1.805    0.446
       115  -8.7639    203.4971    181.9534   1.0093479102e+02   4.2167322712e+00    0.2573535    0.1906352  -1.49 0.0009262213    1.642    0.391
       116  -8.7392     12.5029    182.5196   1.4396632007e+02   3.5348218921e+01    0.1185153   0.09129222  89.57 0.0008102566    1.023    0.022
       117  -8.6161     23.0200    179.9880   1.4151544972e+02   3.4916188066e+01     0.201415    0.1187775  70.88  0.001134142    1.709    0.415
       118  -9.6077    219.2183    176.1941   9.6642967275e+01   2.2446228834e+00     0.388846    0.2426171 -25.82  0.001169206    1.749    0.428
       119  -9.4412      1.7470    177.8933   1.4577599897e+02   3.7270511662e+01    0.2289663    0.1250973  85.78  0.001347108    1.633    0.388
       120  -8.5039     29.0040    178.0000   1.4001271058e+02   3.4759089056e+01    0.1775429   0.06862661  31.31 0.0008041847    2.955    0.662
       121  -8.6102      8.4993    177.4930   1.4434932799e+02   3.6798225837e+01    0.1178185   0.09036818 -88.85 0.0001432865    1.023    0.022
       122  -8.9806    215.1696    175.8079   9.7346749914e+01   3.0873780651e+00    0.2921346    0.1792851 -24.29 0.0007217483    1.879    0.468
       123  -8.7527    215.9464    172.0496   9.6410562121e+01   3.6220693527e+00    0.2304947    0.1689857   1.19 0.0009732832    1.672    0.402
       124  -8.5292    205.3734    175.7482   9.9274392950e+01   5.0046381035e+00    0.2068627     0.131677 -29.48 0.0009447977    1.687    0.407
       125 -10.1416    101.0030    175.9930   1.2295066539e+02   2.5382305147e+01    0.2018936    0.1867829  81.59            0    1.008    0.008
       126  -8.9135    210.7211    174.5567   9.7959205987e+01   4.1777277387e+00    0.2559001    0.1714891 -26.23 0.0009084691    1.606    0.377
       127  -8.5017      5.6398    174.3083   1.4466482428e+02   3.7733967194e+01     0.122372   0.06977779  69.60 0.0007040742    1.737    0.424
       128  -8.7800     28.5265    172.4838   1.3951726653e+02   3.6050242147e+01    0.1243335    0.1004159 -87.30 9.206975e-05    1.026    0.025
       129  -9.4986    218.9905    166.6794   9.4690515281e+01   4.0116853181e+00    0.4366012    0.2857342 -11.53  0.001938706    2.081    0.519
       130  -9.3658    212.9594    161.5620   9.4759029224e+01   6.1513033866e+00    0.2888239     0.201134 -21.82  0.001370997    1.617    0.381
       131  -8.9554    221.5021    160.5050   9.2895716149e+01   4.6493549127e+00    0.2576672    0.2331488 -13.50 0.0008269839    1.064    0.060
       132  -8.1563    205.6584    159.6935   9.5793081019e+01   7.9874454566e+00    0.1522631    0.1141142   5.74 0.0007042347    1.686    0.407
       133  -9.8175    226.5455    156.0542   9.1000830970e+01   4.4709516060e+00    0.3493514    0.2464863 -22.75  0.001016815    1.518    0.341
       134  -9.9824    228.5915    149.6305   8.9239465211e+01   5.2334334748e+00    0.5605006    0.2211538 -33.13  0.002001381    2.817    0.645
       135  -8.9067    111.0187    156.0947   1.1676988805e+02   2.8212397012e+01    0.2089894    0.2041291 -81.48  0.000279538    1.034    0.033
       136  -8.2075      2.6570    154.3335   1.4344045552e+02   4.2363229393e+01    0.1217902   0.07244442  72.16 0.0004309971    1.758    0.431
       137  -9.7560    233.2162    152.1434   8.8955475272e+01   3.8775662030e+00    0.3358853    0.2360583 -25.25  0.001314517    1.464    0.317
       138  -9.3745    221.7381    151.1109   9.0815988531e+01   6.3292694927e+00    0.2816159    0.1851934  18.17  0.001231624    2.139    0.532
       139  -9.9696    223.1112    144.7071   8.9156184870e+01   7.2325354253e+00    0.3255801    0.2510265 -25.60  0.001365427    1.327    0.246
       140  -9.5446    229.9177    139.3875   8.6764408518e+01   6.8259648478e+00    0.2908663       0.1993 -31.09  0.001379063    1.449    0.310
       141  -8.2994    224.4835    138.9998   8.7643827410e+01   8.0024468637e+00    0.2232738    0.1358613 -37.57 0.0007162023    1.568    0.362
       142  -9.5221    242.2385    132.6605   8.3210923765e+01   5.5765794391e+00    0.3201572    0.2450813 -22.13 0.0009533797    1.387    0.279
       143  -9.6438    234.9371    133.0211   8.4500931486e+01   6.9612009362e+00    0.3532341    0.1827158  36.82  0.001463389    2.431    0.589
       144  -9.5491    247.9831    128.0880   8.1309127276e+01   5.2550611880e+00    0.2858069    0.2515318  12.55  0.001049057    1.309    0.236
       145  -8.7415    233.1485    127.8364   8.3659566992e+01   8.2511620362e+00    0.1944343    0.1669582   2.29 0.0007456038    1.356    0.263
       146  -9.2114    240.5732    124.4234   8.1690188886e+01   7.3519715611e+00    0.2992553    0.2204309 -11.90  0.001504234    1.740    0.425
       147  -9.0708    249.3538    122.9217   7.9990768618e+01   5.8788905965e+00    0.2356695    0.2007945  33.06  0.000695364    1.351    0.260
       148  -8.7005    247.8678    116.9121   7.8926450416e+01   7.2006067137e+00     0.209559    0.1836285 -12.19 0.0009755607    1.291    0.225
       149  -9.1660    236.8341     70.5252   7.0383317757e+01   1.7152427359e+01    0.2113423    0.2000761  24.15  0.000546406    1.349    0.259
       150  -8.1479    122.8617     65.8034   9.0427184682e+01   4.4647366429e+01    0.1785311     0.166758 -88.08 0.0002741303    1.256    0.204
       151  -9.0216    246.9803     48.4787   6.4500494505e+01   1.8192245305e+01    0.1857455    0.1165833  75.48  0.001015972    1.569    0.363
       152  -8.8528    109.7042    248.8856   1.3140317574e+02   8.7815015779e+00    0.3663796    0.1318104  44.51  0.001602137    2.270    0.559
       153  -8.0418      6.6433     38.7055   1.2144236855e+02   6.5945065644e+01    0.1179705   0.06189415 -25.56 0.0007031842    1.694    0.410
       154  -9.0691     29.4308     28.4738   1.0840092111e+02   6.5634743387e+01    0.2117479    0.1008385  27.76  0.001191866    2.108    0.526
       155  -8.7702      5.9747     26.4959   1.1775855646e+02   6.7956588565e+01    0.1498526   0.09314584  10.74  0.001039478    1.609    0.379
       156  -9.7955     12.0206     24.4410   1.1435490132e+02   6.7820160101e+01    0.1937623    0.1836476  32.78  0.001558189    1.749    0.428
       157  -9.4466     36.2961     24.4470   1.0405845714e+02   6.5440035574e+01    0.2061672   0.09839659  26.22  0.001131749    2.051    0.512
       158  -8.9016     56.9467     24.0000   9.6004458105e+01   6.2757626244e+01    0.1885681   0.06093493  40.78 0.0008027052    2.944    0.660
       159  -9.9858     50.0328     23.1019   9.8184625899e+01   6.3860418525e+01    0.2873125    0.1399233  26.80  0.001516904    2.022    0.505
       160  -9.3837     18.5167     22.9962   1.1096849820e+02   6.7481493744e+01    0.1719373    0.1240905   5.35  0.001131051    1.248    0.199
       161  -9.1664      3.5871     21.0014   1.1689106232e+02   6.8952921457e+01    0.1726459    0.1359024  20.01  0.001240268    1.586    0.370
       162 -10.1412     34.2530     17.7235   1.0221251587e+02   6.6558437811e+01    0.2428445    0.1200265  33.81 0.0008176132    2.020    0.505
       163  -8.6032      8.3241     18.3090   1.1373298941e+02   6.9002263268e+01    0.1132635   0.06114158 -17.95 0.0003703888    1.651    0.394
       164  -9.3808     16.5427     17.0299   1.0952615031e+02   6.8493087468e+01    0.1677468    0.1192484   3.56 0.0009299675    1.212    0.175
       165  -8.5611     88.7430    249.5361   1.3545735047e+02   1.1925426036e+01    0.2353967    0.1078592  37.93  0.001147898    2.119    0.528
       166 -10.2997    114.4640    244.1722   1.2991607664e+02   8.8674195919e+00    0.3763882     0.249665  34.07  0.001892181    1.563    0.360
       167  -9.3581     96.6180    244.2043   1.3338976444e+02   1.1710632664e+01     0.404873    0.1508626  39.06  0.001758938    2.477    0.596
       168 -10.4949    127.0145    240.0135   1.2689878677e+02   7.5405183154e+00    0.5290651     0.211695  43.05  0.002314664    2.105    0.525
       169  -9.7826    106.6071    241.1038   1.3108751203e+02   1.0710278250e+01    0.4326166    0.1649695  42.64  0.001902058    2.217    0.549
       170 -10.0722     11.6208     13.8767   1.1049284701e+02   6.9351632624e+01     0.193092    0.1368567  17.63  0.001292202    1.459    0.314
       171 -10.3927    136.1223    239.0323   1.2493777008e+02   6.1664161894e+00    0.4129116    0.2463438  37.83  0.001787466    1.517    0.341
       172 -10.4146    140.0039    234.7508   1.2354756644e+02   6.2693545626e+00    0.4187048    0.2464352  34.61  0.001966446    1.646    0.392
       173 -10.2323     17.9944     12.9552   1.0722947731e+02   6.8899649463e+01    0.2245327    0.1384345  27.63 0.0009956668    1.721    0.419
       174  -9.7691    161.9850     10.4704   6.6171888568e+01   4.2507338471e+01    0.2067437    0.1097714  66.76  0.001031016    1.590    0.371
       175  -9.6183    119.3315    239.0656   1.2831124841e+02   9.0047127586e+00    0.2692168    0.1659218  48.51  0.001258353    1.381    0.276
       176  -8.3518    113.1810    237.5991   1.2935348049e+02   1.0298442129e+01    0.1888382    0.1131049  33.64 0.0009589166    1.769    0.435
       177  -8.8620    130.0146    235.0045   1.2561590965e+02   7.9502955380e+00    0.2011592    0.1601148   9.09  0.001129382    1.734    0.423
       178  -8.6677     93.7895    235.5682   1.3296267782e+02   1.3799304461e+01    0.1916615   0.09769316  51.36 0.0009535836    1.715    0.417
       179  -9.4994    153.4468    232.9207   1.2053392417e+02   4.2378852916e+00     0.341589    0.1757171  35.95  0.001586785    1.812    0.448
       180  -9.1810    158.3901    229.4400   1.1898330876e+02   3.9789721320e+00    0.2839701     0.215379  16.70  0.001538249    1.537    0.349
       181  -9.6080    146.0451    230.8421   1.2173690388e+02   5.9210347660e+00    0.3721663    0.1769548  32.16  0.001453916    2.329    0.571
       182  -9.5939    134.2827    230.2926   1.2407793904e+02   8.0899002708e+00    0.2333659    0.1998941  26.67  0.001192914    1.273    0.214
       183  -9.0263    124.8223    230.2515   1.2601964363e+02   9.7347689752e+00    0.2589261    0.1763339  27.78  0.001351529    1.708    0.415
       184  -9.3630    152.5193    228.3004   1.2001464457e+02   5.2328978211e+00    0.2832893    0.2102015  -1.50  0.001265378    1.962    0.490
       185 -10.4257    177.3506    233.3281   1.1574965902e+02  -5.4105593260e-02    0.6404743    0.3775577 -23.26  0.002965446    2.516    0.603
