#   1 NUMBER                 Running object number                                     
#   2 MAG_AUTO               Kron-like elliptical aperture magnitude                    [mag]
#   3 X_IMAGE                Object position along x                                    [pixel]
#   4 Y_IMAGE                Object position along y                                    [pixel]
#   5 X_WORLD                Barycenter position along world x axis                     [deg]
#   6 Y_WORLD                Barycenter position along world y axis                     [deg]
#   7 A_WORLD                Profile RMS along major axis (world units)                 [deg]
#   8 B_WORLD                Profile RMS along minor axis (world units)                 [deg]
#   9 THETA_WORLD            Position angle (CCW/world-x)                               [deg]
#  10 FWHM_WORLD             FWHM assuming a gaussian core                              [deg]
#  11 ELONGATION             A_IMAGE/B_IMAGE                                           
#  12 ELLIPTICITY            1 - B_IMAGE/A_IMAGE                                       
         1 -12.2183    201.3155     32.3012   5.0460742420e+01   3.0619661208e+01     1.148639    0.9056897   5.61  0.005685295    1.529    0.346
         2 -10.7290    209.1494     22.9691   4.6801139912e+01   2.9733679482e+01    0.4528617     0.350961  31.38  0.001046164    1.557    0.358
         3 -11.9456    215.1498     16.0198   4.4212840453e+01   2.8998402881e+01    0.7757812    0.6990922 -46.97  0.002956753    1.055    0.053
         4  -9.3153     32.8442     21.2827   9.1910892081e+01   6.9520637268e+01    0.3763517   0.05868531 -44.35   0.00113471    4.835    0.793
         5  -8.6397     32.5872      2.7788   8.1971424095e+01   7.2568801056e+01     0.168461   0.09939294 -39.84  0.000953984    1.667    0.400
         6  -9.5061     17.9886      2.6444   9.0290207909e+01   7.4283156861e+01    0.2389565    0.1136414 -50.78  0.001198429    2.431    0.589
         7 -10.1420     92.4374    235.0652   1.1643368541e+02   1.5995247970e+01     0.219761    0.1691682  73.56 0.0008309781    1.216    0.178
         8 -12.1067    122.1493    246.3974   1.1226762323e+02   1.0095377334e+01     0.964566    0.3236704  34.27   0.00412298    3.385    0.705
         9 -11.1455    113.5273    247.8925   1.1389408263e+02   1.1103188787e+01    0.4823383     0.320776  29.40  0.003215621    1.700    0.412
        10 -10.8416    101.5941    250.1986   1.1613154945e+02   1.2417271006e+01    0.5811077    0.1372264  39.83  0.001913958    3.293    0.696
        11 -10.7996     97.2736    246.3475   1.1654677152e+02   1.3577595456e+01    0.3762542    0.1972013  50.25   0.00199895    1.440    0.305
        12 -14.1671     62.5052    242.7677   1.2218904877e+02   1.8628458403e+01     6.276864    0.9088146  37.77   0.02179275    5.722    0.825
        13  -9.6401     83.9767    233.3224   1.1778855955e+02   1.7423017298e+01    0.2310473    0.1612795  49.32  0.000917115    1.151    0.131
        14  -9.6082     60.0844    230.2244   1.2177382652e+02   2.1003312116e+01    0.2274246    0.1627607 -75.79   0.00114766    1.522    0.343
        15  -9.3815     28.3172    196.6955   1.2540234941e+02   3.0793762460e+01    0.1950498    0.1388312  85.41 0.0005537643    1.153    0.133
        16 -10.2111     67.3039    181.6259   1.1624074000e+02   2.9289684484e+01    0.3405442    0.2402298 -43.21  0.001580059    2.044    0.511
        17 -10.2744     72.2105    175.9462   1.1455171220e+02   2.9824133175e+01    0.3030858    0.2404365 -49.51 0.0009054508    1.590    0.371
        18  -9.4229    102.1434    171.5030   1.0730570216e+02   2.6318265856e+01    0.4088409     0.249475  54.68  0.002096839    1.569    0.363
        19  -8.0241    195.9533    169.5171   8.7148354289e+01   9.6601695785e+00    0.2092524    0.1239312  40.89  0.001025933    1.574    0.364
        20  -9.3679     90.5863    166.4756   1.0920522127e+02   2.9194225774e+01    0.2904062    0.1671171  58.38  0.001425484    1.769    0.435
        21 -10.3221     81.4481    165.3908   1.1115847082e+02   3.0791857713e+01    0.4756187    0.2904098 -53.10  0.000621634    1.793    0.442
        22 -10.5048     86.8108    159.6115   1.0909755391e+02   3.1263741955e+01    0.5582854    0.3665118 -30.42  0.001640903    2.640    0.621
        23 -11.6257     68.6842    162.2500   1.1371139209e+02   3.3268954341e+01    0.4040245    0.2826035 -49.23  0.001029016    1.722    0.419
        24 -10.7621    115.2571    229.9245   1.1183721320e+02   1.3572723725e+01    0.2851754    0.1949123  66.43  0.001854329    1.480    0.324
        25 -10.5212     73.7107    154.9720   1.1156270275e+02   3.4206625673e+01    0.4885953    0.3050651  72.97   0.00248906    1.745    0.427
        26  -9.9417    145.5899    230.2805   1.0636002497e+02   8.9326106872e+00    0.2084869    0.1259796  27.82  0.001194846    1.793    0.442
        27 -10.7485    102.7431    228.0137   1.1392945454e+02   1.5696776730e+01    0.5436426    0.3035865 -88.03  0.002960834    2.573    0.611
        28 -11.5479     68.5525    144.2579   1.1131112473e+02   3.7368833737e+01    0.7611027     0.456091  75.34  0.003441164    1.947    0.486
        29 -14.6480      2.0533    204.4302   1.3060451762e+02   3.1805960542e+01     17.50578          nan -79.00   0.03286508   22.016    0.955
        30  -9.3570    101.8488    142.4768   1.0262240630e+02   3.2687175965e+01     0.497165    0.2641406 -37.25  0.001954186    2.822    0.646
        31 -10.4682     89.2506    142.7825   1.0584160115e+02   3.4676657171e+01    0.2643215    0.2457856 -44.67 0.0005075625    1.259    0.206
        32 -10.0274     58.9286    133.8151   1.1225942686e+02   4.1076332401e+01    0.3471624    0.1819115 -63.98  0.001077098    1.688    0.408
        33  -8.3777    111.0490    131.9432   9.8236977321e+01   3.3451860995e+01    0.2196926    0.1815546 -10.88 0.0006235518    1.644    0.392
        34  -9.1741     98.1808    128.6174   1.0089415646e+02   3.6483978343e+01    0.2872795    0.2483622  15.69  0.001107509    1.449    0.310
        35 -13.4150     10.2796    206.3433   1.2923119242e+02   3.0706751434e+01     1.365734    0.8072484 -89.89   0.00617215    1.385    0.278
        36  -8.2783    107.9183    120.0595   9.6475250484e+01   3.6732805808e+01    0.2132176     0.177998 -17.35 0.0003624626    1.531    0.347
        37 -12.8014      7.9290    250.0986   1.3123055809e+02   2.3378545772e+01     0.800541    0.4256787  28.12 0.0008299203    2.797    0.642
        38  -8.4512    167.9715    112.9599   8.0038791358e+01   2.5644292809e+01    0.2511268    0.1936328 -78.43  0.001131942    1.767    0.434
        39  -8.7687     33.0000     98.9809   1.1427122832e+02   5.2293114391e+01    0.2238022   0.06184275 -67.49 0.0008056835    2.965    0.663
        40  -7.8368     74.7614     84.6229   9.7479044889e+01   5.0640338875e+01    0.1826628    0.1335124  50.44 0.0004284289    1.554    0.357
        41  -7.8042     24.6897     82.3111   1.1411126277e+02   5.7003432844e+01    0.1255634   0.08743378  77.11 0.0003928597    1.625    0.385
        42  -8.2733     33.0000     78.9827   1.1051139571e+02   5.7085451167e+01    0.2232895   0.06209441 -64.18 0.0008014152    2.935    0.659
        43 -10.8612     13.0752     60.3365   1.1410826280e+02   6.2965554115e+01    0.3842851    0.1873919 -58.80  0.001463119    1.523    0.343
        44  -9.3179    149.1290     52.9315   6.5998667029e+01   4.1311381867e+01     0.461527    0.2932259 -76.32  0.001725908    2.602    0.616
        45 -13.5137      2.7182    247.2284   1.3192571905e+02   2.4324893347e+01     1.493926    0.6999109 -62.07  0.009917595    3.094    0.677
        46  -8.7523    149.5959     45.4154   6.3258287826e+01   4.2371893889e+01    0.2599832    0.2391591 -89.23 0.0005752154    1.171    0.146
        47 -11.2860    192.0683     38.0773   5.3454981678e+01   3.2275980678e+01    0.4933314     0.392818  16.91  0.001548923    1.503    0.335
        48 -12.7214     42.2972    209.9529   1.2361700629e+02   2.6735228843e+01     1.486784    0.8710366 -43.88  0.004982141    3.377    0.704
        49 -14.5291     50.9387    199.9197   1.2125441204e+02   2.7650343537e+01     5.455257     3.539249  66.91   0.03025988    1.260    0.206
        50  -8.7985    163.6575    225.6996   1.0250357468e+02   6.7626330868e+00    0.1184936   0.08252511  17.50 0.0007037006    1.674    0.403
        51 -10.1306     53.8985    231.9630   1.2296545186e+02   2.1452896667e+01    0.3422118    0.1665435 -88.41  0.001490085    2.165    0.538
        52 -10.3364     97.2625    226.3080   1.1476939364e+02   1.6757724791e+01     0.353787    0.2121164 -89.73  0.002094453    2.080    0.519
        53 -11.2491    126.1878    229.8502   1.0983690108e+02   1.1957501770e+01    0.3984534    0.2434388  46.42  0.002483858    1.295    0.228
