#   1 NUMBER                 Running object number                                     
#   2 MAG_AUTO               Kron-like elliptical aperture magnitude                    [mag]
#   3 X_IMAGE                Object position along x                                    [pixel]
#   4 Y_IMAGE                Object position along y                                    [pixel]
#   5 X_WORLD                Barycenter position along world x axis                     [deg]
#   6 Y_WORLD                Barycenter position along world y axis                     [deg]
#   7 A_WORLD                Profile RMS along major axis (world units)                 [deg]
#   8 B_WORLD                Profile RMS along minor axis (world units)                 [deg]
#   9 THETA_WORLD            Position angle (CCW/world-x)                               [deg]
#  10 FWHM_WORLD             FWHM assuming a gaussian core                              [deg]
#  11 ELONGATION             A_IMAGE/B_IMAGE                                           
#  12 ELLIPTICITY            1 - B_IMAGE/A_IMAGE                                       
         1 -11.8956    218.1702     60.7267   6.6246314077e+01   2.2639125781e+01     0.793808    0.4480031 -49.08 0.0008842081    2.042    0.510
         2 -11.2932    215.3904     19.5777   5.4661933538e+01   2.8364307372e+01    0.9615147     0.321121  59.49  0.001335663    2.716    0.632
         3 -10.8081    215.8704     29.1900   5.7444337587e+01   2.7175804018e+01    0.6860501    0.5815449 -10.85  0.001960283    1.206    0.171
         4 -11.7169    203.3359     37.3561   6.1575139892e+01   2.9446521676e+01     1.211094    0.6276439  47.91  0.002599985    1.957    0.489
         5 -10.7360    111.2203     26.8755   7.6125166241e+01   5.4029352278e+01     0.618091    0.4040313 -13.65    0.0015162    1.678    0.404
         6 -10.5393    168.2507     21.2955   6.1753887428e+01   4.0664677064e+01    0.5940378    0.3905466  10.63  0.001722703    1.863    0.463
         7 -12.0479    175.4211     18.2752   5.9560433323e+01   3.9098107062e+01    0.4301972    0.3424083 -62.16 0.0005115795    1.403    0.287
         8 -10.4814    131.7856     12.5370   6.5274083218e+01   5.1074763056e+01    0.5198514    0.2535073 -30.28  0.001706944    1.991    0.498
         9  -9.7492    232.7184     11.5172   5.0547982724e+01   2.4786887190e+01    0.3016396    0.2469232 -28.41  0.001696537    1.174    0.148
        10  -9.6790    238.5171     12.8494   5.0376329202e+01   2.3221602230e+01    0.3455155    0.2527027 -64.74  0.001109291    1.426    0.299
        11 -10.2088    237.1528      6.1069   4.8665819203e+01   2.4214528663e+01    0.7631196    0.2964576 -23.38  0.003061059    2.417    0.586
        12  -9.6653    232.9559      1.4237   4.7743151205e+01   2.5690703119e+01    0.2735678    0.1686217  86.85 0.0004530781    1.724    0.420
        13 -10.9429    246.4802     10.3157   4.8998707078e+01   2.1544674817e+01    0.3866799    0.3397728  52.56 0.0007566967    1.233    0.189
        14  -9.6750    241.8832      8.3258   4.8859702976e+01   2.2845643575e+01    0.2713694    0.2247158  61.23 0.0007361252    1.269    0.212
        15 -11.4975    245.0996      3.6662   4.7360077557e+01   2.2512652252e+01    0.5489962    0.3885771  86.11 0.0004440607    1.475    0.322
        16  -9.6830    146.0612     15.8963   6.3732322069e+01   4.7091499501e+01    0.2959759    0.2088814  -6.89 0.0005145461    1.515    0.340
        17 -10.1222    111.5364     15.9667   7.1453550310e+01   5.5459334160e+01    0.5184256    0.2772113 -34.56  0.001904964    1.830    0.454
        18 -10.5376    111.4663      8.7425   6.8303735094e+01   5.6353464233e+01    0.4281619    0.3698214 -10.93 0.0008789989    1.105    0.095
        19 -10.6577    105.4648      8.5055   6.9723305026e+01   5.7734252623e+01    0.3847642    0.2504634 -33.44 0.0007226367    1.541    0.351
        20 -11.0617    107.7253      6.3630   6.8167914163e+01   5.7474176510e+01    0.6961786    0.3693949 -44.42    0.0018347    2.289    0.563
        21  -8.1339    154.7109      7.0266   5.8818155187e+01   4.5784599771e+01    0.3628051    0.2331174 -13.49 0.0008649434    1.634    0.388
        22  -9.2504    156.1776     12.2070   6.0508369277e+01   4.4867224025e+01    0.3778946    0.2341131 -31.84  0.001728395    1.618    0.382
        23  -9.1458    200.4741     14.1656   5.4781314576e+01   3.2844829012e+01    0.4026699    0.2330167  11.37  0.001155518    2.363    0.577
        24 -12.4075    185.8117      8.5363   5.4810164018e+01   3.7327026019e+01    0.6187358      0.34165  45.18  0.000437493    1.845    0.458
        25 -10.6060    183.3461      3.1174   5.3321248460e+01   3.8502130977e+01    0.4303131    0.3289666  37.73 0.0004061244    1.347    0.257
        26  -9.1221    141.4321     10.4719   6.2505899227e+01   4.8877051684e+01    0.3089212    0.2003717 -30.70  0.001460853    1.549    0.354
        27 -10.1638    142.1186      6.6055   6.0847477428e+01   4.9102893448e+01    0.3808027    0.2817587 -16.29 0.0006991109    1.368    0.269
        28  -9.6307    119.4791     12.4275   6.7974776838e+01   5.4062207154e+01    0.2256618    0.2006399  18.64 0.0005085626    1.053    0.051
        29 -10.3595    121.0520      7.8152   6.5635305112e+01   5.4212613568e+01    0.3202583    0.2805452 -16.67 0.0004519374    1.131    0.116
        30 -11.2166    126.3374      5.6244   6.3548798833e+01   5.3165517862e+01    0.4971286    0.3938565  30.99  0.001557507    1.209    0.173
        31  -9.4957    207.7683     10.2191   5.2716692544e+01   3.1316320956e+01    0.3555104    0.2262726  61.38 0.0009559952    1.527    0.345
        32 -11.1276     83.0863      9.6662   7.6786163574e+01   6.2228623362e+01    0.3561577    0.3029518  73.97 0.0006207358    1.634    0.388
        33  -8.5802    217.5746      9.2762   5.1392141233e+01   2.8852561691e+01    0.2667198    0.1244534 -27.73  0.001113187    2.002    0.501
        34  -8.8624    166.2919      9.9566   5.8049630936e+01   4.2419927517e+01    0.2242332    0.1878877 -54.85 0.0005522036    1.295    0.228
        35 -10.3642    245.2997     16.3669   5.0704541704e+01   2.1222769227e+01    0.4199558    0.3176627  78.62   0.00232489    1.399    0.285
        36 -10.5910     96.1276      9.0427   7.2524013842e+01   5.9687671667e+01    0.3316295    0.2012847  71.25  0.001481502    2.504    0.601
        37  -8.2523     30.4449      9.5211   9.7956446384e+01   7.0108303022e+01    0.1179352   0.09471727 -35.78 0.0002095375    1.082    0.076
        38  -9.6339    194.2975      4.9014   5.2588329756e+01   3.5400974309e+01    0.3833286    0.2471434 -64.37  0.001630774    1.777    0.437
        39  -8.4032    231.4395      5.9828   4.9131047301e+01   2.5643575597e+01    0.2054243    0.1308051 -21.40  0.001011838    1.553    0.356
        40 -10.0044    165.0463      4.6130   5.6317874632e+01   4.3274845350e+01    0.5675319    0.3626562  46.64   0.00244791    1.509    0.337
        41  -8.9169    150.4768      5.5557   5.8966349183e+01   4.7040173619e+01    0.2983491    0.2088243  33.13  0.000733373    1.455    0.313
        42  -8.5203    227.8163      5.2409   4.9249669034e+01   2.6623931048e+01    0.1868014    0.1561948  33.54 0.0004806108    1.324    0.245
        43  -8.7262    223.5615      4.5433   4.9442339131e+01   2.7768753724e+01    0.2559088    0.2037715 -24.32  0.000951754    1.245    0.197
        44  -9.0003    225.6845      2.2816   4.8608276269e+01   2.7438893622e+01    0.2346852    0.1686237  78.55 0.0003900026    1.402    0.287
        45 -10.8304     90.3184      2.4791   7.1050364751e+01   6.1677403540e+01    0.5143895     0.339466  32.02  0.001790107    1.493    0.330
        46  -8.2175      9.1481      5.6025   1.0711491422e+02   7.2645471646e+01    0.1382673   0.09290371 -12.36 0.0009337371    1.634    0.388
        47  -8.8745    176.6164      3.4323   5.4289554663e+01   4.0282448042e+01    0.2533126    0.2013041 -12.84  0.000630385    1.312    0.238
        48  -7.7969    173.6954      1.6952   5.4075547205e+01   4.1225200810e+01    0.1999043    0.1360857  81.80 0.0004659968    1.552    0.356
        49  -9.6825    123.4726      2.4633   6.2799226752e+01   5.4184418601e+01    0.2380476    0.2330522 -75.51 9.918628e-05    1.172    0.147
        50  -9.9104     99.3618      3.0169   6.8783955695e+01   5.9700039963e+01    0.3569883    0.1949336 -44.83  0.001591846    2.283    0.562
        51  -9.2405    145.7250      1.9469   5.8371998192e+01   4.8621316386e+01      0.19999    0.1819592 -13.69 0.0007779443    1.123    0.109
        52  -9.4988     75.5289      1.6205   7.5251885872e+01   6.4683390042e+01    0.2414059    0.1517237  43.14  0.001221615    1.615    0.381
        53  -9.0744     39.2046      2.0131   9.0034586965e+01   7.0333342146e+01    0.2719209    0.1519763  15.28   0.00141325    2.397    0.583
        54  -7.9234    208.0356      1.4806   5.0041485651e+01   3.2072323418e+01    0.2120329   0.09053586  47.95 0.0008090484    2.457    0.593
        55  -7.8838    118.2576      1.3105   6.3415169965e+01   5.5555941244e+01    0.1435507   0.09669951  23.73 0.0002008784    1.525    0.344
        56  -8.8784     63.7578      1.6039   7.9439924699e+01   6.6771433973e+01    0.1571643    0.1227701  52.36 0.0007691093    1.628    0.386
        57  -8.6551     72.9521    188.5069   1.2178060715e+02   2.8701615467e+01    0.1604041    0.0942053  43.64 0.0005961015    1.549    0.354
        58  -9.6447     38.4108    248.2513   1.3130835648e+02   2.3271560487e+01    0.3775112    0.2887922 -11.64   0.00233988    5.264    0.810
        59  -7.8013     34.7141    186.2700   1.2860703587e+02   3.3510854924e+01    0.1053605   0.05706677  66.18 0.0002132745    1.501    0.334
        60 -10.5148     23.1799    181.7337   1.3040151778e+02   3.5462355373e+01    0.3211751    0.1562194  78.06  0.001610078    1.773    0.436
        61  -8.5867     49.4722    183.9700   1.2575224125e+02   3.2336372185e+01    0.1495129   0.06961634  77.02 0.0006875862    2.319    0.569
        62  -7.7837     59.6850    183.6613   1.2382584822e+02   3.1207618157e+01   0.09452445   0.08411203 -46.19  0.000548178    1.699    0.412
        63  -8.8882     31.2277    175.2755   1.2851799115e+02   3.5858907029e+01    0.2592399    0.1022172 -87.24  0.001380031    2.521    0.603
        64 -10.4408    241.2308    171.7844   8.8606657241e+01   3.1287444843e+00     0.255977    0.2106564   2.19 0.0007065966    1.130    0.115
        65 -11.8416    237.5526    164.5190   8.7818678950e+01   4.6079020280e+00    0.5449412    0.4348744 -31.52  0.001874144    1.463    0.317
        66  -8.2685    224.8149    172.8440   9.1480934301e+01   5.9067683669e+00    0.1546485    0.1414993  40.53 0.0004507987    1.289    0.224
        67  -9.0045     40.8816    173.1527   1.2653517944e+02   3.5261181343e+01    0.1773006    0.1113628  67.74 0.0006193511    1.304    0.233
        68  -8.8469     12.8072    171.2187   1.3169690711e+02   3.8320187347e+01    0.1274177   0.09892641 -80.59 0.0004558424    1.328    0.247
        69  -9.8448    250.6743    167.5092   8.6311049445e+01   1.9652437295e+00    0.2118735    0.1086098 -29.59  0.001122327    2.022    0.505
        70  -9.0997      8.8368    167.3701   1.3222551528e+02   3.9369852902e+01    0.1566188    0.1088624 -60.63  0.001188913    1.780    0.438
        71  -9.1791      9.6520    163.5287   1.3186251360e+02   4.0020740079e+01    0.2330498    0.1303585  37.09   0.00163622    1.914    0.478
        72  -8.1674    217.2495    166.3241   9.1543305044e+01   8.0912391639e+00     0.126005   0.08757968  12.27 0.0003138064    1.538    0.350
        73  -8.7073     33.4581    165.2720   1.2737357924e+02   3.7514944419e+01     0.197969   0.09429967  56.81  0.001192927    1.813    0.448
        74  -9.0739      2.5420    164.6599   1.3325991544e+02   4.0382552904e+01    0.1662776    0.1272762  75.68 0.0006183613    1.117    0.105
        75 -10.7282    249.6336    156.5048   8.4324935031e+01   3.3687665221e+00    0.3798273    0.3152523 -53.45  0.001769547    1.857    0.462
        76  -8.3308    132.6643    156.6676   1.0586158622e+02   2.5381862079e+01    0.1259971    0.1025465   6.27 0.0007052168    1.736    0.424
        77 -10.5676    235.2263    154.0018   8.6124250713e+01   6.2899782611e+00    0.3147874    0.2646634  52.18 0.0003629829    1.419    0.295
        78 -10.3801    227.4232    148.9603   8.6390048834e+01   8.3988003934e+00    0.3253151    0.2421988 -44.54  0.001840957    1.698    0.411
        79  -9.5180    217.8175    152.7713   8.8802089042e+01   9.7498675045e+00    0.3238098    0.2183778 -30.65    0.0017894    1.575    0.365
        80  -9.4695    239.4584    141.4786   8.2845990119e+01   7.0360936023e+00    0.2557929    0.1906457  24.55 0.0006997298    1.215    0.177
        81 -10.8316    237.7486    138.0037   8.2379334156e+01   7.8016585387e+00    0.4735424    0.3268152 -47.71  0.002391146    1.953    0.488
        82  -9.2500    240.1382    147.7450   8.4049490241e+01   6.1357528320e+00    0.2436547    0.2024527 -66.30  0.001410676    1.954    0.488
        83  -7.8089     24.7014    148.6592   1.2786806504e+02   4.1591859928e+01    0.1011227   0.07332034 -56.65 0.0007034746    1.666    0.400
        84  -8.5235     54.9678    148.0000   1.2132930957e+02   3.8593328973e+01    0.1751206   0.06181179  36.08 0.0006405438    2.930    0.659
        85  -9.6538    232.5338    146.2209   8.4972195887e+01   7.7676976913e+00    0.2426187    0.1666102  41.83 0.0006710473    1.357    0.263
        86 -11.5111    244.9147    141.6969   8.2022511518e+01   5.9722621444e+00    0.8587725     0.500762 -50.84   0.00346248    2.927    0.658
        87  -8.3232    219.1822    142.6372   8.6474265928e+01   1.0846525945e+01    0.1923056    0.1095339  37.55 0.0004675637    1.637    0.389
        88  -9.2066      2.5853    141.2355   1.3197105836e+02   4.4875683076e+01    0.2359587      0.11541  66.79  0.001501732    1.760    0.432
        89  -8.9443      9.1896    140.8218   1.3055861909e+02   4.4461472752e+01    0.1338973       0.1073 -71.46  0.000464525    1.347    0.257
        90  -9.0223    250.4829    140.0865   8.0811587529e+01   5.1206821140e+00    0.1888994    0.1174301 -23.61 0.0009751196    1.549    0.354
        91  -8.7893    191.0403    139.2070   9.0839140684e+01   1.7048665751e+01    0.3750821    0.1413522  43.14 0.0008636204    2.482    0.597
        92  -8.3324    116.3310    139.6598   1.0645965028e+02   3.1429984808e+01    0.1390413   0.09702631  78.39 0.0007051616    1.744    0.427
        93  -9.6045    227.2562    135.9814   8.3670692759e+01   1.0133075994e+01    0.2730779    0.1446441  59.23  0.001177072    2.488    0.598
        94  -9.0095    211.5374    133.5018   8.5842328881e+01   1.3673915403e+01    0.1395368    0.1228293  18.41 0.0001264788    1.030    0.029
        95  -8.3764    200.8299    133.2562   8.7725236605e+01   1.5932923879e+01    0.1989985     0.153034  12.91  0.001056719    1.402    0.287
        96  -8.7795     20.0512    131.3427   1.2745024992e+02   4.5507650320e+01    0.1497348    0.1235891  79.15  0.001149019    1.121    0.108
        97 -10.4129    226.3250    129.1981   8.2329882251e+01   1.1234158851e+01    0.2706637    0.2378992 -16.02 0.0003931528    1.142    0.124
        98  -9.1386    202.0358    128.0173   8.6336448158e+01   1.6471107578e+01     0.255695    0.1756321  45.77 0.0004579428    1.379    0.275
        99 -11.7777    247.0688    125.0620   7.8059154070e+01   7.6050103676e+00     1.142611    0.6641172  48.55  0.005792962    1.740    0.425
       100 -11.2710    231.8570    122.1434   7.9812968704e+01   1.1049829413e+01    0.6304113     0.499829  55.31  0.002218151    1.424    0.298
       101 -10.1659    238.0003    125.0190   7.9474005820e+01   9.4171315239e+00    0.4002112    0.2688698   2.27  0.001378416    1.629    0.386
       102  -8.9064    211.4082    127.7102   8.4573107292e+01   1.4538606351e+01    0.1851996    0.1299562 -16.65 0.0009381985    1.520    0.342
       103 -10.0934    214.2397    124.1376   8.3258932362e+01   1.4459268999e+01    0.3109925    0.2647501  79.95  0.001132349    1.578    0.366
       104  -9.9784    239.9617    128.0114   7.9833096734e+01   8.6384996031e+00    0.2545701    0.2177349   9.51  0.000362121    1.023    0.022
       105  -9.4327    203.0383    121.7648   8.4720366301e+01   1.7206137980e+01    0.2308083    0.1975252 -33.42 0.0002840199    1.229    0.187
       106  -8.6085    166.5604    119.7680   9.1405198049e+01   2.5414678615e+01    0.1971647    0.1359653 -51.95 0.0009452202    1.636    0.389
       107  -9.2380      2.1933    118.2281   1.3050066980e+02   4.9557493277e+01    0.2320588    0.1143544 -89.90  0.001416578    1.643    0.391
       108  -8.0496    216.4646    118.4757   8.1555203858e+01   1.4802345555e+01    0.1407359     0.128764  12.75 9.558735e-05    1.016    0.015
       109  -9.3110    194.0365    117.1447   8.5312301256e+01   1.9883905545e+01    0.3058828    0.2048152  33.46 0.0004533641    1.536    0.349
       110 -10.2218     11.4720    128.1020   1.2912535874e+02   4.6861903522e+01    0.2856127    0.1438575  78.58  0.001588257    1.805    0.446
       111  -9.3893    210.3517    111.8244   8.1040239826e+01   1.7107602823e+01    0.4314097    0.2964746 -26.41  0.002149195    1.463    0.316
       112 -11.1691    212.5632    105.7052   7.9150863252e+01   1.7524616678e+01     0.480564    0.3534307  41.64 0.0008343038    1.319    0.242
       113  -9.4078    249.8899    112.0076   7.4644715853e+01   8.6777667917e+00    0.3462027    0.1982823  -3.98  0.001563868    2.115    0.527
       114  -8.2626    231.3307    112.6504   7.7681964687e+01   1.2442444740e+01    0.1379656    0.1091908 -62.06 0.0007048361    1.769    0.435
       115  -9.3793    223.8578    111.4235   7.8618625831e+01   1.4213298556e+01    0.2680258    0.2235436 -30.64 0.0007492496    1.226    0.184
       116  -8.8683    220.2359    114.6747   8.0007518875e+01   1.4535569214e+01    0.2577045    0.2127709 -53.38 0.0009032694    1.500    0.334
       117  -9.2554    165.0371    109.0012   8.9160725839e+01   2.7653597716e+01    0.2128624    0.2062095  42.27            0    1.021    0.021
       118  -9.5257    219.1852    106.4556   7.8197615433e+01   1.5941787810e+01     0.247601    0.1908092 -24.55 0.0005383265    1.269    0.212
       119 -11.3985    201.6662    102.7423   8.0352607326e+01   2.0436464033e+01     1.213227    0.5191436  31.47  0.002719956    4.091    0.756
       120  -8.4162    208.5193     92.4496   7.6476758401e+01   2.0423507566e+01     0.196924    0.1362867 -39.83 4.876308e-05    1.487    0.327
       121  -9.5823    203.8530     96.5572   7.8372098460e+01   2.0885881216e+01    0.3012237    0.2575167 -58.65   0.00132664    1.385    0.278
       122 -10.6383    204.1199     91.8581   7.7095438930e+01   2.1541049490e+01    0.5653537    0.3448145 -46.59   0.00248874    1.853    0.460
       123  -9.4376    250.0077    104.7178   7.2910913183e+01   9.5728265237e+00    0.3882485     0.187722 -18.90  0.001664042    2.158    0.537
       124 -10.9295    212.8046     93.2086   7.5935596608e+01   1.9315839884e+01     1.051309    0.5066474 -12.31  0.003500951    3.433    0.709
       125  -9.1460    243.6116    102.7471   7.3388254183e+01   1.1158799907e+01    0.3445873    0.1633248 -29.86  0.001040699    1.966    0.491
       126  -8.9909    242.7747     98.7117   7.2533289612e+01   1.1862251220e+01    0.2675945    0.1894099 -17.87 0.0005715029    1.338    0.253
       127  -9.0994    222.3101    102.9442   7.6805709843e+01   1.5751304601e+01    0.2089945    0.1742881 -14.40  0.000879731    1.153    0.133
       128  -7.9799    189.3312    100.2940   8.2038667062e+01   2.3654923431e+01    0.1537741    0.1111602  19.36 0.0004696904    1.634    0.388
       129  -8.9400    181.8424     99.4549   8.3286104303e+01   2.5518741058e+01    0.2233504    0.1438582  52.45  0.001011712    1.548    0.354
       130 -10.3198    218.0311     94.8615   7.5479417215e+01   1.7873164511e+01    0.4454681    0.2679125  28.20 0.0007827139    1.973    0.493
       131 -10.6219    190.7117     87.7550   7.8451332941e+01   2.5352695517e+01    0.5104251    0.2821871  58.94  0.001989997    1.959    0.490
       132  -9.0608    194.5054     95.4898   7.9806244534e+01   2.3226445932e+01     0.271723    0.2380819  25.53  0.001206718    1.128    0.114
       133  -9.3852    193.0108     92.4723   7.9288590637e+01   2.4056368869e+01    0.3415901    0.2589948  54.22  0.001692406    1.342    0.255
       134  -9.7903    243.6623     93.0577   7.1010249530e+01   1.2408645781e+01    0.3174819    0.2447945  66.26  0.001164115    1.578    0.366
       135  -9.4657    238.4705     92.5412   7.1651488645e+01   1.3607484574e+01    0.4860247     0.282533   0.96  0.002035381    2.337    0.572
       136  -9.7567    186.0052     94.0158   8.1038080111e+01   2.5452278996e+01    0.3692214     0.243145  79.33  0.001133774    2.400    0.583
       137  -9.3978      2.0000     93.4865   1.2841137286e+02   5.4770848226e+01    0.2677744   0.04620508 -68.28  0.001084374    3.417    0.707
       138 -10.1273    250.0835     92.8369   7.0030499673e+01   1.1062839424e+01    0.2415003    0.2076124   1.36 0.0009431051    1.069    0.065
       139  -9.3312      9.2075     91.9331   1.2626633782e+02   5.4658795860e+01     0.192565   0.08834141 -55.37  0.001085711    1.973    0.493
       140 -10.6612    174.7834     90.2476   8.2259749563e+01   2.8713775525e+01    0.4438242    0.3370275  60.81  0.002163889    1.410    0.291
       141  -9.2820    221.9538     87.5181   7.2934874225e+01   1.8020430476e+01    0.3776188    0.1947637 -37.18  0.001601803    1.903    0.475
       142  -8.2953    233.2253     89.5788   7.1698054291e+01   1.5168612540e+01    0.1936912    0.1263532  41.00 0.0003583957    1.548    0.354
       143  -9.4972    169.9409     87.8234   8.2594025369e+01   3.0264990939e+01    0.3022847    0.2175134 -42.79 0.0005580703    1.423    0.297
       144  -9.5232    250.5800     87.6752   6.8689053724e+01   1.1610919664e+01    0.4933623     0.124172 -27.55  0.001569108    3.618    0.724
       145  -9.7378    247.1064     87.1674   6.9049457878e+01   1.2423756715e+01     0.302375     0.265905  78.50 0.0006840164    1.419    0.295
       146  -9.0007    226.7589     86.0785   7.1797246076e+01   1.7114986370e+01    0.4216026    0.1533562 -28.50  0.001509329    2.642    0.621
       147 -10.6569    207.4976     86.0017   7.4944647953e+01   2.1627393851e+01    0.5601498     0.461918 -49.63  0.002072172    1.344    0.256
       148 -10.1234     20.2161     86.6617   1.2245580179e+02   5.5032951280e+01    0.2486581    0.2241309  67.80  0.001070143    1.253    0.202
       149  -9.1497      5.3255     85.3063   1.2660750258e+02   5.6327004110e+01    0.2226818      0.11188  82.91  0.001242394    2.026    0.506
       150  -9.6498    240.0094     83.7985   6.9214497818e+01   1.4421456892e+01    0.6413713    0.2568914 -28.86  0.002513364    2.294    0.564
       151  -9.4244    244.4971     79.8043   6.7557999045e+01   1.3941361004e+01    0.4648032     0.293248 -66.57  0.001984072    2.636    0.621
       152 -10.1838    235.4950     75.2717   6.7660146637e+01   1.6566903385e+01    0.3697081    0.2758825  35.98   0.00123562    1.385    0.278
       153  -9.5056    241.5682     73.5570   6.6356821403e+01   1.5402587373e+01    0.4346734    0.3005816 -58.47  0.002100505    1.857    0.461
       154  -9.6237    196.0801     83.2123   7.6211722233e+01   2.4781253398e+01    0.3008423    0.1844575 -54.66  0.001238798    2.129    0.530
       155  -9.3014    175.4870     84.4915   8.0526716335e+01   2.9520026015e+01    0.2727909    0.1481043 -33.74  0.001115766    1.847    0.459
       156  -8.9623    232.1849     81.1282   6.9677769802e+01   1.6546267012e+01    0.2694156    0.1802182 -43.67 0.0004622299    1.592    0.372
       157  -9.0894    226.2398     67.7968   6.7008064640e+01   1.9731931296e+01    0.2866561    0.2020206  70.48 0.0006498632    1.660    0.398
       158 -11.5336    223.4950     75.9238   6.9619367023e+01   1.9279487735e+01    0.7096853    0.3364245 -24.99  0.001184145    2.099    0.524
       159  -9.0118    249.0918    248.6147   9.9588586191e+01  -5.2153486726e+00    0.1924676    0.1077582   6.18  0.001325034    1.972    0.493
       160 -10.0675    212.9188     78.3237   7.1952961088e+01   2.1460518691e+01    0.4792618    0.4050208 -77.28  0.001272102    1.470    0.320
       161  -9.9063    174.5858     77.6908   7.8773799489e+01   3.0870734891e+01    0.2816291    0.1494056 -28.37 0.0007582403    1.996    0.499
       162  -8.3380    162.3254     78.6681   8.1612124119e+01   3.3644871607e+01    0.1560501    0.1199471 -72.71 0.0002940762    1.708    0.415
       163  -8.2478    150.1436     77.8603   8.4076104801e+01   3.6635453093e+01    0.2077562    0.1766077   9.98 0.0004425404    1.325    0.245
       164  -8.7138     23.3054     78.3259   1.2026400912e+02   5.6620249896e+01    0.1193565    0.0725564 -47.31 0.0007034738    1.647    0.393
       165 -10.7621    186.7001     74.6340   7.5530235452e+01   2.8404946649e+01    0.5279452    0.3919057  29.03  0.002501603    1.474    0.321
       166  -8.8563    139.9865     75.4829   8.5749454573e+01   3.9375205498e+01    0.2218492    0.1479511  52.82 0.0004591831    1.544    0.352
       167  -8.9421    152.1875     72.0371   8.1875858550e+01   3.7195526373e+01    0.2456378      0.20758  11.78  0.001236406    1.321    0.243
       168 -10.2625    135.9031     70.9507   8.5369616722e+01   4.1121580561e+01    0.2613316     0.240442  80.56   0.00027888    1.201    0.167
       169  -8.1584    215.2393     71.3767   6.9670401528e+01   2.1889789012e+01     0.151705    0.1094247   9.20 0.0003668402    1.625    0.385
       170  -8.5075    213.4284     66.7521   6.8667982316e+01   2.2979044187e+01    0.5020025    0.2382685 -29.16  0.001324034    2.013    0.503
       171  -9.2115    190.3675     68.1146   7.2956921221e+01   2.8503459182e+01    0.2588648    0.1974255  40.36 0.0004991469    1.327    0.246
       172  -9.3981    232.9424     69.0803   6.6385791934e+01   1.7975030095e+01    0.2811293    0.2465992  22.31 0.0007450604    1.151    0.132
       173  -9.1379    237.5197     66.8526   6.5153749706e+01   1.7195892701e+01    0.4023841    0.2931256 -61.50  0.001993002    1.715    0.417
       174  -9.5803    195.0324     69.6334   7.2564499311e+01   2.7112613809e+01     0.530273    0.3160711 -39.72  0.002296977    1.683    0.406
       175  -9.9393    169.0188     66.8569   7.6684185515e+01   3.4011163906e+01    0.4156162    0.2420343  34.91 0.0009023708    2.021    0.505
       176  -9.3915    164.0302     68.3249   7.8165779585e+01   3.4992948917e+01    0.3105667    0.2571054  33.41 0.0004354347    1.246    0.197
       177  -9.1429    163.7854     64.3475   7.6991592095e+01   3.5709082927e+01    0.3161191    0.2632912 -50.59 0.0007544304    1.281    0.220
       178  -9.1349    179.7584     68.1564   7.4949256302e+01   3.1141687208e+01    0.2635027    0.1588225 -66.40 0.0006680964    2.819    0.645
       179  -8.5544    250.1579     66.8067   6.3471138691e+01   1.4318482834e+01    0.2007042    0.1556662   9.75  0.001072113    1.372    0.271
       180  -9.4169    203.3258     67.0350   7.0388290665e+01   2.5434296792e+01    0.2365815    0.2026219  16.47 0.0006709388    1.214    0.177
       181  -8.6460    134.4023     65.9824   8.4192633701e+01   4.2363879001e+01    0.2207223    0.1940484  46.29 0.0001432228    1.160    0.138
       182  -8.8039    245.9278     65.2707   6.3617189262e+01   1.5462821833e+01    0.1872614    0.1728588  42.84 0.0004498594    1.149    0.130
       183  -8.8027    187.6757     62.7610   7.1855401006e+01   2.9986667234e+01    0.2567497    0.1872099  84.79  0.001148844    1.786    0.440
       184  -9.3173    151.5535     62.0940   7.8925208029e+01   3.9057944858e+01    0.2766675    0.2329453 -82.35 0.0005535653    1.450    0.310
       185  -7.7783    121.6686     63.7273   8.6717297559e+01   4.5554148571e+01    0.1462841    0.1141013  10.88  0.000210874    1.592    0.372
       186  -9.5845    158.6865     61.3739   7.7135977547e+01   3.7447464307e+01    0.4756832    0.3323015  81.27  0.001643687    1.981    0.495
       187  -8.7669      9.5225     61.0157   1.2188343666e+02   6.1325035213e+01    0.1843828   0.08885702 -71.01 0.0007562439    1.616    0.381
       188  -8.4491    142.7647     59.8011   8.0196058656e+01   4.1535310652e+01    0.2036499    0.1784606 -70.51 0.0005257184    1.316    0.240
       189 -10.6730    175.9149     55.2355   7.1716294752e+01   3.4099857500e+01    0.6071248    0.3509396 -38.10   0.00181338    1.712    0.416
       190 -11.0428    203.5020     56.6897   6.7351806175e+01   2.6855785878e+01    0.5659043    0.4230736  63.32  0.001189086    1.402    0.287
       191  -9.6243    207.5271     53.9760   6.5921898169e+01   2.6208204623e+01    0.3699705    0.2691984 -26.46  0.001648922    1.336    0.251
       192  -7.8411     58.7008     58.7017   1.0428013538e+02   5.7327150285e+01    0.1281532   0.09081264 -29.92 0.0002076734    1.576    0.366
       193  -8.4081    162.2353     56.6185   7.4867448474e+01   3.7336786471e+01    0.2100793    0.1371354  44.91 0.0003141587    1.541    0.351
       194  -9.2920    223.9875     55.1093   6.3827813186e+01   2.1950289846e+01    0.2202589    0.2135316 -10.75  0.001110204    1.023    0.023
       195  -9.9607    114.1378     54.2094   8.5590445683e+01   4.8886226873e+01    0.3874171    0.2641935  56.44  0.001421243    1.652    0.395
       196  -9.2183     23.9747     54.9568   1.1559184243e+02   6.1648483555e+01    0.1846768    0.1302476  80.85  0.001138099    1.728    0.421
       197  -7.9668    250.6370     54.7356   6.0286591862e+01   1.5680162468e+01    0.1422794   0.09921853  27.87 0.0006986168    1.642    0.391
       198 -10.4418    180.4772     44.2637   6.7384717435e+01   3.4507839632e+01    0.4900095    0.3662319 -23.71  0.001484118    1.340    0.254
       199 -10.5545    184.3098     52.1265   6.9202113206e+01   3.2407133217e+01     0.724934     0.431815  47.55   0.00312029    1.672    0.402
       200 -10.2841    192.4834     51.7764   6.7683579998e+01   3.0353717599e+01    0.4894491    0.4387566 -68.33  0.002579114    1.231    0.188
       201  -9.1778    196.6420     51.2319   6.6829571280e+01   2.9360202461e+01    0.3015713    0.2301714   1.45 0.0007221882    1.475    0.322
       202 -10.0438    148.5060     51.6874   7.6191439572e+01   4.1508383980e+01    0.3049895    0.2745818 -65.06 0.0006740855    1.242    0.195
       203  -8.6545    125.5079     53.1129   8.2192454425e+01   4.6636936653e+01    0.2274863    0.1405029 -37.97   0.00101755    1.562    0.360
       204 -10.8488    247.3475     46.6054   5.8537846893e+01   1.7403064083e+01    0.5059151    0.4220926  27.54  0.001341018    1.291    0.225
       205 -10.3797    241.4461     45.8284   5.9020524494e+01   1.8881697512e+01    0.5477186    0.2865399  59.64  0.001622308    1.973    0.493
       206  -9.8699    243.9855     41.6889   5.7613882787e+01   1.8767148093e+01    0.4422904    0.2580667  68.36  0.001162282    1.886    0.470
       207 -10.5145    249.0825     38.0295   5.6078544359e+01   1.7989446017e+01    0.4616475    0.2861515 -25.65 0.0009688037    1.480    0.324
       208 -10.0506    228.2410     49.1488   6.1583633390e+01   2.1664222675e+01    0.5660279    0.2585752  60.18  0.001462069    2.218    0.549
       209  -8.3645    139.3115     50.3310   7.7835329029e+01   4.3937748253e+01    0.1571158    0.1153233  14.72 0.0007043249    1.673    0.402
       210  -8.4416    217.4839     81.5332   7.2074561602e+01   1.9914166230e+01    0.2162459    0.1761347 -57.48 0.0007420458    1.449    0.310
       211  -8.0957    122.2840     48.2980   8.1347052487e+01   4.8180197853e+01    0.1462798    0.1126475   8.52  0.000265795    1.547    0.354
       212  -8.2432    135.5742     50.4755   7.8775434545e+01   4.4792860822e+01    0.1488163    0.1419765 -10.37 0.0002205126    1.012    0.012
       213 -10.9247    192.7165     32.5125   6.1629671634e+01   3.2829179966e+01     0.615244     0.301634  53.59 0.0002825707    1.956    0.489
       214  -8.7656    219.0749    247.8304   1.0387246945e+02  -9.2966589541e-01    0.1541143    0.1135658  42.94  0.001219337    1.304    0.233
       215  -7.8789      9.3190    248.3149   1.3538202044e+02   2.6121517722e+01   0.06934239   0.06109826  80.94 0.0007038887    1.653    0.395
       216  -9.0221    203.4866     31.0882   5.9636459169e+01   3.0169371141e+01    0.2504165    0.2348551 -88.26 0.0003798287    1.108    0.097
       217 -10.8394    242.2348    242.2336   9.9724655397e+01  -3.7687223630e+00    0.4255766    0.1935816 -28.79 0.0004237515    2.721    0.632
       218 -10.1285    202.0612     34.7217   6.0951743870e+01   3.0103857570e+01    0.5393234    0.3537668 -64.48  0.001922126    1.902    0.474
       219  -9.8790    201.5878     45.2290   6.4227992941e+01   2.8893391904e+01    0.4035051    0.2371804 -21.30  0.001063107    1.745    0.427
       220 -10.3738    205.1324     44.1531   6.3369383457e+01   2.8119509077e+01    0.4994014    0.3379614  27.29 0.0006613234    1.736    0.424
       221  -8.7076    164.7863     47.1458   7.1250100294e+01   3.8143346649e+01    0.2838309    0.1861775 -23.60 0.0006816671    1.564    0.361
       222  -9.6421    163.5357     42.9799   7.0100377772e+01   3.9070640179e+01     0.403048    0.2749253  74.24 0.0004278893    1.744    0.427
       223  -8.6952     37.4714     45.9832   1.0828299491e+02   6.2371709022e+01     0.166702   0.09977868 -80.32 0.0008087647    2.455    0.593
       224  -8.9387    175.1621     38.8083   6.6539137611e+01   3.6639352323e+01    0.3884744    0.2312485 -40.45  0.001664236    1.708    0.414
       225  -9.9349    171.7336     43.5445   6.8726963133e+01   3.6878201517e+01    0.4733652    0.3217789 -35.83  0.002174492    1.458    0.314
       226  -8.5027    168.1158     39.8544   6.8169594960e+01   3.8331383494e+01    0.2355736    0.2038189  17.63 0.0004888506    1.203    0.169
       227  -8.7743    156.9858     44.2139   7.1834392824e+01   4.0557063097e+01    0.2374697    0.1949498  28.11 0.0004673789    1.272    0.214
       228  -8.7702    231.0010     42.0794   5.9259870837e+01   2.1852167664e+01    0.2951327    0.1868811 -25.07 0.0007802968    1.498    0.332
       229  -8.4344    143.8838     42.3910   7.4010819608e+01   4.4091224668e+01    0.2460714    0.1736034 -22.44 0.0006957516    1.448    0.309
       230  -8.9905    123.2656     42.4466   7.8981149414e+01   4.8936702697e+01    0.2854328    0.1992943 -30.05  0.001375522    1.391    0.281
       231  -8.0337    100.5603     43.4649   8.5645834842e+01   5.3554556113e+01    0.1418048    0.1294794 -19.73  0.000108366    1.022    0.022
       232  -7.6293    148.3079     41.3062   7.2654799072e+01   4.3163462656e+01    0.1568728    0.1134131  21.41 0.0003397321    1.610    0.379
       233  -9.3380    140.3279     40.9211   7.4289453485e+01   4.5181105812e+01     0.304561     0.119873 -37.96   0.00108043    2.461    0.594
       234  -9.1483     32.9489     40.7633   1.0851357673e+02   6.3881991490e+01    0.2108509     0.141625 -51.53 0.0005397947    1.186    0.157
       235  -8.4126    226.5125     40.4757   5.9370001255e+01   2.3154140710e+01    0.2092249     0.137942  -9.07 5.461459e-05    1.673    0.402
       236  -8.9205    228.3705     37.2502   5.8229518996e+01   2.3075961642e+01    0.2666922    0.2116809 -25.72 0.0009720038    1.201    0.167
       237  -8.9196     92.1576     39.3665   8.6667365604e+01   5.5882800691e+01    0.2658372    0.1761741 -14.10  0.001161433    1.884    0.469
       238  -9.8404    212.5711     38.0365   6.0487877379e+01   2.6975377974e+01    0.5261795    0.2583265  37.26  0.001800876    2.544    0.607
       239  -8.8672    150.1851     37.6471   7.0958678451e+01   4.3228854654e+01    0.2467429    0.1973018 -37.73 0.0006623154    1.264    0.209
       240 -10.9888    106.5014     35.1537   8.0750381624e+01   5.3760778766e+01    0.5760124    0.4109965 -71.00  0.001920988    2.220    0.550
       241  -9.1601    126.1364     36.7134   7.6121607060e+01   4.9188851569e+01    0.2412581    0.1919392 -40.68  0.000304595    1.281    0.219
       242  -8.8869    122.4589     37.4606   7.7331387121e+01   4.9915139005e+01    0.2245326    0.1432195  51.14 8.820146e-05    1.601    0.375
       243  -9.1632    122.5711     33.9816   7.5976210580e+01   5.0425498057e+01    0.3312658    0.2125642 -25.67 0.0007750986    1.547    0.353
       244 -10.6317    125.9009     30.4526   7.3782338466e+01   5.0177522698e+01    0.6822876    0.3517579  58.83 0.0006313295    2.093    0.522
       245  -9.3212     83.3050     35.6529   8.8078008448e+01   5.8136318076e+01    0.3885146    0.2061238  31.33  0.001715024    2.348    0.574
       246 -10.7218    224.6713     29.5504   5.6485152397e+01   2.4892226351e+01    0.5325364    0.3909051 -72.45  0.002662567    1.565    0.361
       247  -8.8448    187.8424     35.2930   6.3268954962e+01   3.3767371643e+01    0.2298819    0.1841995 -85.41 0.0004623432    1.441    0.306
       248  -8.2004     26.3371     35.6611   1.0966402513e+02   6.5509236219e+01    0.1137485   0.08701795  86.07 0.0007051089    1.757    0.431
       249  -9.0380    238.2668     33.0390   5.5913313870e+01   2.1130303284e+01     0.301248    0.2244474  67.17 0.0008417241    1.418    0.295
       250  -8.5663    157.4436     31.6965   6.7376001177e+01   4.2201260603e+01    0.2054747     0.145901  -8.83 0.0009396643    1.549    0.354
       251  -9.5698      7.9295     31.6799   1.1634746772e+02   6.7617817619e+01    0.1505279    0.1250518 -53.73 0.0004933254    1.105    0.095
       252  -9.4003    246.2569     30.1638   5.4287862482e+01   1.9532744252e+01     0.317889    0.2269341 -74.81  0.001638035    1.632    0.387
       253 -10.8121    184.6799     28.6297   6.1602855353e+01   3.5429800336e+01    0.4181801    0.3894843  25.68 0.0009456342    1.080    0.074
       254  -9.4622    189.4346     27.8099   6.0614744001e+01   3.4266027501e+01    0.3019105    0.2408525   5.29 0.0008957858    1.374    0.272
       255  -9.4366    106.4991     23.0050   7.5807829663e+01   5.5616271783e+01    0.2830803    0.1604498 -45.85  0.001038098    2.029    0.507
       256  -8.8869     46.6819    246.5647   1.3003693510e+02   2.2626519797e+01    0.1635763   0.09668645  88.69  0.001098088    1.601    0.375
       257 -10.8611    117.0622     21.4853   7.2377985582e+01   5.3478357464e+01    0.3984475    0.3430174  19.03 0.0006309818    1.131    0.116
       258  -8.9121     65.3327     30.0022   9.2116970023e+01   6.2063454325e+01     0.235745    0.1714318  -5.20  0.001051917    1.626    0.385
       259  -9.1060    240.7966     29.2523   5.4609279468e+01   2.0940365102e+01    0.1939719    0.1596587  19.39 0.0007038702    1.353    0.261
       260  -9.4217     95.8688     36.4741   8.4404255163e+01   5.5679188377e+01    0.2361443    0.1832069 -11.61 0.0009692569    1.362    0.266
       261  -9.8338    232.2546     26.9208   5.4883066441e+01   2.3288605656e+01    0.3251329     0.300843   1.10  0.001293237    1.121    0.108
       262  -8.3570    153.4175     28.2702   6.6928470143e+01   4.3688149527e+01    0.2064129    0.1362471 -36.24 0.0009217626    1.522    0.343
       263 -10.4259     97.9747     26.6242   7.9781730980e+01   5.6859661847e+01    0.2814144    0.2502024 -49.92 0.0002150908    1.283    0.220
       264  -8.7753    250.5386     26.9580   5.3013470063e+01   1.8871225228e+01    0.2079625     0.126791 -21.98   0.00101468    1.556    0.357
       265  -8.4253    193.5413     27.4644   5.9903388303e+01   3.3217948164e+01    0.2219867    0.1319628 -37.13  0.000657397    1.652    0.395
       266  -9.6723    195.3758     23.0929   5.8255509162e+01   3.3235002940e+01    0.4253284    0.2597622 -42.10  0.001325656    1.658    0.397
       267  -9.7147    188.6988     21.4743   5.8667586004e+01   3.5193993732e+01    0.5769107    0.2698819  68.73   0.00223708    2.199    0.545
       268  -9.1633    172.2346     26.5291   6.2903244280e+01   3.8986448259e+01    0.4009773    0.2968635 -84.04  0.001876992    1.652    0.395
       269  -8.3280     61.6282    245.8010   1.2779756333e+02   2.1061636326e+01    0.1204475    0.0702497  81.34 0.0004917592    1.618    0.382
       270  -8.6709    145.0541     27.5280   6.8342146652e+01   4.5915155843e+01     0.204456    0.1321955 -84.12  0.000808291    2.453    0.592
       271 -10.1533    203.3730     25.0483   5.7793729340e+01   3.0900473239e+01     0.360019    0.2482952 -48.56 0.0008976024    1.511    0.338
       272  -8.7894    137.3215     26.6409   6.9659908548e+01   4.7961154737e+01    0.2034779    0.1575871  80.55 0.0007144617    1.579    0.367
       273 -10.4091    138.2854     21.8505   6.7603069967e+01   4.8344537582e+01    0.4242765    0.3347796  36.04 0.0004617024    1.251    0.200
       274  -8.7165    178.9437     24.1445   6.1007104764e+01   3.7489117283e+01    0.2580988    0.2012145 -37.66 0.0005763513    1.296    0.228
       275  -9.7966    223.9838    243.9800   1.0265127399e+02  -1.3040023089e+00    0.2062109    0.1407354 -45.71  0.001486724    2.459    0.593
       276  -8.6275     62.9922     22.5265   8.9864808420e+01   6.3721417591e+01     0.281877    0.1481229 -14.19  0.001049296    3.692    0.729
       277  -8.1746    249.6386     22.1845   5.1844420482e+01   1.9589613795e+01    0.1908676    0.1238241 -11.21 0.0009408616    1.647    0.393
       278  -9.2612    227.8230     21.1521   5.3739879735e+01   2.5021516983e+01    0.4639879    0.2647806 -62.02  0.002009532    2.111    0.526
       279  -8.2510    202.2841     20.3216   5.6472801924e+01   3.1712932731e+01    0.1509345    0.1072674  28.88 0.0002200349    1.593    0.372
       280  -8.9388    129.1014     20.1973   6.8967270658e+01   5.0809990459e+01    0.5015965    0.2116939  33.07   0.00161427    3.522    0.716
       281  -8.6055    117.6800    244.3269   1.1912627702e+02   1.4149638450e+01    0.1055058   0.06008748  62.95 0.0007047103    1.683    0.406
       282 -10.1397    249.0637    241.0221   9.8565467473e+01  -4.6317690582e+00    0.2610101     0.162118 -27.97  0.001943661    2.057    0.514
       283  -8.7856     54.7968    241.7021   1.2859102503e+02   2.2418385407e+01     0.160204    0.1078881  74.24  0.001365293    1.213    0.175
       284  -7.9765      4.3196    241.6575   1.3587419524e+02   2.7520949195e+01   0.09726358    0.0377706  62.94 0.0007049705    1.720    0.419
       285  -8.2195     17.6867    239.6849   1.3393097397e+02   2.6570686886e+01    0.0717721   0.06418881  84.14 0.0007034149    1.640    0.390
       286  -8.5892    104.5059    235.5265   1.2046371613e+02   1.7119045505e+01    0.1046033   0.07565673  55.50  0.000810058    1.007    0.007
       287  -9.6169    234.6783    234.3976   9.9769964482e+01  -2.0309939354e+00    0.2191986   0.08862012 -36.25  0.001238546    3.335    0.700
       288 -10.3406     32.0173    231.5158   1.3150197280e+02   2.6362151274e+01    0.3599438    0.1353893  63.28  0.001937213    2.106    0.525
       289 -10.4420     98.6395     17.5666   7.5682004259e+01   5.8046218956e+01    0.2562638    0.2414834 -57.17 0.0007453148    1.283    0.221
       290  -8.7626    164.1284     16.8726   6.0871849139e+01   4.2260322375e+01    0.2225713    0.1979269 -54.24 0.0005673707    1.208    0.172
       291  -8.7015     26.6954    234.0149   1.3240359956e+02   2.6525823425e+01     0.129327   0.08710635  70.65 0.0006487921    1.082    0.076
       292 -10.8832    246.7455    228.9895   9.7205185878e+01  -3.3297196754e+00    0.4008381    0.1456818 -18.20  0.001889656    4.267    0.766
       293  -8.7749    223.3928    226.2035   1.0034108523e+02   3.9831900398e-01    0.1241198    0.1020517 -34.91 0.0009500538    1.705    0.414
       294  -8.2395      2.5065    223.9957   1.3560110566e+02   3.0305476182e+01    0.1098055   0.05851774 -62.69 0.0008106534    2.606    0.616
       295  -8.6918     82.3142    223.6473   1.2310223809e+02   2.1762396334e+01     0.110982    0.0590126  65.91 0.0001099765    1.733    0.423
       296  -9.9988    105.3276     17.3535   7.3704876493e+01   5.6651977836e+01    0.2714656      0.17901  54.62  0.001346877    1.608    0.378
       297 -11.1023    240.0722    219.4492   9.6799601327e+01  -1.5091047129e+00    0.3285761    0.2173436   6.27   0.00228735    1.505    0.336
       298  -9.0105    158.6004     15.7925   6.1415649919e+01   4.3840427415e+01    0.2878999    0.1988755 -31.75 0.0008251898    1.456    0.313
       299 -10.9134    248.1370    217.8770   9.5342778419e+01  -2.5807144502e+00    0.3915456     0.196499 -41.83  0.002154038    3.414    0.707
       300  -8.5123     75.7925    217.6063   1.2371737285e+02   2.3516211156e+01    0.1534533   0.06926538  51.44  0.000481652    1.681    0.405
       301  -7.7606     66.6777    217.6795   1.2523530591e+02   2.4629730580e+01   0.08310182   0.08061565  28.08 0.0004615021    1.673    0.402
       302  -8.9435     44.6223    216.1926   1.2874872042e+02   2.7403077663e+01    0.1229999   0.07905073 -72.04 0.0007028353    1.705    0.413
       303  -8.6139    213.4559     13.5059   5.3077160966e+01   2.9499140916e+01    0.1405843    0.1365612 -55.07 8.786758e-05    1.006    0.006
       304  -9.7539     23.8302    215.0916   1.3201410873e+02   2.9728990629e+01    0.2072341    0.1295592  78.52  0.001011686    1.227    0.185
       305  -9.7914     33.5253    214.4365   1.3044071938e+02   2.8860987089e+01    0.2070204   0.08584654  69.11  0.001137369    2.136    0.532
       306  -9.9826    232.1462    212.7729   9.7007487849e+01   3.3825743421e-01    0.2047871    0.1847762  37.36 0.0004431363    1.410    0.291
       307  -8.3826    185.3692    212.7790   1.0457268830e+02   7.8632373578e+00    0.1381475    0.1059435 -16.58 0.0009479584    1.661    0.398
       308  -8.0712    151.0153    210.9461   1.1017128513e+02   1.3659600521e+01    0.1354825    0.1099988  48.34 0.0004596972    1.035    0.034
       309  -9.6541    236.6736    208.6968   9.5670679175e+01   2.4706206362e-02    0.2521971    0.1996253  86.18  0.001490989    3.054    0.673
       310  -9.0153     33.0919    208.9470   1.3022166086e+02   2.9796633099e+01    0.1545135    0.1096772  69.03  0.001070761    1.023    0.023
       311  -9.4094      2.9132    207.1796   1.3497691171e+02   3.2928414535e+01    0.2250042    0.1059221  89.19  0.001649219    1.717    0.418
       312 -10.1752    242.7187    198.0633   9.3010536193e+01   1.0960385950e-01     0.205074    0.1825085   3.52 0.0004982012    1.300    0.231
       313 -10.7339    246.1697    203.7090   9.3406393304e+01  -9.8446875545e-01    0.2787525    0.2215391 -44.33  0.001934442    2.017    0.504
       314 -10.1960    249.6551    200.0461   9.2270879613e+01  -1.1817630460e+00    0.3512888    0.2181097 -23.21  0.002290568    1.743    0.426
       315  -8.2197     87.1554    204.4004   1.2066569583e+02   2.4142589766e+01    0.1517781   0.07765434  52.71 0.0002650845    1.564    0.361
       316  -9.1251     13.1468    204.1641   1.3323342869e+02   3.2518249752e+01    0.1407203   0.07606577  66.42 0.0007116317    1.332    0.249
       317 -10.3178    236.8329    197.6302   9.3860085279e+01   1.1024338372e+00    0.2959578      0.19348  -6.77  0.001881224    1.640    0.390
       318  -8.0194     65.7218    203.3214   1.2433441823e+02   2.7068224423e+01    0.1095834   0.06128121  67.98 0.0002606466    1.582    0.368
       319  -9.5470    226.5806    199.7956   9.5845702372e+01   2.5519356210e+00    0.3898055    0.1479097  42.39  0.001178463    2.119    0.528
       320  -8.2285     22.5375    206.5136   1.3181954641e+02   3.1248455016e+01   0.09846289   0.06798234  69.80 0.0002488457    1.006    0.006
       321  -9.2270    210.8063    197.1617   9.7998732354e+01   5.4758795959e+00    0.1870592    0.1585992  -4.77 0.0004689212    1.275    0.216
       322 -10.3157      4.0715    191.0190   1.3417291852e+02   3.5535416267e+01    0.3491415    0.1771689 -61.65  0.002124084    2.444    0.591
       323 -11.2370    248.6678    174.7724   8.7989257755e+01   1.5266604746e+00    0.5515044    0.2072756 -33.87  0.002566321    2.902    0.655
       324  -8.9275    249.4897    192.5105   9.1024542050e+01  -4.2660463327e-01    0.1926342    0.1594631   7.56  0.001016773    1.163    0.140
       325 -10.6430    244.4140    190.3734   9.1443519751e+01   6.0826052125e-01    0.5042592    0.2942565 -48.33  0.002578678    3.293    0.696
       326 -10.9980    249.0888    186.0464   8.9961744241e+01   2.8426463634e-01    0.4497948     0.316634  19.90  0.002974701    1.166    0.143
       327  -9.0207    231.4013    194.6490   9.4227105315e+01   2.3038118099e+00    0.1765843    0.1684344 -13.58 0.0008333711    1.427    0.299
       328 -10.5175     15.4714    191.2867   1.3226073238e+02   3.4489911502e+01    0.4947289     0.177943  62.34   0.00263197    2.280    0.561
       329 -10.6220     11.3266    185.4655   1.3269221980e+02   3.5878567212e+01    0.3483334    0.1346989 -65.55  0.002065633    2.646    0.622
       330  -9.2913     31.9848    193.8696   1.2955922641e+02   3.2453220150e+01    0.1704087    0.1135998  83.65 0.0004977494    1.206    0.171
       331  -8.8011    224.8540    192.0337   9.4846812700e+01   3.6823906075e+00    0.1767162     0.152915  40.23  0.001243661    1.285    0.222
       332 -10.7509    237.9323    186.6782   9.1823871987e+01   2.0652576492e+00    0.4569206    0.2273113  12.12    0.0020039    3.213    0.689
       333 -11.4778    238.5625    179.8249   9.0508461805e+01   2.6995627450e+00    0.4687589    0.3490971  64.72  0.002758868    2.146    0.534
