#   1 NUMBER                 Running object number                                     
#   2 MAG_AUTO               Kron-like elliptical aperture magnitude                    [mag]
#   3 X_IMAGE                Object position along x                                    [pixel]
#   4 Y_IMAGE                Object position along y                                    [pixel]
#   5 X_WORLD                Barycenter position along world x axis                     [deg]
#   6 Y_WORLD                Barycenter position along world y axis                     [deg]
#   7 A_WORLD                Profile RMS along major axis (world units)                 [deg]
#   8 B_WORLD                Profile RMS along minor axis (world units)                 [deg]
#   9 THETA_WORLD            Position angle (CCW/world-x)                               [deg]
#  10 FWHM_WORLD             FWHM assuming a gaussian core                              [deg]
#  11 ELONGATION             A_IMAGE/B_IMAGE                                           
#  12 ELLIPTICITY            1 - B_IMAGE/A_IMAGE                                       
         1 -15.3363    248.3542     13.4702   3.4392851375e+02   2.6123697813e+01     5.276119    0.9035179 -29.84   0.01618497    7.732    0.871
         2 -14.7764    248.5060     91.2646   3.5883702530e+02   1.6573434493e+01     2.496898    0.2937537 -41.61  0.008283998    4.807    0.792
         3 -13.9499    248.9026     76.5019   3.5597754829e+02   1.8513104708e+01     1.735757     0.154153 -40.96  0.005761625    4.875    0.795
         4 -13.4307      2.8097     39.8890   5.5402233998e+01   7.1905545514e+01    0.8343429     0.375476 -79.45  0.003329288    3.093    0.677
         5 -12.7277     13.4295     12.7547   3.3604705725e+01   7.6398961601e+01    0.3644517    0.2084827 -36.86  0.001937531    1.776    0.437
         6 -13.5050      2.7653     22.1039   4.8564622065e+01   7.5801960572e+01    0.9465408    0.3757993 -54.68  0.004309891    2.304    0.566
         7 -13.0223      6.9182     11.3262   3.8592121325e+01   7.7463030492e+01    0.7823147    0.3650943 -31.68   0.00359804    2.466    0.594
         8 -13.2586     11.6110      2.9473   2.8037934156e+01   7.8203844280e+01    0.7384487     0.386287  44.66  0.003792135    2.045    0.511
         9 -11.8084      2.7416      3.8380   3.7594687726e+01   7.9230254558e+01    0.4075378    0.3572535 -17.61  0.002833939    1.138    0.121
        10 -11.7975     25.1390      7.7241   2.1010904464e+01   7.5319593020e+01    0.2421335    0.1556732   0.60  0.001236626    2.072    0.517
        11 -10.3885     30.3239      2.3239   1.3746649752e+01   7.5016405015e+01    0.1329496   0.08531693  24.16 0.0006116063    1.685    0.407
        12 -10.9112    216.5081    234.9899   2.8134944462e+01  -3.7467689142e-01    0.1864674     0.117617  -0.42   0.00103602    1.339    0.253
        13 -12.4628    217.9710    246.4981   2.9518396569e+01  -1.9830960206e+00    0.5364075    0.2260678 -27.78    0.0031653    2.070    0.517
        14 -12.6816    235.2898    227.4311   2.4093770190e+01  -1.0585207717e+00    0.7226556    0.2204421 -27.87  0.003207011    3.611    0.723
        15 -12.9682    240.1410    220.9714   2.2415948552e+01  -6.5591477017e-01    0.9544472    0.1942139 -42.08  0.003731149    4.878    0.795
        16 -13.0376    225.0097    244.6122   2.8134865982e+01  -2.3420763260e+00      1.14688    0.2899102 -32.55   0.00517851    3.663    0.727
        17 -13.1636    248.4737    214.3231   2.0219290436e+01  -5.3379294968e-01     1.265073    0.2935113 -34.07  0.005584724    3.530    0.717
        18 -12.7978    232.2779    244.4740   2.6987725982e+01  -2.9233898208e+00    0.7354281    0.3247017 -27.85  0.003862864    1.823    0.452
        19 -11.5223    237.3606    234.3719   2.4790748844e+01  -2.1046823572e+00    0.3571484    0.1930567 -15.23  0.002286898    1.547    0.353
        20 -11.2623    245.7729    229.2753   2.2819608755e+01  -2.1718604155e+00    0.2939427    0.1752569 -21.29  0.001420027    1.208    0.172
        21 -11.6510    248.5356    223.7134   2.1611602406e+01  -1.7156831713e+00    0.3676198    0.1941662 -22.81  0.001917387    1.439    0.305
        22 -12.8009    242.1236    237.5628   2.4539891006e+01  -2.8825916910e+00     1.042553    0.4001614 -13.84  0.004325623    4.875    0.795
        23 -13.3245    246.6420    246.5991   2.5143632992e+01  -4.2978295864e+00    0.8130658    0.4603503   8.49  0.006181405    1.545    0.353
        24 -12.0956    248.4733    238.2426   2.3715030396e+01  -3.4646287723e+00    0.4619666    0.1782281 -29.21  0.002831938    2.016    0.504
        25 -11.6650    202.4182    249.6719   3.2535714952e+01  -1.0319615759e+00    0.2903998    0.1427595 -21.34  0.001750506    1.905    0.475
        26 -10.7658     52.0740    249.8654   6.3808310553e+01   1.4316083820e+01    0.3232765    0.1158624  33.99  0.001523384    2.038    0.509
        27 -15.6341      4.6600    148.2670   7.0150357437e+01   4.2772829475e+01     3.708008    0.8275321 -82.78   0.01048477    4.503    0.778
        28 -12.8431      3.6866    245.0022   7.4589246591e+01   1.9578621424e+01    0.8711029    0.4232502  85.63  0.004806364    2.170    0.539
        29 -11.6195    205.6077    239.7827   3.0628199605e+01  -1.5674393177e-02    0.2018994   0.08374331 -36.29   0.00112659    2.117    0.528
        30 -10.7542    215.8938    229.8546   2.7489966089e+01   3.6481116591e-01    0.2464874    0.1203901 -12.04  0.001344025    2.328    0.570
        31 -10.9418    187.4913    245.9707   3.4652115843e+01   8.4304094305e-01    0.1581409   0.09377395 -34.29  0.001001129    1.583    0.368
        32 -10.6950    229.7217    226.5971   2.4818411044e+01  -4.6236325369e-01    0.2975717    0.1009525 -34.80  0.001579035    2.388    0.581
        33  -9.9770     38.0100    240.4886   6.6495738133e+01   1.7510728314e+01    0.1933368    0.0989599  29.07 0.0006898555    1.576    0.366
        34 -10.9081    223.4406    225.2530   2.5599048932e+01   2.8302570429e-01     0.202756   0.07991906 -34.38  0.001125369    2.080    0.519
        35 -10.8707    232.1686    220.4767   2.3532266892e+01   1.1789126595e-01    0.2662852    0.1068448 -37.35  0.001525495    2.048    0.512
        36 -10.1804    216.6899    221.5082   2.6119935207e+01   1.4261252589e+00        0.197   0.08262928 -38.74  0.001091854    2.068    0.516
        37 -10.3645    225.5388    219.9922   2.4480866103e+01   7.9289646175e-01    0.1641272   0.08484401 -34.88  0.001032974    1.599    0.375
        38 -10.8399    235.9590    217.0314   2.2441646097e+01   2.2686405290e-01    0.1735264   0.09563424 -15.25 0.0008085508    1.623    0.384
        39 -11.1558    220.0050    238.1703   2.8024537517e+01  -1.1003736286e+00    0.1877766    0.1179391 -23.14 0.0008815317    1.242    0.195
        40 -10.9755    232.9473    213.0125   2.2279237012e+01   1.0376843998e+00    0.2247452    0.1175849 -34.15  0.001446854    1.528    0.345
        41 -10.6793    240.5043    207.5098   2.0312209593e+01   1.0674675065e+00    0.2836156   0.08530054 -42.10  0.001341963    3.057    0.673
        42 -10.3981     53.8187    239.2096   6.2669148138e+01   1.6220226664e+01    0.2308414   0.08752733  52.03 0.0009554479    2.875    0.652
        43 -10.9083    249.9851    200.2456   1.7841683317e+01   1.1495815718e+00     0.244774    0.1157164 -34.81  0.001281972    1.595    0.373
        44 -11.0408    243.9607    199.9725   1.8637012387e+01   1.7487780827e+00     0.254849    0.1237292 -40.60  0.001320233    1.826    0.452
        45 -14.9551      4.9116    220.0098   7.3519912590e+01   2.4741327328e+01     3.609782     1.255804  66.73   0.01500565    2.930    0.659
        46 -11.3249    246.8641    192.3822   1.7022949212e+01   2.4913738065e+00    0.2827043    0.1108153 -36.00  0.001424614    1.929    0.482
        47 -10.5251    249.4606    184.9456   1.5466912374e+01   3.2444059224e+00     0.169058    0.0799346 -36.06 0.0009756458    1.590    0.371
        48 -13.1624     11.4583    248.8167   7.2972353807e+01   1.8200586648e+01     1.303363       0.4058  18.57  0.005419186    3.228    0.690
        49  -9.9212    246.3300    167.6507   1.2998429519e+01   5.9698069652e+00     0.103506   0.07706401 -52.19 0.0007048644    1.766    0.434
        50 -10.4615    245.6901    157.4755   1.1325636261e+01   7.4902820104e+00    0.2040893   0.07790326 -38.06  0.001062126    1.961    0.490
        51 -10.2658    250.4622    156.7390   1.0593956476e+01   7.0547705369e+00    0.2159737   0.08132812 -41.00  0.001130137    2.051    0.512
        52 -10.0875    242.4018    153.2164   1.0999775271e+01   8.4879788794e+00    0.1621875   0.08337233 -43.06 0.0008908841    1.634    0.388
        53 -10.7868    249.8875    151.2663   9.7122625257e+00   7.8947704892e+00    0.2026403    0.1144971 -41.21 0.0009294481    1.418    0.295
        54 -10.8359    243.6044    148.2598   9.9639175027e+00   9.0656461456e+00    0.2206537    0.0829578 -40.92 0.0009611477    2.043    0.511
        55 -11.4446    247.4404    143.9195   8.7127291709e+00   9.2323966644e+00    0.3101977     0.143498 -46.92   0.00170051    2.046    0.511
        56 -10.3280    234.5383    145.7484   1.0681809775e+01   1.0556038154e+01    0.2350743   0.08959472 -35.92  0.001143724    2.089    0.521
        57 -11.4691    243.4790    139.5395   8.4085860571e+00   1.0351535118e+01    0.2991234    0.1266264 -42.54  0.001232078    1.864    0.463
        58 -11.2743    242.0673    133.4426   7.4654266800e+00   1.1422355577e+01    0.3757277    0.1419882 -42.14  0.001756918    2.044    0.511
        59 -10.3093    195.6297    236.6434   3.1908852348e+01   1.3583401031e+00    0.1817694    0.1045289 -10.75  0.001059865    1.654    0.395
        60 -10.2319    250.4693    140.0193   7.6532670235e+00   9.4266361581e+00      0.17838    0.0827507 -38.22 0.0009641541    1.580    0.367
        61 -10.3049    238.6158    139.8038   9.0633783862e+00   1.0925586095e+01    0.1682632   0.08398041 -43.80 0.0009319859    1.657    0.397
        62 -12.1149    240.9789    109.3251   3.0562809193e+00   1.5093002416e+01    0.6043119    0.2017505 -39.33  0.002775697    2.208    0.547
        63 -14.4824    242.5055     95.9699   3.2406252338e-01   1.6785908935e+01     2.291896          nan -41.23  0.005535372    8.734    0.886
        64 -10.9774    207.7330    249.5674   3.1623011047e+01  -1.4879294115e+00    0.1543135   0.08607698  17.55  0.001036645    1.570    0.363
        65 -10.6807    219.5171    127.5310   9.2396520015e+00   1.5419923256e+01    0.2680896   0.09790739 -39.65  0.001211532    2.169    0.539
        66 -12.1245    238.6950    123.2366   5.9652993104e+00   1.3371769025e+01    0.6054361    0.2440757 -40.94  0.003026962    1.870    0.465
        67 -10.7618    227.0826    123.8978   7.5256152699e+00   1.4892222324e+01    0.3127476    0.1423078 -41.52  0.001509963    1.716    0.417
        68  -9.7742    212.3186    121.6545   9.0590906625e+00   1.7442746194e+01    0.1257624   0.08666629 -60.65 0.0006464932    1.725    0.420
        69 -11.2071    219.1057    116.5970   7.1138068199e+00   1.7207527560e+01    0.3778621    0.1508619 -39.32  0.001789701    1.983    0.496
        70 -11.8569    231.1042    114.0490   5.1029599930e+00   1.5810707477e+01    0.5033398    0.2016299 -40.49  0.002385109    1.899    0.474
        71 -14.4637      4.8158    193.6840   7.2523950081e+01   3.0897795583e+01     1.760468    0.6980061  73.74  0.007215468    2.623    0.619
        72 -10.8111    235.8151    107.1187   3.2022772948e+00   1.6155060746e+01    0.1851833    0.1267586 -47.65 0.0007665617    1.226    0.185
        73 -15.2274      4.5198    173.2452   7.1648322994e+01   3.6088550841e+01     2.253556     0.972964 -86.36   0.00951258    2.240    0.554
        74 -10.9402    237.7979    102.1577   2.0166677635e+00   1.6589071052e+01    0.3057856    0.1210886 -42.33  0.001281892    1.888    0.470
        75 -11.8403    235.4947     95.6379   9.8146835435e-01   1.7874372511e+01    0.2418679    0.1526208 -48.58  0.001093101    1.300    0.231
        76 -12.0548    230.3582    103.0120   3.0092215295e+00   1.7572353540e+01    0.3699531    0.1622702 -44.37  0.001857063    1.791    0.442
        77 -10.5554    221.9755    104.7860   4.3542083682e+00   1.8596511367e+01    0.2352327    0.1245198 -47.95  0.001276383    1.619    0.382
        78 -12.5172    236.6679     89.2516   3.5959565622e+02   1.8609209675e+01    0.4318128    0.1271831 -45.95  0.001875121    2.720    0.632
        79 -11.8048    247.7527    129.2601   6.0263023913e+00   1.1302938199e+01    0.5793828    0.1682577 -40.67  0.002646362    2.529    0.605
        80 -10.5094    225.3018    229.9814   2.6002779229e+01  -5.0869147963e-01    0.1771428    0.1087162 -13.62 0.0008961051    1.307    0.235
        81 -13.1722    247.7061    118.2153   3.9957250499e+00   1.2893337925e+01     1.503877     0.199085 -40.94   0.00483076    5.077    0.803
        82 -12.0009    247.7866    105.2062   1.5515331789e+00   1.4731270209e+01    0.6967246     0.182854 -46.19  0.002845997    3.332    0.700
        83 -11.8994    211.0114    246.1994   3.0616127743e+01  -1.3433122228e+00    0.2601309     0.135123 -28.46  0.001701277    1.614    0.380
        84 -12.1572      2.5207     53.5009   5.9326515356e+01   6.8664577529e+01    0.3777476      0.12457 -70.24  0.001402478    2.886    0.654
        85 -10.4386    210.3824    241.7475   3.0102264034e+01  -7.1025465357e-01    0.2100551      0.10084 -28.55   0.00122828    1.781    0.438
        86 -10.6176    166.9709    250.0000   3.8998569201e+01   2.2750083157e+00    0.1853345   0.05399404  26.16 0.0008069235    2.974    0.664
        87 -10.9553     66.2078    248.6440   6.0478094724e+01   1.3128721254e+01     0.327666    0.1181602  40.73  0.001491488    2.288    0.563
        88 -11.6472     34.0252    247.8039   6.7823935564e+01   1.6431075030e+01    0.2939843    0.2315228  82.32  0.001989832    1.394    0.283
        89 -11.7448    197.4052    245.6795   3.2856639174e+01  -4.9060426319e-02    0.2877002    0.1312135 -15.20  0.001458813    2.698    0.629
        90 -10.3874     45.2255    244.3808   6.5039456749e+01   1.6044710976e+01    0.2647693    0.1346054  45.35   0.00141239    1.675    0.403
        91 -12.0636      9.1965     36.2794   4.9225089678e+01   7.2236019831e+01    0.3451039    0.1263106 -46.17  0.001412297    2.453    0.592
        92 -11.1854    232.4573    132.4133   8.4705248704e+00   1.2842961618e+01    0.4457186    0.1741033 -43.35  0.002193952    2.066    0.516
        93 -12.3678     14.1728     22.1734   3.8686689624e+01   7.4615786787e+01    0.3340552    0.1690223 -43.46  0.001630367    1.935    0.483
        94 -11.2336    176.9928    243.7434   3.6277673051e+01   2.1823936149e+00    0.2368796    0.1347886   0.29  0.001398106    1.738    0.425
        95  -9.8988    225.4805    133.0119   9.4991375220e+00   1.3708536051e+01    0.1925144   0.09493446 -38.28  0.001030875    1.588    0.370
        96 -10.4893    221.8308    233.0323   2.6995518903e+01  -5.9643929118e-01    0.1811192   0.09780326 -12.59  0.001140258    1.712    0.416
        97 -11.5171    214.1454    238.1642   2.8974794911e+01  -5.7877474660e-01    0.3235106    0.1412743 -42.07  0.001868967    2.308    0.567
