#   1 NUMBER                 Running object number                                     
#   2 MAG_AUTO               Kron-like elliptical aperture magnitude                    [mag]
#   3 X_IMAGE                Object position along x                                    [pixel]
#   4 Y_IMAGE                Object position along y                                    [pixel]
#   5 X_WORLD                Barycenter position along world x axis                     [deg]
#   6 Y_WORLD                Barycenter position along world y axis                     [deg]
#   7 A_WORLD                Profile RMS along major axis (world units)                 [deg]
#   8 B_WORLD                Profile RMS along minor axis (world units)                 [deg]
#   9 THETA_WORLD            Position angle (CCW/world-x)                               [deg]
#  10 FWHM_WORLD             FWHM assuming a gaussian core                              [deg]
#  11 ELONGATION             A_IMAGE/B_IMAGE                                           
#  12 ELLIPTICITY            1 - B_IMAGE/A_IMAGE                                       
         1 -13.4882    192.2657     69.3272   7.5857130108e+01   2.8173313135e+01     6.291387     1.668541 -30.61   0.01421046    7.477    0.866
         2 -14.0745    170.8118     63.2849   7.8086048841e+01   3.4345353745e+01     5.124239     1.907337 -55.93   0.01289441    6.108    0.836
         3 -14.1715    143.4259     40.4381   7.6896587501e+01   4.4221587272e+01     3.665331     1.251134  54.56   0.01383987    2.540    0.606
         4 -14.3553    248.3948     24.2983   5.8649353866e+01   2.1837118056e+01    0.8731226    0.5471274 -39.87  0.001430452    1.624    0.384
         5 -15.8581    228.7035     52.1471   6.6516612518e+01   2.2321202670e+01     10.00458     2.016119 -44.31   0.03187471    4.066    0.754
         6 -15.5292    241.3074     13.9824   5.7223166123e+01   2.4605010623e+01     3.127038    0.6447728  62.99   0.01171131    4.022    0.751
         7 -13.7176    247.5254     44.0888   6.2705727549e+01   1.9368912727e+01     1.053713    0.4713311 -47.04  0.005098884    1.924    0.480
         8 -13.7828    249.1965      2.8566   5.4482289136e+01   2.4221611899e+01    0.6711773    0.3513758  76.52 0.0008913376    1.682    0.406
         9 -15.1012    207.6151     61.4037   7.1475082838e+01   2.5781786323e+01      8.10023     3.427688 -45.95   0.03293353    2.263    0.558
        10 -10.5318    132.9090     23.1655   7.3713954119e+01   4.8702018007e+01    0.3537954    0.2909257  70.96  0.002138242    1.212    0.175
        11  -9.0357    152.8630     18.1595   6.8617122043e+01   4.4589780555e+01    0.3104047    0.1424258 -26.54 0.0009165677    2.532    0.605
        12  -9.4491    151.4554     11.4983   6.6944505884e+01   4.5576895392e+01    0.2246184     0.200563 -35.46 0.0006295278    1.293    0.226
        13  -9.3888    115.9864     12.5245   7.3753363270e+01   5.3519430794e+01    0.3056433    0.1774531  45.10  0.001638791    1.488    0.328
        14 -11.0221    120.3376      8.9197   7.1664898237e+01   5.2892771968e+01     0.371633    0.3337084  43.87  0.001407506    1.065    0.061
        15  -8.8635    141.5414     11.4756   6.8556216077e+01   4.7883451213e+01     0.193965    0.1274179 -26.09 0.0006878074    1.761    0.432
        16  -8.7809    139.3650      8.1773   6.7941088625e+01   4.8682117270e+01    0.2067572    0.1457301 -86.58 0.0006900748    1.665    0.399
        17 -10.2815    171.6799      2.9414   6.1813824461e+01   4.1618914425e+01    0.5839736    0.2760502 -70.61  0.002424238    3.170    0.685
        18  -9.1187    165.1883      2.9035   6.2628003669e+01   4.3143018089e+01     0.228054    0.1600768 -10.63 0.0009160853    1.909    0.476
        19  -8.2027    150.5533      2.4916   6.4535193199e+01   4.6589897411e+01    0.1251159    0.1058968  74.76 7.203694e-05    1.060    0.057
        20 -10.0102    211.9249    166.4588   9.5299523837e+01   5.2047105503e+00     0.302864    0.2334747  66.67  0.001009414    1.668    0.401
        21  -8.5910    104.5713    249.4965   1.3179282877e+02   8.5369151453e+00    0.1264104    0.1036413  62.10 0.0001493981    1.010    0.010
        22  -9.5087     71.7909    249.4036   1.3793488584e+02   1.3494815094e+01    0.1626463    0.1069495  36.71 0.0006763981    1.703    0.413
        23  -9.6532     90.9984    246.9749   1.3410732648e+02   1.1125592934e+01     0.153005    0.1251139  69.85 0.0004705834    1.040    0.038
        24  -9.0415    198.6535    144.3225   9.3029074772e+01   1.2371078456e+01     0.156993    0.1206839 -82.44 0.0007049718    1.738    0.425
        25  -9.8677    192.2860    144.1427   9.4287721229e+01   1.3780867404e+01    0.2749218    0.2189755  58.26 0.0003995046    1.354    0.261
        26  -8.9178     71.6794    239.3407   1.3699534180e+02   1.5491110142e+01    0.1346731   0.07694378  69.64 0.0007050108    1.718    0.418
        27  -8.1395    107.7337    141.6554   1.1386155439e+02   3.2076434205e+01     0.152039    0.1171178 -26.70 0.0003594857    1.607    0.378
        28 -11.5077    188.8778    137.7612   9.3510637504e+01   1.5857503608e+01    0.5123137    0.3355093  43.69  0.002271103    1.597    0.374
        29 -10.6994    167.3112    137.4583   9.8128384952e+01   2.0706651685e+01    0.5851853    0.2934804 -58.44  0.002014068    2.618    0.618
        30 -10.7847    211.1318    136.3846   8.8771483816e+01   1.1303214078e+01     0.323132     0.248769 -32.33  0.001040141    1.305    0.234
        31 -10.6637    173.6685    135.9765   9.6352446466e+01   1.9614692080e+01     0.451891    0.2296026 -56.20  0.001616908    2.374    0.579
        32  -8.8165    145.5014    135.9852   1.0290942303e+02   2.5817231149e+01    0.2312349    0.1373436 -69.56  0.000810432    2.587    0.613
        33 -10.9499    189.0018    131.1165   9.1911593790e+01   1.7214954506e+01    0.5383125    0.2484193 -52.66  0.001895396    2.457    0.593
        34 -11.5034    159.7488    129.5223   9.7946478337e+01   2.4132997389e+01    0.6110029    0.4193352 -29.34  0.002612185    1.722    0.419
        35 -11.0188    224.6610    127.8349   8.4365815775e+01   1.0111019166e+01    0.5555878     0.252672  39.16  0.002056925    2.897    0.655
        36 -10.7444    196.5339    129.6573   9.0035830251e+01   1.5835483330e+01    0.3580151    0.2701163  81.39  0.001640204    1.707    0.414
        37  -9.8932    135.7882    128.7716   1.0357752438e+02   2.9537070928e+01    0.3988659    0.3470078  37.87  0.001998162    1.204    0.169
        38 -10.3121    134.9869    123.9691   1.0259356195e+02   3.0797216378e+01    0.4447578     0.217336 -60.36  0.001476854    2.831    0.647
        39 -10.2619    172.4774    125.4820   9.4070418547e+01   2.2133787956e+01    0.3714505    0.2699452 -29.84  0.001662554    1.544    0.352
        40 -10.9240    151.9050    122.2337   9.7984637143e+01   2.7486725309e+01     0.538507     0.328024 -26.82   0.00205496    2.247    0.555
        41  -9.0694    226.1443    122.8511   8.2980092804e+01   1.0746884018e+01     0.232957    0.1882699 -68.65 0.0005318162    1.343    0.255
        42 -11.8596    248.3922    235.2717   1.0188204045e+02  -1.2461555198e+01    0.2224891    0.1935915  10.63 0.0002400904    1.193    0.161
        43 -10.3676    140.1175    120.5170   1.0043180630e+02   3.0466533636e+01     0.501362    0.2779378  71.06  0.001507436    3.889    0.743
        44  -8.7937     81.3144    233.3177   1.3451250619e+02   1.5301550036e+01     0.111727    0.1021872 -25.96  0.000703739    1.649    0.393
        45 -11.2176    167.4991    114.1264   9.2325460375e+01   2.5671211623e+01    0.5610318     0.455489 -43.83  0.001279368    1.214    0.176
        46  -9.3447    174.7973    150.9487   9.9592167674e+01   1.6123179214e+01    0.2802738    0.2086597 -63.07 0.0004357318    1.518    0.341
        47 -10.0456    175.8128    116.1011   9.1010680348e+01   2.3338131715e+01    0.2973301    0.2225793  82.66   0.00113804    1.699    0.411
        48 -10.0640    157.5238    114.2919   9.4635291544e+01   2.7930184192e+01     0.357069    0.2509911 -75.95  0.001142125    1.964    0.491
        49 -10.9846    134.6043    111.4956   9.9494298108e+01   3.3646382613e+01      1.16585    0.2190756 -44.09  0.002733814    5.297    0.811
        50  -8.8787    120.1649    111.3575   1.0324289634e+02   3.6711222958e+01    0.2196864    0.1413705  54.69 0.0005708829    1.742    0.426
        51  -9.0528    126.4750    110.5155   1.0134298802e+02   3.5592523861e+01     0.153418    0.1492996 -62.56 0.0001034618    1.022    0.021
        52  -9.3597    141.8369    103.9186   9.5659745364e+01   3.3669792898e+01    0.2412922    0.2152446  -2.12   0.00121588    1.284    0.221
        53  -9.5896     33.5133    218.0446   1.4229978364e+02   2.4923228058e+01    0.1842368   0.09934256 -76.99  0.001035525    1.599    0.374
        54  -9.6359    223.0326    101.5580   7.8608069706e+01   1.5383860255e+01    0.2584716    0.1932018 -44.12 0.0005012673    1.238    0.192
        55  -9.9486    161.2527    213.8318   1.1513779790e+02   5.6304185695e+00    0.2272317    0.2127293  19.29  0.000286743    1.101    0.091
        56 -10.2379    123.9129    101.7268   9.9661638132e+01   3.8022514383e+01    0.3925645    0.2486764  32.90  0.001491512    1.806    0.446
        57 -10.2544    147.7632     98.9392   9.2871489098e+01   3.3353199279e+01    0.3849902    0.3482729 -18.74  0.001177556    1.205    0.170
        58  -9.8509    211.0734     95.1348   7.9064750230e+01   1.9243038331e+01    0.3118122    0.2193171  76.59 0.0004449088    1.633    0.388
        59  -9.6806    134.2543     95.9458   9.5375183537e+01   3.6996337833e+01    0.2705717     0.246435  78.89 0.0004605422    1.190    0.160
        60 -10.9354    157.8922     91.9588   8.8623202789e+01   3.2383231226e+01    0.5287368    0.4163314  13.28  0.002154372    1.685    0.407
        61 -10.4386    244.9261    156.7774   8.7208515023e+01   7.6982120391e-01    0.3416642    0.2102017  61.78   0.00157251    2.360    0.576
        62 -10.2685      4.2888     90.8673   1.3396680547e+02   5.6441120844e+01    0.2818719    0.1005652 -38.03  0.001270701    2.895    0.655
        63 -10.4533    141.4906     88.6886   9.1542676913e+01   3.6814295755e+01    0.3244675    0.3004315 -59.17 0.0007998417    1.107    0.097
        64 -11.6651    156.2390     81.8360   8.6200492336e+01   3.4674920397e+01    0.4106632    0.3733917  33.34 0.0008447135    1.171    0.146
        65  -9.6151    151.1562     80.8190   8.7050907741e+01   3.6058005157e+01    0.3659136    0.2703179 -53.97 0.0008784382    1.447    0.309
        66 -10.6700      5.3372     82.8470   1.3212973687e+02   5.8084731123e+01    0.1750733    0.1600334  29.12 0.0009995699    1.409    0.290
        67 -10.6072      5.1192     75.4178   1.3070121511e+02   5.9636900582e+01    0.2565559    0.1563508  77.33  0.001309361    3.077    0.675
        68  -8.0983     98.2686     76.6478   9.9625517347e+01   4.8160029630e+01    0.1373398    0.1132382 -74.47 0.0005554486    1.627    0.386
        69  -9.6244    133.5984    147.3328   1.0847547923e+02   2.5692037148e+01    0.4667675     0.239881 -60.07  0.001707202    2.289    0.563
        70 -10.8885    150.9609     69.9071   8.3985061090e+01   3.8021901129e+01    0.5879033      0.42717 -88.41 0.0006811551    1.839    0.456
        71  -9.7686    146.2153     71.9959   8.5647969134e+01   3.8779840011e+01    0.3784422    0.2059099 -41.87  0.001539842    1.879    0.468
        72 -10.2703    143.6869     68.3323   8.5155451436e+01   3.9992589405e+01    0.3319346    0.2906344 -43.95  0.001667206    1.181    0.153
        73 -11.2503     36.5285    213.6590   1.4134055679e+02   2.5517008885e+01    0.4402623     0.159311  49.80  0.002049549    2.487    0.598
        74  -9.1667    121.9710     66.3164   8.9832857850e+01   4.5215929947e+01    0.1942598      0.17792  37.40 0.0003385971    1.054    0.051
        75 -10.4648    144.1694     59.2532   8.2367528181e+01   4.1351276910e+01    0.3604168    0.2709079 -69.40 0.0008456599    1.666    0.400
        76  -9.7111    132.9910    141.5551   1.0731690514e+02   2.7167778389e+01     0.660495    0.2121277 -57.25  0.001644645    4.857    0.794
        77 -11.3003     68.3046    144.5959   1.2500749918e+02   3.7740347422e+01    0.6666056    0.4211352  67.45  0.002526311    2.042    0.510
        78  -9.4828    179.1331     50.4484   7.3156307161e+01   3.4273711685e+01    0.4557957    0.3011979 -73.83  0.002149232    1.840    0.457
        79  -9.1178     72.8116     58.2158   1.0176740188e+02   5.5849604766e+01    0.1826779    0.1746873 -18.34 0.0005251135    1.200    0.166
        80 -10.8889    178.6315    144.3311   9.7229994882e+01   1.6717994601e+01    0.5464641    0.3403487 -59.06  0.002243264    1.880    0.468
        81  -8.3275    109.3067    157.0057   1.1666107077e+02   2.8087310742e+01    0.2009336    0.1780546 -69.52 0.0002341757    1.078    0.072
        82 -10.1544    174.2185    144.3224   9.8196855026e+01   1.7686578661e+01    0.3508992    0.2285567 -45.48 0.0009113778    1.505    0.336
        83  -8.9316    203.9220    152.6926   9.3866060014e+01   9.5553622616e+00    0.2072674    0.1939272  45.03 0.0005054802    1.119    0.106
        84 -10.2602    221.9500    145.6649   8.8852234634e+01   7.2413636893e+00    0.2772849    0.2479259  54.09 0.0005951109    1.223    0.182
        85 -10.7107    159.4632    142.6248   1.0115097727e+02   2.1290041745e+01    0.6979373    0.4344934  85.68  0.002264844    3.484    0.713
        86 -13.7607     10.5273    195.4939   1.4488926696e+02   3.2266619984e+01     1.693857     1.009738 -48.93  0.007674243    2.218    0.549
        87  -9.8219    191.3023    191.8988   1.0473686791e+02   4.2515299495e+00    0.6679406    0.3462831 -67.45  0.001673612    7.189    0.861
        88 -13.3933     52.2576    165.9439   1.3253861214e+02   3.4644945964e+01     1.410611     1.099062 -10.99   0.00248935    1.972    0.493
        89 -13.3989     43.1490    173.0705   1.3564596801e+02   3.4026766849e+01    0.9489701    0.8572161 -12.80  0.001923048    1.551    0.355
        90  -9.2407    222.2039    177.0982   9.5563724035e+01   1.2216850223e+00    0.2744378    0.1970521 -55.61  0.001342783    1.648    0.393
        91  -9.2402    200.2319    174.3804   9.9319370516e+01   5.9572967086e+00    0.2908067    0.1722592 -32.86  0.001260494    1.806    0.446
        92 -10.2243    235.3165    174.0383   9.2500596582e+01  -6.0624906886e-01    0.3420337    0.2120825  50.59  0.001157174    1.903    0.475
        93  -9.7945    192.1924    152.4996   9.6210753823e+01   1.2062006557e+01    0.4057701    0.2521896 -50.34  0.001656738    1.639    0.390
        94 -10.1856    231.0849    167.8653   9.1980737351e+01   1.2819475350e+00    0.3262813    0.1803776 -49.26  0.001449304    1.922    0.480
        95  -9.9184    215.6295    168.3219   9.4978024296e+01   4.1214980765e+00    0.3712671    0.2508356  65.46  0.001352492    2.133    0.531
