#   1 NUMBER                 Running object number                                     
#   2 MAG_AUTO               Kron-like elliptical aperture magnitude                    [mag]
#   3 X_IMAGE                Object position along x                                    [pixel]
#   4 Y_IMAGE                Object position along y                                    [pixel]
#   5 X_WORLD                Barycenter position along world x axis                     [deg]
#   6 Y_WORLD                Barycenter position along world y axis                     [deg]
#   7 A_WORLD                Profile RMS along major axis (world units)                 [deg]
#   8 B_WORLD                Profile RMS along minor axis (world units)                 [deg]
#   9 THETA_WORLD            Position angle (CCW/world-x)                               [deg]
#  10 FWHM_WORLD             FWHM assuming a gaussian core                              [deg]
#  11 ELONGATION             A_IMAGE/B_IMAGE                                           
#  12 ELLIPTICITY            1 - B_IMAGE/A_IMAGE                                       
         1 -12.1581    181.4989     58.9546   5.9370086681e+01   3.1893109290e+01     1.380624     1.015195  19.50  0.002425759    1.781    0.439
         2 -12.1627    224.7727     16.1432   4.1712613152e+01   2.6632400884e+01    0.8890266    0.6303914 -74.42   0.00258793    1.339    0.253
         3 -13.4275    236.5421      5.0718   3.8052065725e+01   2.5059973629e+01     1.531616     1.027248  72.66  0.008844237    1.442    0.307
         4  -9.3375    135.3761     10.8725   5.2031356969e+01   4.9986057427e+01    0.3279009    0.2275695 -13.70 0.0003310519    1.600    0.375
         5  -7.7095    122.8819    229.4706   1.0961537808e+02   1.1102662147e+01    0.1872931     0.102153  43.31  0.000485905    1.508    0.337
         6  -8.7259    231.5165    218.9310   8.7506091025e+01  -5.4366975135e+00    0.2172489    0.1389723  21.58 0.0004486468    1.383    0.277
         7 -12.3765     51.1933    191.9755   1.1991142203e+02   2.8864980778e+01     1.306902     1.131748 -81.45  0.005720627    1.239    0.193
         8  -9.1542    229.4785    200.7977   8.4610712915e+01  -2.7064564508e+00    0.3306517    0.2752534 -71.40  0.001904157    2.187    0.543
         9  -8.8546    193.6218    196.3845   9.0552452769e+01   4.2653667811e+00    0.4877693    0.2578601 -62.50  0.001538736    5.719    0.825
        10  -8.9332    217.9412    195.7200   8.5771100990e+01  -4.2044372128e-03    0.2280114    0.2002533  -9.32 0.0003591956    1.142    0.124
        11  -9.0000    218.9646    191.0185   8.4685137628e+01   5.1532210483e-01    0.2079549    0.1778024 -11.17  0.001274102    1.137    0.120
        12 -10.2516    249.2101    193.4350   7.9754039017e+01  -4.9359657293e+00    0.2297008    0.1914136   7.86 0.0003027192    1.069    0.065
        13  -9.4543    219.4131    186.2279   8.3670826003e+01   1.1601428780e+00    0.2300057     0.202106  41.51 0.0002901549    1.282    0.220
        14 -10.2065    187.1758    182.4315   8.9217726445e+01   7.8169277100e+00    0.2462436    0.2268791  38.66  0.000292678    1.105    0.095
        15  -8.2263    139.8556    182.9875   9.9384506691e+01   1.6807137532e+01    0.2031325    0.1860073  48.62 0.0004596052    1.025    0.025
        16  -7.7286    245.5341    181.4962   7.8042758189e+01  -2.6995201297e+00     0.130104    0.1103891   0.57 7.727982e-06    1.042    0.040
        17  -8.9782     72.5912    179.9055   1.1399904190e+02   2.8663797065e+01    0.2167224    0.1832311  58.91 0.0003307834    1.138    0.121
        18  -8.8311    207.9313    166.1721   8.1771673844e+01   6.5636643029e+00    0.2142898    0.1951543 -16.30 0.0003102057    1.094    0.086
        19  -7.8391    193.5508    164.7335   8.4330842052e+01   9.6906844467e+00    0.2000347    0.1376551 -50.87 0.0009479231    1.701    0.412
        20  -9.2851     72.7838    164.3249   1.1191132421e+02   3.2142975404e+01    0.2383516    0.2036858 -85.92 0.0002524919    1.051    0.048
        21  -7.4585    135.9729    160.0358   9.6040247840e+01   2.2324039167e+01    0.1715399     0.165268 -84.73 0.0003723177    1.053    0.050
        22  -9.4452     90.8755    158.1316   1.0658766610e+02   3.0845089987e+01    0.2231847    0.1783428  78.60 0.0007658155    1.242    0.195
        23  -9.7543     84.8978    155.2304   1.0759047874e+02   3.2456848978e+01    0.2415011    0.2055382  12.90  0.001347605    1.563    0.360
        24 -10.9841     94.7790    146.8452   1.0364920437e+02   3.2835317053e+01    0.5700725    0.4323062 -41.32  0.002941578    1.511    0.338
        25  -9.1727    133.2398    143.2733   9.3232749387e+01   2.6539428974e+01    0.9111489    0.2061798 -54.32  0.001927653    7.267    0.862
        26  -7.2008    165.0471    138.7805   8.4676560971e+01   2.0762355778e+01    0.1929573    0.1243473  46.78 0.0008306159    1.532    0.347
        27  -9.0694    136.2016    132.2472   9.0013101807e+01   2.8382227967e+01    0.7808793    0.2022706 -50.13  0.002105249    4.179    0.761
        28  -7.5437      2.2387    130.8589   1.2528158490e+02   4.7211358961e+01    0.1516394    0.1088079 -62.43 0.0003764629    1.308    0.235
        29  -8.1954     65.2967    126.3158   1.0778899457e+02   4.2164883908e+01    0.1367029    0.1002248 -37.32 0.0003633883    1.607    0.378
        30  -9.0999    134.8858    121.0289   8.7632656326e+01   3.1152791906e+01    0.3891591    0.2238723 -47.25  0.001593525    1.727    0.421
        31  -8.6844    153.0488    115.3965   8.1688434910e+01   2.8350790949e+01    0.2662069    0.2194415 -50.42 0.0002841433    1.231    0.187
        32 -10.2882    134.8690    107.5617   8.4138165045e+01   3.4116172810e+01     1.177731    0.2979171 -41.18  0.003068732    4.252    0.765
        33 -10.4018    141.5571    100.2865   8.0420009488e+01   3.4168818537e+01    0.7078288    0.4919487  20.89  0.001978492    1.949    0.487
        34  -9.4239    145.4923     96.1604   7.8262727518e+01   3.4115414752e+01    0.3225355    0.2885815 -18.41 0.0007886895    1.183    0.155
        35  -9.6523    209.3485    111.8580   6.8822994510e+01   1.5906688975e+01    0.2772622    0.2532705 -37.09 0.0002008422    1.062    0.058
        36  -8.2618    116.1978    111.4607   9.0150919554e+01   3.7178066967e+01    0.2696479    0.1521546  37.02 0.0006832551    1.931    0.482
        37  -8.8788    214.3178    107.9916   6.6944622977e+01   1.5455877719e+01    0.2820156      0.22195  42.70 0.0007363693    1.333    0.250
        38  -8.2904    219.7376    103.3690   6.4831397437e+01   1.5023269150e+01    0.2037049    0.1369103  43.07 0.0009382429    1.598    0.374
        39  -9.2929    188.4013    106.7979   7.1564703661e+01   2.1747620966e+01    0.3071505    0.1551544 -25.93  0.001067401    2.533    0.605
        40  -9.4096    188.4893     97.4151   6.9028838992e+01   2.3482500236e+01    0.3875666    0.2585999 -66.89  0.001291979    2.091    0.522
        41  -8.2940     98.0042     91.9819   9.0140527490e+01   4.5069011741e+01    0.2144124    0.2016307 -52.15  0.001178842    1.045    0.043
        42  -9.6048    151.5525     89.5023   7.4851561666e+01   3.4019173591e+01     0.374122    0.2927707 -47.79 0.0006742719    1.298    0.230
        43 -10.1057    154.2879     87.4083   7.3585823564e+01   3.3768229662e+01    0.5876336    0.3996009 -48.18  0.001425963    1.521    0.343
        44  -8.5394    137.1492     88.9472   7.8261354281e+01   3.7527264451e+01    0.2773287    0.2458226 -64.91  0.001115475    1.225    0.183
        45 -10.0178    119.9808    243.5616   1.1176003532e+02   9.2280397988e+00    0.2045429    0.1760948  68.28  0.001471817    1.163    0.140
        46  -9.2177    162.9483     78.0193   6.8814318776e+01   3.3398960175e+01    0.3176127     0.292033 -12.96  0.000424506    1.142    0.125
        47 -10.8625    167.2410     73.8355   6.6630988935e+01   3.3068404467e+01    0.7277853    0.6757085 -63.99  0.002022282    1.115    0.103
        48  -7.6988    184.9442     77.6628   6.4200995225e+01   2.7914409223e+01     0.218596    0.2021724  67.09 0.0005537095    1.098    0.089
        49  -9.9688    146.8421     76.4467   7.2031875654e+01   3.7670912562e+01    0.3932442    0.2743892 -42.44 0.0007909226    1.437    0.304
        50  -7.9732    130.0931     76.6512   7.6324910350e+01   4.1597854937e+01    0.3259167     0.229404  14.85  0.001206473    1.954    0.488
        51 -10.2765    113.1743     71.0842   7.9207015879e+01   4.6428134172e+01    0.2702206     0.254082 -26.88 0.0002862033    1.032    0.031
        52  -7.5475    125.2822     68.6925   7.5034134531e+01   4.4213247245e+01     0.149477    0.1218206 -73.37 0.0001716215    1.562    0.360
        53  -9.3823    209.4496     63.6110   5.6054485753e+01   2.4054558041e+01    0.4145403    0.2678069 -32.41  0.001290989    1.522    0.343
        54 -10.6591    162.8409     62.9694   6.4218122005e+01   3.6050668449e+01    0.4221065    0.3102283 -17.10  0.001051607    1.566    0.361
        55  -9.7339    189.4853     51.0623   5.5672912267e+01   3.1026401108e+01     0.294412    0.2608231 -47.10 0.0003995871    1.116    0.104
        56  -9.8050    191.7228     44.9914   5.3552776669e+01   3.1320059590e+01    0.5079448    0.2668727 -76.87  0.001690087    3.451    0.710
        57  -7.3513    158.0187     43.0270   5.8806879384e+01   4.0368498277e+01    0.1697116    0.1688166  38.47 0.0009445589    1.035    0.034
        58 -10.8593    183.0044     39.6550   5.3342486172e+01   3.4321389215e+01    0.2973841    0.2645886  71.70 0.0004661619    1.080    0.074
        59 -11.5904    184.7816     35.3240   5.1775604793e+01   3.4431582582e+01    0.3843234    0.3310381  48.87 0.0005125255    1.197    0.165
        60 -11.3842    202.5641     37.5485   4.9875797308e+01   2.9545613707e+01    0.3927519    0.3483099 -30.51 0.0005781301    1.194    0.163
        61 -11.4925    210.9178     29.4638   4.6615588664e+01   2.8466305032e+01    0.4075672    0.3276593  39.00 0.0007873879    1.478    0.323
        62 -12.1093     16.8827    228.2529   1.2885178255e+02   2.5521738770e+01     1.398181    0.7263086  53.59  0.009501255    1.482    0.325
        63 -12.8539     32.3759    211.8557   1.2517788183e+02   2.6991448562e+01    0.8004584    0.6566572  87.79    0.0017827    1.223    0.183
        64  -7.2887    138.0033     23.0061   5.5918165021e+01   4.8052999826e+01    0.1653019    0.1545872  42.65            0    1.017    0.016
        65  -8.2581    189.9678     15.5136   4.5280863168e+01   3.5434950676e+01    0.2114658    0.1846364 -42.24 0.0006152638    1.191    0.160
        66  -7.8697    176.4545     13.4735   4.6404569612e+01   3.9155345196e+01    0.1398623    0.1274496  73.21 0.0008081601    1.028    0.027
        67  -8.1484    167.9821     12.9786   4.7420207337e+01   4.1411835328e+01    0.2121605    0.1883664  63.71 0.0003689922    1.050    0.048
