#   1 NUMBER                 Running object number                                     
#   2 MAG_AUTO               Kron-like elliptical aperture magnitude                    [mag]
#   3 X_IMAGE                Object position along x                                    [pixel]
#   4 Y_IMAGE                Object position along y                                    [pixel]
#   5 X_WORLD                Barycenter position along world x axis                     [deg]
#   6 Y_WORLD                Barycenter position along world y axis                     [deg]
#   7 A_WORLD                Profile RMS along major axis (world units)                 [deg]
#   8 B_WORLD                Profile RMS along minor axis (world units)                 [deg]
#   9 THETA_WORLD            Position angle (CCW/world-x)                               [deg]
#  10 FWHM_WORLD             FWHM assuming a gaussian core                              [deg]
#  11 ELONGATION             A_IMAGE/B_IMAGE                                           
#  12 ELLIPTICITY            1 - B_IMAGE/A_IMAGE                                       
         1 -13.5100     65.0356     53.2845   6.9969207927e+01   5.9111469654e+01     1.355073    0.7093218 -36.21  0.005843952    1.995    0.499
         2 -15.0149      6.3706     68.8126   9.7777203041e+01   6.1762797271e+01     1.349641    0.6831757 -74.06   0.00543824    1.559    0.358
         3 -13.5748    190.3559     25.5070   2.9448869862e+01   3.3802813748e+01      1.34531    0.9863186 -38.84  0.005986884    1.279    0.218
         4 -13.0510    187.8181     12.2713   2.5465539710e+01   3.5869481202e+01    0.9927567    0.4666746 -18.80   0.00403097    2.171    0.539
         5 -14.0421    166.8392     29.4062   3.3937767892e+01   3.9562420117e+01     1.163832    0.9507828  73.69  0.005216473    1.270    0.212
         6 -13.3893      3.1106     10.2056   8.3094444000e+01   7.5124509699e+01     0.822814    0.4711668 -56.18  0.004931735    1.421    0.296
         7 -12.9457      8.0568      2.6367   7.5483316971e+01   7.6196767856e+01    0.5973802    0.4345952  52.29  0.002431994    2.280    0.561
         8 -15.7972     13.0568     21.0863   8.1671212281e+01   7.2181154442e+01     2.020252    0.9854186 -40.55  0.009368996    1.738    0.425
         9 -14.0262     25.3412     13.9101   7.0864806392e+01   7.2394239610e+01     0.652456    0.4297242  25.92  0.003163499    1.742    0.426
        10 -11.6735    232.3895      2.1645   1.8867460651e+01   2.5701596072e+01    0.4076795    0.2655782  53.36  0.002110065    1.766    0.434
        11 -14.5175    217.0772     13.2610   2.3046023104e+01   2.8314459996e+01     1.418296     1.095352 -40.11  0.007878294    1.159    0.137
        12 -13.2733     55.3717     27.3344   6.2826829605e+01   6.5792079374e+01    0.6406887    0.4525674  38.94  0.003523228    1.582    0.368
        13 -12.0276     63.5854     25.2513   5.8355156928e+01   6.4754957955e+01    0.6079121    0.3759479 -19.71  0.002912302    1.778    0.437
        14 -13.0248    223.9456     20.7439   2.4584120602e+01   2.5878297880e+01    0.4647716    0.4007073 -40.12  0.002000778    1.032    0.031
        15 -15.0940     99.0732     11.7084   3.9809546157e+01   5.9151501487e+01     1.701091     0.944513  62.49  0.006876826    1.906    0.475
        16 -12.3787     69.9313     16.1220   5.1099143927e+01   6.4983944064e+01    0.4133763    0.3437563 -62.91   0.00222843    1.622    0.383
        17 -11.7248     59.0621     16.0745   5.5324190073e+01   6.7039179150e+01    0.3500683    0.3128385  29.32  0.002172329    1.216    0.178
        18 -11.5784     46.8051     13.2662   5.9153065567e+01   6.9554386548e+01    0.2746576    0.2576249  -0.19  0.001357388    1.195    0.163
        19 -13.7466     41.7543      4.4644   5.6148497256e+01   7.1688107748e+01    0.7103751    0.5438517  -5.10  0.003505894    1.199    0.166
        20 -11.8648    152.9057      8.8853   2.8447036993e+01   4.5533902151e+01    0.3328642    0.2472981  39.72  0.001626422    1.397    0.284
        21 -12.7813     85.6578     14.1682   4.4791341669e+01   6.1947448575e+01    0.5964103    0.3585776 -32.25  0.002337859    1.591    0.372
        22 -12.2285    225.4897      3.7749   1.9751299405e+01   2.7183632353e+01    0.4106632    0.2754172  46.78  0.001722695    1.756    0.430
        23 -14.1219    147.6741     29.5445   3.7166760096e+01   4.4643944737e+01     1.329732    0.8923213  65.18  0.004770092    1.527    0.345
        24 -10.9715    145.0113      8.1498   2.9282385545e+01   4.7724480778e+01     0.209391    0.2037559  67.82 0.0003602083    1.022    0.021
        25 -10.5650    133.2920      8.6062   3.1305414475e+01   5.0803762504e+01    0.2026491    0.1267938  55.25 0.0004094106    1.520    0.342
        26 -10.7659     59.4474      7.8423   5.0374856859e+01   6.8142167002e+01    0.2637103    0.1537946  32.39  0.001252529    1.834    0.455
        27 -11.9056    120.0001      3.7595   3.1505255774e+01   5.4727224896e+01    0.4049528    0.2622984  81.54  0.001891252    1.765    0.433
        28 -11.1418    117.2157      1.5931   3.1020754669e+01   5.5632935680e+01    0.3243711    0.2102193  67.70  0.001326602    1.541    0.351
        29 -11.4038     81.3031      1.6059   3.9234649496e+01   6.4333255959e+01    0.5471846    0.1213711  55.04  0.001811633    3.655    0.726
        30 -11.5798     61.2387      1.6441   4.5846233465e+01   6.8561691090e+01    0.3939046    0.1690695  57.11  0.001539631    2.708    0.631
        31 -10.6965    182.5018      1.4782   2.2464393817e+01   3.8263959800e+01    0.2837439    0.1361211  75.85 0.0008393222    2.074    0.518
        32 -11.0142    169.6717      1.8418   2.3855078300e+01   4.1649686019e+01     0.434814    0.1437207  63.79  0.001565089    2.665    0.625
        33 -11.2667     80.0744    193.0187   9.3207874087e+01   2.5936724851e+01    0.3269572    0.1103464  47.42  0.001476599    2.477    0.596
        34 -12.2279    109.8750    249.4712   9.2943793089e+01   1.2919719249e+01    0.2503946    0.1499994  54.85  0.001767134    1.422    0.297
        35 -11.5858     52.2214    250.3942   1.0251064193e+02   1.9815932695e+01     0.182673   0.08320805  61.84  0.001040144    1.826    0.452
        36 -12.4406      2.9990    249.2350   1.1019097935e+02   2.4945193935e+01    0.3530942    0.1914841  63.52  0.002452038    1.230    0.187
        37 -13.4571      9.5143    245.7612   1.0909804929e+02   2.4876841843e+01    0.6212902    0.2526517  57.87   0.00352086    1.631    0.387
        38 -12.8607     98.7630    187.1734   8.8712975489e+01   2.4370594812e+01    0.3665074    0.2945278   5.57  0.002237836    1.869    0.465
        39 -12.4646    155.9883    184.9308   7.6815296586e+01   1.5547748163e+01     0.348804    0.2170131 -36.52  0.001908107    1.893    0.472
        40 -12.0458    109.2747    183.8173   8.6100685367e+01   2.3395716930e+01    0.2578419    0.1649115  32.76  0.001426378    1.636    0.389
        41 -11.1636    122.2537    181.4854   8.3078835479e+01   2.1760090077e+01    0.4384068    0.2400977  84.89  0.001387684    6.091    0.836
        42 -11.9023     48.8586    182.3046   9.8677459484e+01   3.1941692368e+01    0.2772269    0.1921356 -65.89  0.001818419    1.558    0.358
        43 -12.9921    198.0074    181.1070   6.8326917578e+01   8.9310017416e+00    0.3823304    0.3127332  54.73  0.001968822    1.517    0.341
        44 -12.2025     90.2900    181.8405   8.9847150252e+01   2.6617279165e+01    0.2005894     0.144696  80.90  0.001211951    1.436    0.304
        45 -13.3221    124.0669    166.7356   8.0438658244e+01   2.4180140640e+01    0.5630528    0.3585972 -75.54  0.002752934    2.195    0.544
        46 -11.8834     25.3080    159.3157   1.0200669656e+02   3.9214346225e+01    0.2754641    0.1910421   0.60  0.001603206    2.626    0.619
        47 -12.1039    239.4437    159.5224   5.7261050532e+01   4.7122890784e+00    0.3460602    0.1023065  42.00  0.001379263    3.209    0.688
        48 -11.9819    111.4264    156.2972   8.1540395582e+01   2.8366983363e+01    0.4570802    0.2512025 -79.91  0.001784485    3.273    0.694
        49 -12.1598     85.4854    153.5397   8.7175956541e+01   3.3076414253e+01    0.4815253    0.3236017 -36.58   0.00245671    2.146    0.534
        50 -11.6000     74.0935    145.1958   8.8730322990e+01   3.6556014358e+01    0.5653663    0.3046406  83.94  0.002395707    2.698    0.629
        51 -12.3902     76.9630    156.8547   8.9664995000e+01   3.3607670104e+01    0.5134618    0.3039423  34.35  0.001849692    1.812    0.448
        52 -13.5623     73.3043    153.7892   9.0124853533e+01   3.4781012463e+01    0.7264614    0.4795969  33.65  0.003259217    1.666    0.400
        53 -12.8854    208.6241    154.5303   6.1337362797e+01   1.0766643160e+01    0.6666539    0.3894122  35.35  0.003406812    1.637    0.389
        54 -11.0926    102.4560    161.4806   8.4412120265e+01   2.8788621132e+01    0.2786743    0.1198877  40.35  0.001213747    2.178    0.541
        55 -11.6937     54.9153    156.5469   9.4850574626e+01   3.6582767054e+01    0.3325265    0.2200617   6.99  0.001663414    2.857    0.650
        56 -11.7082    103.3148    149.9457   8.2367538542e+01   3.1029779428e+01    0.3508516    0.2639134 -26.24   0.00183263    1.916    0.478
        57 -11.8601     12.3397    148.7282   1.0425947110e+02   4.2675670630e+01    0.2513354    0.1272081 -87.78 0.0009112538    1.638    0.390
        58 -12.5883     60.6870    147.3870   9.2360953792e+01   3.7876232068e+01     0.386475    0.3337137  14.54  0.002300766    1.577    0.366
        59 -11.4457     38.1210    145.8750   9.7778613577e+01   4.0863933295e+01    0.1952664    0.1410463  73.28 0.0005938892    1.199    0.166
        60 -11.3212      8.4981    144.2124   1.0487372606e+02   4.3979331071e+01    0.3322398    0.2090852 -19.97  0.001819265    3.133    0.681
        61 -12.5229     45.0284    134.9448   9.4789942319e+01   4.2592239604e+01    0.4364084    0.2782759 -67.78  0.002481445    1.414    0.293
        62 -12.6254    246.9820    134.0013   5.0748841428e+01   6.5888746269e+00    0.4343573    0.3638326 -23.33  0.002770816    1.202    0.168
        63 -14.0731    234.9358    129.1537   5.1479814335e+01   9.4006002269e+00    0.9053466    0.5641713 -30.90  0.004800843    1.482    0.325
        64 -13.0284    136.0279    132.4506   7.1275627604e+01   2.8713495295e+01    0.5513805    0.2552177  44.47  0.002233325    2.113    0.527
        65 -12.6414    110.8061    132.2056   7.7277010401e+01   3.3517537240e+01    0.5927714    0.3563494  26.29  0.002562128    2.294    0.564
        66 -10.0276     64.3037    132.6557   8.9378613435e+01   4.0744309196e+01    0.1408483   0.09096397  74.53 0.0007040388    1.686    0.407
        67 -12.8838    223.1272    127.8770   5.3054840528e+01   1.1821521068e+01    0.4759083    0.3575982 -61.89  0.002458799    2.039    0.510
        68 -14.4139    106.7346    121.6379   7.6100772376e+01   3.6556929587e+01     1.526307      1.06091  36.44  0.007550391    1.552    0.356
        69 -12.5145    136.0826    103.1750   6.4182869045e+01   3.4652359950e+01    0.6623188    0.3433819  51.35  0.001525328    2.029    0.507
        70 -13.2974    123.2782    102.0462   6.7077231249e+01   3.7597801095e+01     1.169172    0.3817973  45.91  0.003780841    3.144    0.682
        71 -13.6641     82.8785    113.9964   8.0930239572e+01   4.2366453319e+01     1.119732    0.9791891  21.77  0.006378759    1.390    0.280
        72 -13.5452     94.9514    110.5680   7.6799357368e+01   4.1141300030e+01    0.9296081    0.8063385 -89.72  0.003720357    1.176    0.149
        73 -14.5312    106.2625    105.6921   7.2523343777e+01   4.0182971622e+01       1.2762     1.085178 -27.67  0.005898952    1.347    0.258
        74 -10.0502     58.6950    125.2929   8.9761380159e+01   4.3192176238e+01    0.1360342   0.09100793  72.67 0.0004131714    1.577    0.366
        75 -12.3533    182.0285    121.4335   5.8853331445e+01   2.1241453337e+01    0.4580778    0.3230002  70.53  0.002111634    1.999    0.500
        76 -11.9645      4.4444    119.7894   1.0416250576e+02   4.9796887849e+01    0.4574465    0.1929495  22.47   0.00204545    2.954    0.661
        77 -11.9325     42.3907     90.7640   8.8670616359e+01   5.3423592839e+01    0.3041241    0.2150639 -67.84 0.0005555027    1.201    0.167
        78 -11.6183     34.7937     86.5500   9.0447954677e+01   5.5242559001e+01    0.3754782    0.3354271 -12.77  0.001494752    1.417    0.294
        79 -14.6245     16.2318    108.6509   9.9741738725e+01   5.1546011144e+01     1.825362    0.9003328 -86.84  0.009289664    1.816    0.449
        80 -13.2980      2.4345     97.2521   1.0276634432e+02   5.5205598479e+01     0.730725     0.301333 -83.01  0.002921176    1.993    0.498
        81 -12.3526     36.6821     93.1000   9.1024618433e+01   5.3463688731e+01    0.4429273    0.3139967  12.51  0.001562142    1.931    0.482
        82 -14.3659     22.7775     95.0861   9.5950963895e+01   5.4272669767e+01     1.051935    0.8364599  47.60  0.005282235    1.402    0.287
        83 -12.4825    121.1577    112.1005   7.0186666798e+01   3.5887365230e+01    0.4453036    0.3236571  82.59  0.001281126    1.885    0.470
        84 -11.2298     44.5473    112.2528   9.1769472314e+01   4.7993397180e+01    0.4531245    0.2095512 -37.09  0.001641443    4.157    0.759
        85 -12.2247     62.5409    109.5927   8.5949782176e+01   4.6404628377e+01    0.6107581    0.4209876  84.55    0.0031407    1.619    0.382
        86 -11.2039    222.7941    109.3894   4.8708600651e+01   1.4530250724e+01    0.1974324    0.1230378  38.46 0.0009530762    1.689    0.408
        87 -11.8559    169.9644    107.3815   5.7723331683e+01   2.6344134537e+01    0.4053702    0.2327347 -56.52  0.001579869    2.394    0.582
        88 -11.5442     42.0696    107.2493   9.1720237313e+01   4.9470488323e+01    0.2493973    0.1607413  26.41  0.001102878    1.905    0.475
        89 -13.0311     29.5678     89.4016   9.2768954635e+01   5.5052538823e+01    0.9262202    0.4304748  68.76  0.003601295    3.474    0.712
        90 -12.2755     60.9492     98.2267   8.4149622186e+01   4.9340212648e+01    0.5067066    0.3244715  75.58  0.002382095    2.029    0.507
        91 -12.3267     49.4834     93.7979   8.6920244734e+01   5.1872232613e+01    0.4369441     0.351751 -78.42  0.002566177    1.125    0.111
        92 -10.7452     48.3470    101.3111   8.8744109264e+01   5.0191769027e+01    0.2567183    0.1758137 -23.35  0.001278949    2.227    0.551
        93 -11.8658     46.0007     98.9949   8.9060939762e+01   5.1024370348e+01    0.3892807    0.2797549 -88.35  0.001737542    1.373    0.271
        94 -11.7458     52.4231     97.9124   8.6796569469e+01   5.0520485592e+01    0.3558379    0.2693608 -15.13  0.001481049    1.916    0.478
        95 -11.5742    249.5049     99.5105   4.2453429610e+01   1.0543720729e+01    0.2556935   0.09658913 -36.86  0.001038912    2.353    0.575
        96 -12.2203    163.3603     98.1742   5.6620222574e+01   2.9514146130e+01    0.3699884    0.3373188 -72.32 0.0007253161    1.230    0.187
        97 -13.0380    136.3646     95.3009   6.1947545054e+01   3.6184824927e+01    0.5509341    0.4126018  54.78  0.002406109    1.405    0.288
        98 -12.5186     28.1438    122.0977   9.7828721413e+01   4.7337366484e+01     0.374968    0.2498499 -71.18  0.002240306    1.285    0.222
        99 -11.1668    126.5501    124.7525   7.1817725695e+01   3.2146807844e+01    0.2669367    0.1758641  33.92  0.001109072    1.686    0.407
       100 -13.0823    188.4335     84.2406   4.7798158157e+01   2.6031496117e+01    0.8212662    0.3713723  40.30  0.002507402    2.643    0.622
       101 -12.5371    242.7695     84.0267   3.9518289718e+01   1.3902834332e+01    0.4614642    0.2685458  59.63  0.002258775    2.030    0.507
       102 -12.9316    237.9110     80.5908   3.9269388649e+01   1.5368497654e+01    0.4052685    0.3334888  79.82  0.002162855    1.548    0.354
       103 -12.2278     42.0937     77.2796   8.5871748240e+01   5.6709365344e+01     1.542335    0.4785266 -71.11  0.004111907    5.745    0.826
       104 -12.0252     47.5144     81.9856   8.5022372770e+01   5.4954711801e+01    0.4151505    0.3295155 -64.17  0.002421897    1.078    0.072
       105 -12.6846     28.4774    245.8390   1.0611555036e+02   2.3023980066e+01    0.3742058    0.2030583  58.38  0.002877027    1.271    0.213
       106 -12.6067     79.2543     60.6785   6.7489443230e+01   5.5128924148e+01    0.5751616    0.4414939 -48.38   0.00266346    1.198    0.165
       107 -13.1513     82.0633     54.6405   6.4316293651e+01   5.5870813609e+01    0.7294418    0.5759313  23.78   0.00328787    1.463    0.317
       108 -13.5692     54.1794     68.4642   7.9082104844e+01   5.7312608451e+01     1.326141    0.7739635  36.10  0.006505295    1.951    0.487
       109 -13.0503     54.5197     82.2283   8.2627693136e+01   5.4024434811e+01    0.5683606     0.386443 -60.97  0.001927635    1.281    0.219
       110 -14.0590     61.2919     75.7541   7.8565379076e+01   5.4632167111e+01      0.71845    0.4872388 -41.07  0.001243118    1.487    0.327
       111 -13.0733     71.0435     75.3447   7.5059788614e+01   5.3261409649e+01     0.579518    0.4227684 -17.27   0.00199012    1.890    0.471
       112 -12.4088     77.1626     73.3181   7.2376077422e+01   5.2723083964e+01    0.5771331    0.3371106 -34.46  0.001696483    1.997    0.499
       113 -13.7798    164.5268     71.8513   4.8600946195e+01   3.3898197773e+01     1.302373      1.03893  64.49  0.006348193    1.362    0.266
       114 -13.6135    160.9993     80.9145   5.2117447071e+01   3.3189930958e+01      1.40369    0.7276345  25.29  0.004173414    4.087    0.755
       115 -14.1484    169.4034     76.9136   4.9198492862e+01   3.1840564436e+01     1.661556    0.5112262  55.12  0.004665406    3.337    0.700
       116 -10.4528     98.4879     84.4497   6.8996070297e+01   4.6386123578e+01    0.1487962    0.1401237 -52.69 7.201036e-05    1.012    0.011
       117 -13.5481    213.7641     78.8076   4.2146967476e+01   2.0935894847e+01    0.9910008    0.6854143  85.25  0.004578948    2.070    0.517
       118 -12.7901    218.6308     74.6212   4.0296214417e+01   2.0420070403e+01    0.4124295    0.3217881  86.67  0.001929019    1.640    0.390
       119 -12.5928    135.6159     79.8229   5.7523947986e+01   3.9418122189e+01    0.7033199    0.3886705  52.37  0.002377704    1.895    0.472
       120 -12.1694    113.6885     80.4668   6.3431400464e+01   4.4166141593e+01    0.3778445    0.3566856  -9.64 0.0005201782    1.127    0.113
       121 -13.7297    171.1871    242.6945   8.2026573589e+01   5.3486593080e+00    0.7420821    0.4203968  33.56  0.004930617    1.379    0.275
       122 -13.6081    198.8419     70.2393   4.2014383467e+01   2.5705537608e+01     1.019387    0.5865703  38.53  0.003334706    2.031    0.508
       123 -11.9797    199.8383     62.0155   3.9450309001e+01   2.6661688398e+01    0.4079702    0.2946922 -40.10  0.001365161    1.307    0.235
       124 -12.5270    134.8745     66.0777   5.3218411802e+01   4.2183276203e+01     0.594511    0.4681875  37.09  0.001755242    1.362    0.266
       125 -10.9920    100.0247     65.6901   6.2533236961e+01   5.0082953590e+01    0.2092945    0.1980279  39.77 0.0007027633    1.127    0.113
       126 -12.0003     31.4819     63.3164   8.6547606856e+01   6.1141241474e+01    0.6236317    0.2951698 -72.09  0.002745764    2.211    0.548
       127 -11.9761     24.8079     59.5017   8.8348504030e+01   6.2653836601e+01     0.453057      0.27564 -62.03  0.001517251    1.323    0.244
       128 -13.3530    177.9321     57.7435   4.1643002502e+01   3.2774819243e+01    0.9066585    0.5977479 -39.55  0.002658225    1.447    0.309
       129 -11.2667     38.8035     60.1877   8.2706123372e+01   6.1113835460e+01    0.2899362    0.1999314  62.45  0.001525466    1.924    0.480
       130 -14.4989    119.9582     54.6776   5.2908816361e+01   4.7791937777e+01     1.084857    0.6516395  40.92   0.00420616    1.815    0.449
       131 -13.8122    100.9994     49.7614   5.6334092038e+01   5.2979717735e+01    0.8575041    0.7666149 -83.66  0.002987313    1.330    0.248
       132 -11.3270     17.6715     55.8342   9.0511423940e+01   6.4093739971e+01    0.3445314    0.1644723 -60.31  0.001743376    1.604    0.376
       133 -11.9528    247.8749     54.2481   3.1320360370e+01   1.6593637445e+01    0.5376606    0.2423285 -41.12  0.002377447    1.959    0.490
       134 -11.9995    249.0248     48.9882   2.9852076061e+01   1.6975575841e+01    0.3792193    0.2633058 -24.80  0.001670139    1.254    0.203
       135 -11.3110    231.6949     55.8819   3.3512350079e+01   1.9949827052e+01    0.2607712    0.2164928  84.26   0.00113369    1.408    0.290
       136 -13.2675     87.1413     65.2923   6.6449786140e+01   5.2702405877e+01    0.9411354    0.6354182  -0.60  0.003870549    2.563    0.610
       137 -11.6190     36.6512     53.3604   8.1563386957e+01   6.2920433569e+01    0.4528221    0.2522671 -24.63  0.002007088    2.663    0.625
       138 -11.9978    135.5771     50.3020   4.7461392132e+01   4.4744828142e+01    0.6229041    0.3242148  36.79  0.001889254    2.414    0.586
       139 -11.5264     26.9861     75.2630   9.1037572050e+01   5.8705857217e+01    0.4874808    0.2539565  88.39  0.002134594    2.567    0.610
       140 -10.6910     23.2403     50.3188   8.6584653959e+01   6.4927161762e+01    0.1861287    0.1409272 -31.24 0.0006908139    1.400    0.286
       141 -12.9904    157.5251     44.2693   4.0755935335e+01   4.0042879819e+01    0.9898204    0.4928666  41.41  0.003696069    2.328    0.570
       142 -12.7918      3.8502     43.6718   9.3974060092e+01   6.7809830246e+01    0.4637556    0.3652869 -38.97  0.003007141    1.288    0.224
       143 -12.2486     11.7595     43.6835   9.0127900452e+01   6.7330390927e+01    0.4359138    0.2672323 -24.03   0.00179649    1.958    0.489
       144 -14.2734    213.8322     41.2409   3.1478140086e+01   2.5991271407e+01     2.265653    0.8331431  74.53   0.00754623    3.689    0.729
       145 -11.5048     60.7216    245.9957   1.0088139887e+02   1.9504180608e+01    0.1826381     0.124041  16.12  0.001190259    2.720    0.632
       146 -13.4037     98.6987    238.5376   9.3921247903e+01   1.5913132135e+01    0.7717937    0.2780461  40.94  0.004179619    2.077    0.519
       147 -13.8447     92.4913    230.4952   9.4328940812e+01   1.7928674582e+01    0.5189179    0.4213338  42.57  0.004036035    1.216    0.178
       148 -13.0992    138.7314     21.7230   3.5740064892e+01   4.7966481402e+01     1.016539    0.3532773  63.45  0.002132575    2.797    0.643
       149 -12.2468    109.5714     42.0931   5.0780248400e+01   5.2393808700e+01    0.5078855    0.2521175  55.06  0.001319467    2.142    0.533
       150 -12.9767    132.1939     32.9337   4.1536320481e+01   4.8232983983e+01     0.603133    0.4604597  42.92  0.001579515    1.335    0.251
       151 -13.7237    122.0020     36.9211   4.5461344552e+01   5.0226571939e+01    0.9940841    0.5779705  35.66  0.002971747    2.010    0.502
       152 -12.7244    113.6476     38.0646   4.8025666482e+01   5.2083605107e+01    0.4887384    0.4081178  79.70  0.002048591    1.430    0.301
       153 -11.2847    134.6615     39.6384   4.3638885515e+01   4.6639215699e+01    0.4784585    0.2389462  66.38  0.001795586    2.341    0.573
       154 -12.4224     75.7171     37.2531   5.9419176354e+01   6.0420554733e+01    0.4105688    0.2653095  42.18   0.00106277    1.674    0.403
       155 -11.9297     70.7507     36.5735   6.0954832259e+01   6.1466071931e+01    0.2980521     0.288544 -62.10  0.001230142    1.205    0.170
       156 -12.9478    242.6065     35.3644   2.6907378577e+01   1.9952495244e+01    0.6467568    0.5030219  41.66  0.002567674    1.514    0.340
       157 -11.2988     35.0139     34.7830   7.5650587984e+01   6.7173571214e+01    0.3233895    0.1872221 -42.10  0.001188457    1.469    0.319
       158 -12.7442     45.8404     33.6141   7.0032910849e+01   6.6032939863e+01    0.5500863    0.4823426  19.85  0.003444487    1.279    0.218
       159 -12.0521    147.7042    238.9047   8.5527157261e+01   9.1238869608e+00    0.1661669    0.1398159 -57.54  0.001081991    1.595    0.373
       160 -12.4382     24.7975    217.2147   1.0551413868e+02   2.8046624289e+01    0.5356773    0.1777799  53.50  0.003035146    2.157    0.536
       161 -12.1205     14.1172    222.4285   1.0758352748e+02   2.8195545676e+01    0.3285442    0.1834515  80.20  0.001735282    1.473    0.321
       162 -13.7754     25.9364    226.8589   1.0574757046e+02   2.6300028524e+01    0.6379548    0.3310769 -57.89  0.004127406    2.789    0.641
       163 -13.3958     20.2255    224.0521   1.0660430791e+02   2.7335080882e+01    0.4444595    0.3643095  80.49  0.002423062    1.301    0.231
       164 -13.2068    216.9589     28.6223   2.7480516763e+01   2.6713325983e+01    0.7061149    0.4277309 -66.99  0.003250153    1.915    0.478
       165 -12.1699    238.0104    229.8206   6.9673780356e+01  -2.5787654241e+00    0.1538147    0.1156443  49.38  0.001096479    2.020    0.505
       166 -13.7328     64.7345    223.5435   9.8749405781e+01   2.2548255233e+01    0.7443845     0.482738  54.22  0.005346559    1.161    0.139
       167 -13.7889     64.0092    214.4708   9.8221106768e+01   2.4163625907e+01    0.5210561    0.2726512  62.00  0.003185509    1.700    0.412
       168 -12.2417    120.6653     26.2752   4.1327147768e+01   5.2065148390e+01     0.531367    0.3945832  52.88  0.001954716    1.346    0.257
       169 -11.0992    122.5202     22.4919   3.9292193433e+01   5.2081056839e+01    0.2973151    0.2578196 -74.17   0.00156388    1.326    0.246
       170 -10.4192     98.8351     27.3792   4.7391757392e+01   5.7175752966e+01    0.2080714    0.1281276  42.62 0.0009403045    1.669    0.401
       171 -11.4337     36.0793     23.2534   6.9899031278e+01   6.9348484380e+01    0.3389054    0.2198108 -36.12  0.001896307    1.314    0.239
       172 -10.9555     30.7643     25.5592   7.3766027566e+01   6.9544420253e+01    0.2850357    0.1577647  18.64  0.001425744    2.346    0.574
       173 -11.5330     51.7505     20.6276   6.0984175695e+01   6.7551126411e+01    0.4858863    0.2618738  24.01  0.002156635    2.554    0.608
       174 -11.5238     46.9691     20.6107   6.3176021893e+01   6.8304349552e+01    0.3669163    0.2514099  17.47   0.00175878    1.711    0.416
       175 -12.1764     94.4111    218.3237   9.2895168532e+01   1.9587614547e+01    0.2105321    0.1544666  44.99   0.00118338    1.150    0.130
       176 -11.4401    156.7575    214.2495   8.0950622631e+01   1.1056822323e+01    0.1628457   0.09219265 -31.91 0.0008977142    2.442    0.591
       177 -11.8755      3.9778    212.3959   1.0897841853e+02   3.0847708746e+01     0.322784    0.1288485 -88.27   0.00199093    2.202    0.546
       178 -10.8845    136.5239    211.0369   8.4244762048e+01   1.4628710328e+01    0.1516719    0.1178706 -54.94  0.001025995    1.574    0.365
       179 -13.2956     91.5764     58.0967   6.2450620480e+01   5.3334426467e+01      0.58481    0.5055519 -47.13  0.002079146    1.107    0.097
       180 -12.7075     59.3981    212.8102   9.8957597180e+01   2.5008448158e+01     0.292456    0.1800706 -59.80  0.001077078    1.996    0.499
       181 -10.8889    150.0082    207.4696   8.1274129487e+01   1.3073236278e+01    0.1924957   0.09805762  41.28   0.00103871    1.615    0.381
       182 -11.9914     41.1069    206.6492   1.0197063180e+02   2.8202174977e+01    0.1928723    0.1198466  76.51  0.001320428    1.381    0.276
       183 -12.3739     57.6349    203.6285   9.8607833852e+01   2.6850708395e+01    0.4398051    0.2119589  85.64  0.002358521    2.428    0.588
       184 -13.3648     15.4435    197.5226   1.0631624510e+02   3.2492433414e+01    0.6262628    0.3067673 -71.89  0.003990365    2.019    0.505
       185 -12.7012     22.3961    166.6762   1.0318096877e+02   3.7935652740e+01    0.3044738    0.2154751  39.28  0.000476124    1.496    0.331
       186 -13.6888     29.9868    169.3254   1.0170565826e+02   3.6638253459e+01    0.7667984    0.7401317 -26.03  0.005903109    1.537    0.349
       187 -13.5951     22.2739    181.2130   1.0412170330e+02   3.4983774928e+01    0.8102886    0.3256928 -64.58   0.00436959    2.524    0.604
       188 -15.1989      8.2977    183.4401   1.0705480913e+02   3.5828610147e+01     1.265427    0.8268483  85.93   0.00916952    1.233    0.189
       189 -12.7137    164.3787    196.0046   7.6947225082e+01   1.2452818278e+01    0.2874195    0.2145572 -82.45   0.00162864    2.288    0.563
       190 -13.0475     40.5068    195.4993   1.0136441957e+02   3.0326281584e+01    0.3828771    0.1666274  83.85  0.001971436    2.528    0.604
       191 -10.3131    123.4569     11.4896   3.4310033705e+01   5.3091775303e+01    0.1451004    0.1377826  21.61 0.0003673397    1.013    0.013
       192 -12.9262     36.8763    195.5344   1.0208005078e+02   3.0713669981e+01    0.3124792    0.2081152  89.42  0.002180519    1.338    0.252
       193 -15.0445     15.8509    175.1838   1.0510243986e+02   3.6796128046e+01     2.141022    0.7890004  68.79   0.01046783    2.611    0.617
       194 -12.3885    200.9619    191.6869   6.9648100265e+01   7.0401574203e+00    0.3395004    0.2461324  10.91  0.001326556    1.352    0.261
