#   1 NUMBER                 Running object number                                     
#   2 MAG_AUTO               Kron-like elliptical aperture magnitude                    [mag]
#   3 X_IMAGE                Object position along x                                    [pixel]
#   4 Y_IMAGE                Object position along y                                    [pixel]
#   5 X_WORLD                Barycenter position along world x axis                     [deg]
#   6 Y_WORLD                Barycenter position along world y axis                     [deg]
#   7 A_WORLD                Profile RMS along major axis (world units)                 [deg]
#   8 B_WORLD                Profile RMS along minor axis (world units)                 [deg]
#   9 THETA_WORLD            Position angle (CCW/world-x)                               [deg]
#  10 FWHM_WORLD             FWHM assuming a gaussian core                              [deg]
#  11 ELONGATION             A_IMAGE/B_IMAGE                                           
#  12 ELLIPTICITY            1 - B_IMAGE/A_IMAGE                                       
         1 -12.3781    241.1625     18.4911   6.6428684131e+01   2.3515652560e+01    0.5206842    0.3401823 -35.74  0.001822856    1.310    0.236
         2 -11.7299    245.2961     11.7168   6.4422309502e+01   2.3262533970e+01    0.4884003    0.2899233  64.82   0.00272849    1.864    0.464
         3 -10.5523    141.8434     20.2218   7.8726301126e+01   4.7454692131e+01     0.548506    0.2804763  14.33  0.001660501    3.093    0.677
         4  -9.8291    131.2542     13.5450   7.8010553246e+01   5.0889198076e+01    0.2629409    0.1997721 -15.70 0.0007889611    1.318    0.241
         5 -10.0901    201.6022     11.7946   6.7920290682e+01   3.3124777405e+01    0.3398273    0.1858191  52.07  0.001189713    1.900    0.474
         6 -10.5663    229.2587      9.2408   6.4904919225e+01   2.6931998807e+01    0.2294106    0.1922025 -30.61 0.0004952469    1.072    0.068
         7 -10.4580    211.5054      8.3358   6.6035298725e+01   3.1069602779e+01    0.2607252    0.2056163 -17.65 0.0006373117    1.235    0.190
         8 -10.9855    248.9224      5.0429   6.2542244586e+01   2.3089072334e+01    0.4412754    0.2560899 -21.52  0.002466579    1.539    0.350
         9 -11.4230    243.3163      5.3286   6.2951917531e+01   2.4231192120e+01    0.3625222    0.1744207 -64.69   0.00171917    2.421    0.587
        10  -9.2335    139.3127      5.9474   7.3505429989e+01   4.9534678765e+01    0.2026561    0.1768038   4.24 0.0004897863    1.154    0.134
        11  -9.4236    134.1439      3.9070   7.3504222468e+01   5.1056118915e+01    0.2122398    0.1902206 -50.20 0.0004883671    1.206    0.171
        12  -9.0151    180.1550      6.3619   6.8365252694e+01   3.8925128965e+01     0.186541    0.1277622 -89.12 0.0003960439    1.597    0.374
        13 -10.5702    215.5867    233.2131   1.1627413452e+02   2.7123413615e+00    0.3100127     0.267314 -68.22  0.002195285    2.865    0.651
        14 -10.7450    239.7119    221.6346   1.1078479684e+02   7.9015168788e-01    0.3418298    0.3331971  51.12  0.002751471    2.209    0.547
        15 -11.0276    233.5133    246.2699   1.1524177345e+02  -6.6650738419e-01    0.3439945    0.2203643  -7.30  0.001572926    1.451    0.311
        16 -11.0753    231.9864    237.8743   1.1433156954e+02   2.5076709303e-01    0.3652093    0.3191258 -44.95  0.002884708    2.393    0.582
        17 -10.4103    236.6358    230.0152   1.1249880915e+02   3.9692219824e-01    0.2531392    0.2415291  14.27  0.001815464    1.958    0.489
        18 -11.6289    243.0041    246.8017   1.1388303067e+02  -1.8089365965e+00    0.4020097    0.3174788  -3.31  0.003519002    1.446    0.309
        19 -11.6761    241.3443    238.3618   1.1296904257e+02  -9.0687282298e-01     0.515085    0.2696129 -13.18  0.002615151    1.900    0.474
        20 -11.9639    248.9496    241.7467   1.1230480968e+02  -2.0737160386e+00    0.5358678    0.2100842 -28.38  0.003340548    2.733    0.634
        21 -11.8279    247.6212    232.7487   1.1122388602e+02  -1.1639607134e+00    0.6782078    0.2346924 -31.51  0.003816424    3.202    0.688
        22  -9.5953    195.1028    233.0250   1.1961831713e+02   5.3583779230e+00     0.186974    0.1475525 -49.20  0.001380381    2.117    0.528
        23  -9.4570    185.8194    230.0063   1.2079496664e+02   6.9067432695e+00    0.1437658    0.1279476  72.51 0.0009702024    1.989    0.497
        24  -9.3525    222.9716    226.8477   1.1418883556e+02   2.4005104320e+00    0.1761828    0.1316825  -5.45  0.001365486    1.273    0.215
        25  -9.4098    149.5129    226.4892   1.2678107965e+02   1.2181819496e+01     0.160592    0.1098768 -65.23  0.001033492    2.390    0.582
        26  -9.4297    161.8450    225.8470   1.2447248132e+02   1.0608633132e+01    0.1445264    0.1183822  43.85  0.001078373    1.342    0.255
        27  -9.4451    199.9519    224.7738   1.1767955371e+02   5.6115120663e+00     0.177032    0.1408907  -5.47  0.001361467    1.272    0.214
        28  -9.9227    216.7269    223.2810   1.1468147597e+02   3.5609713957e+00    0.2410081    0.1376489 -34.83  0.001575417    2.151    0.535
        29 -10.6674    227.4791    220.6727   1.1256145617e+02   2.4313234754e+00    0.2985617     0.279686  12.09  0.002441128    1.719    0.418
        30 -11.1573    248.4799    215.6887   1.0853023011e+02   2.5144840691e-01    0.4373244    0.2716502 -34.37   0.00297169    2.204    0.546
        31  -9.7903    192.1151    220.6119   1.1843455173e+02   7.1294390952e+00    0.1871654    0.1752907  58.43  0.001335708    1.722    0.419
        32  -9.3773    210.6676    219.7247   1.1516071675e+02   4.7297967833e+00    0.1647512    0.1307225 -50.17  0.001138945    2.300    0.565
        33 -10.0747    233.0070    214.3392   1.1071863292e+02   2.3439665469e+00    0.2828856    0.1946581 -25.11  0.001798314    1.621    0.383
        34  -8.9570    168.6293    215.8489   1.2194550528e+02   1.0947450906e+01    0.1303441    0.1092477 -50.03 0.0009390795    1.669    0.401
        35  -9.8878    241.0201    214.1892   1.0943981199e+02   1.3294404764e+00    0.2525598    0.1455122  10.45  0.001217061    1.490    0.329
        36 -10.1797    236.9668    208.0197   1.0909859736e+02   2.4567132764e+00     0.397547    0.2309311 -34.58  0.002224803    2.145    0.534
        37 -10.1781    246.7936    205.8341   1.0721939864e+02   1.3951228124e+00     0.230388    0.1526537  19.39 0.0009116136    1.161    0.139
        38 -10.0874    243.7772    201.9527   1.0704930594e+02   2.1679180711e+00    0.2408623    0.1832083  13.62 0.0009539173    1.155    0.134
        39 -10.0449    238.0215    200.5108   1.0771135552e+02   3.0774711603e+00    0.2449017    0.1853549  25.64  0.001565196    1.310    0.237
        40 -10.4738    236.8778    196.5730   1.0723587152e+02   3.6400867840e+00    0.3389375    0.1961271  14.21  0.001729271    1.534    0.348
        41 -10.1251    231.7471    194.9029   1.0777574944e+02   4.5230517476e+00    0.2706479    0.2234996 -32.16  0.001384777    1.718    0.418
        42  -9.8427    185.4028    212.7678   1.1849418550e+02   8.9836777263e+00    0.2051719    0.1712373 -26.27  0.001097317    1.434    0.303
        43 -10.6964    215.1935    209.8482   1.1291845170e+02   5.1839305124e+00    0.3816481    0.2611732  -5.93  0.002638544    1.363    0.266
        44 -10.4192    226.9572    206.8418   1.1051053918e+02   3.9084606225e+00    0.3727854    0.1498634 -26.53  0.001972013    2.613    0.617
        45  -9.6184    204.5670    207.1964   1.1430756362e+02   6.9529448311e+00    0.1516733   0.09523317 -12.84  0.000474216    1.671    0.402
        46 -10.5130    124.0215    206.0173   1.2918208880e+02   1.8565058340e+01    0.1653359    0.1354606  36.84            0    1.012    0.012
        47  -9.8889    196.1120    204.6557   1.1538661378e+02   8.4508946585e+00    0.2725851    0.1772507  51.66  0.001586629    2.224    0.550
        48  -9.9654    250.1757    201.9323   1.0606421261e+02   1.3369144273e+00    0.1617661       0.1279   8.36  0.001061753    1.241    0.194
        49  -9.8507    228.9817    200.6955   1.0918792265e+02   4.2835307776e+00    0.2179874    0.1397691  -7.67  0.001286607    1.426    0.299
        50  -9.1382    210.8058    201.2052   1.1229454443e+02   6.7635014026e+00    0.1679509    0.1099064  12.01    0.0010706    1.348    0.258
        51  -8.8553    184.4761    201.4706   1.1698014181e+02   1.0530865192e+01    0.1194816   0.09363508  19.12 0.0001411322    1.013    0.013
        52  -8.9048    203.3225    198.6545   1.1317513583e+02   8.1362901297e+00    0.1019533   0.09240153  54.22 0.0007049959    1.736    0.424
        53  -9.4365    148.5716    197.2877   1.2317453748e+02   1.6402686881e+01    0.2006553    0.1196282 -51.18  0.001144579    2.106    0.525
        54 -11.8095    247.2565    192.7065   1.0495742678e+02   2.6354497907e+00    0.4646839    0.3004947 -13.14  0.003082281    1.344    0.256
        55 -10.6583    246.2449    185.1140   1.0379124684e+02   3.5561066041e+00    0.2506042    0.2338394  64.89   0.00179312    2.160    0.537
        56 -10.8082    241.7216    181.1455   1.0378788953e+02   4.6110380146e+00    0.3702504    0.2997216  -0.05  0.002264029    1.189    0.159
        57 -10.1464    210.0433    195.2606   1.1145575722e+02   7.5668292557e+00    0.2605239    0.1913317 -41.00  0.001173373    1.887    0.470
        58 -10.5848    224.2758    193.0199   1.0867800118e+02   5.7797864501e+00    0.4254194    0.3138946 -42.25  0.002760509    2.060    0.515
        59 -10.5610    238.1145    188.8519   1.0571941381e+02   4.2874424215e+00    0.3638213    0.2152825 -18.17  0.002289584    1.555    0.357
        60 -10.2921    231.2624    186.8369   1.0646752484e+02   5.4744691881e+00    0.3227155    0.2385159 -12.17   0.00222911    1.240    0.194
        61 -10.0424    235.7756    181.8653   1.0485952747e+02   5.3802166019e+00    0.1922985     0.154267 -29.28  0.001327972    1.589    0.371
        62 -10.7609    249.8625    177.8172   1.0192753291e+02   3.8218646058e+00     0.457289    0.1663995 -24.82  0.002214568    2.601    0.616
        63  -9.9669    216.0335    194.6698   1.1033502790e+02   6.7707143932e+00    0.2248325    0.1640105 -41.40  0.001450492    1.963    0.491
        64  -8.8843    243.4484    155.5108   9.8671468157e+01   7.2347120332e+00    0.1237623   0.09603349   0.62 0.0001013952    1.015    0.015
        65  -9.7471    134.3190    152.3108   1.1895223190e+02   2.6175238581e+01    0.1349008    0.1016486  -0.04 0.0003855976    1.644    0.392
        66  -9.1589    118.4648    152.4829   1.2267345628e+02   2.8742835111e+01    0.1306797    0.1223947  33.41 4.071479e-05    1.008    0.008
        67 -10.0655    241.1417    149.3582   9.7792106785e+01   8.3157775499e+00    0.2182641    0.1849085  -9.29  0.000767826    1.211    0.175
        68  -8.9573    214.3533    149.6945   1.0225866455e+02   1.2666935252e+01    0.1134852    0.1063148 -76.07 0.0003328891    1.712    0.416
        69  -9.1451    234.5004    146.4903   9.8246603345e+01   9.7273166049e+00    0.1282163    0.1018403   1.07 -8.325345e-06    1.001    0.001
        70 -10.7566    242.7886    139.0231   9.5400599578e+01   9.2872774859e+00    0.3770968     0.296702  73.91  0.002131516    2.524    0.604
        71 -10.4186    248.8598    142.0228   9.5116301830e+01   7.9601556585e+00    0.4535764    0.2105211  -4.00  0.001822038    3.343    0.701
        72  -8.6830    244.9491    144.7624   9.6268162182e+01   8.2572746773e+00    0.1740973    0.1357936  12.67   0.00113249    1.121    0.108
        73  -8.9922    162.7655    136.9946   1.0955066897e+02   2.3868571011e+01    0.1780159    0.1135418 -37.27 0.0005332661    1.604    0.376
        74  -9.3959     96.5187    135.4522   1.2514836960e+02   3.5643341864e+01    0.1315374    0.1271378  58.68 6.331794e-05    1.004    0.004
        75  -9.2883    121.6447    133.7666   1.1840269285e+02   3.1904196217e+01     0.181334    0.1305883 -58.28  0.000273732    1.545    0.353
        76 -10.2028    235.8493    130.0249   9.4532151903e+01   1.1551455148e+01    0.2049675    0.1708638  20.18 0.0005563361    1.182    0.154
        77  -8.5601    218.6804    127.3003   9.6688237167e+01   1.4937007835e+01     0.120167    0.1056643 -55.57 0.0003640042    1.622    0.384
        78  -9.5136    200.8917    125.5485   9.9394743980e+01   1.8489091848e+01    0.2967533    0.1657452 -34.24  0.001419214    1.736    0.424
        79  -9.1547    117.6573    124.6797   1.1752114015e+02   3.4440602303e+01    0.1450718    0.1098379  -5.68 0.0007049908    1.723    0.419
        80  -8.7200    186.3576    128.3218   1.0277392050e+02   2.0836766095e+01    0.1495577   0.09985255   9.80 0.0007044857    1.766    0.434
        81  -9.3282    212.7673    123.4577   9.6814633766e+01   1.6555609446e+01    0.1882074    0.1160922  31.06 0.0009440103    1.631    0.387
        82  -9.3150    171.5779    122.1787   1.0432994659e+02   2.4708629415e+01    0.2074913    0.1292261 -22.24 0.0009510925    1.765    0.433
        83  -9.5319    232.1606    121.1668   9.3130766724e+01   1.3322658323e+01    0.2020576    0.1526755   0.38 0.0005568454    1.184    0.156
        84 -10.1126    192.3373    118.4739   9.9319623723e+01   2.1209953125e+01     0.252854    0.2391254 -50.35 0.0007843471    1.326    0.246
        85  -9.4219    153.7289    114.6129   1.0639764549e+02   2.9584697897e+01    0.2496911    0.1824464 -59.17  0.001195365    1.781    0.438
        86 -10.1048    110.2801    115.0216   1.1734384102e+02   3.7747782413e+01    0.2733856    0.1822708  52.82  0.001302854    1.667    0.400
        87  -9.2424    209.4734    114.0648   9.5174639893e+01   1.8511512952e+01    0.2044152    0.1239882 -29.25 0.0005232052    1.527    0.345
        88  -9.4722    242.1714    112.9191   8.9758841189e+01   1.2585503269e+01    0.2273888    0.1731128 -80.21  0.001178699    2.641    0.621
        89  -9.9039     25.6952    111.3650   1.4185425000e+02   4.9535858966e+01     0.247537    0.1456605 -41.07  0.001270374    2.023    0.506
        90  -9.9581    237.3794    107.0764   8.9099932874e+01   1.4177691661e+01    0.2499352    0.1621153  26.32  0.001341933    1.619    0.382
        91  -9.1590    197.4608    107.0057   9.5564448688e+01   2.1931946773e+01    0.2131447    0.1298263 -28.98 0.0006104294    1.543    0.352
        92  -8.8577    108.5510    106.5446   1.1583753738e+02   3.9856036267e+01    0.1410088    0.1381022 -25.01 0.0001205297    1.001    0.001
        93 -10.9166    247.0793    102.9606   8.6779191420e+01   1.2932161164e+01    0.3211007    0.2401425 -31.10 0.0009770863    1.288    0.223
        94 -10.1540    228.8606    104.2827   8.9698053977e+01   1.6124016431e+01    0.2166874    0.1991757 -60.47 0.0005615754    1.468    0.319
        95  -9.0676    214.0169    104.9733   9.2203574725e+01   1.8906114824e+01    0.2186929    0.1493771   8.70 0.0004395054    1.611    0.379
        96  -8.7119    205.6816    105.6682   9.3778569979e+01   2.0468012342e+01    0.1480217   0.09986621   9.85 0.0007048022    1.691    0.409
        97  -9.1165    182.1484    104.1798   9.7731057971e+01   2.5530092333e+01    0.1870485    0.1750388 -57.72 0.0009387124    1.303    0.232
        98  -8.7704    195.9859    102.0186   9.4570159226e+01   2.2985388266e+01    0.1720184    0.1540924   0.59 0.0004218149    1.019    0.018
        99  -8.8245    188.6330    100.8338   9.5620385195e+01   2.4700133827e+01    0.1953001    0.1244052 -39.99 0.0003104321    1.604    0.377
       100  -9.5916    205.5627     98.7485   9.2057341054e+01   2.1491953237e+01    0.3259494    0.2065409 -14.75  0.001563399    1.617    0.381
       101 -10.2396    234.1540     95.8585   8.6888497384e+01   1.6202938169e+01    0.4203742    0.1844905 -35.44  0.001863145    2.077    0.519
       102  -9.8716    150.8254     92.6761   1.0130567700e+02   3.4180200887e+01    0.2480166      0.19884 -19.28 0.0005829766    1.262    0.208
       103  -9.4433    101.0220     93.2298   1.1463583781e+02   4.4066219834e+01     0.192542    0.1211201  38.85 0.0007467652    1.642    0.391
       104  -9.6374    250.2061     88.1074   8.2881162687e+01   1.4145239243e+01    0.2060324    0.1536862   2.37 0.0007030358    1.295    0.228
       105 -10.0093    244.9433     87.6160   8.3431866488e+01   1.5180543402e+01    0.2453386    0.1577279 -14.51  0.001207865    1.406    0.289
       106  -9.6454    227.3987     88.2462   8.5975018959e+01   1.8497881264e+01    0.1993635    0.1103238 -34.54 0.0009523437    1.652    0.395
       107  -9.9088    235.9840     86.7081   8.4394098001e+01   1.7002975280e+01    0.1833399    0.1591587  -7.89 0.0004337755    1.037    0.035
       108  -9.8567    218.4777     86.0120   8.6718139868e+01   2.0600170793e+01    0.2054625    0.1121282  -2.23 0.0008101733    2.604    0.616
       109  -9.7168    186.5053     83.2677   9.1282822446e+01   2.7864437619e+01    0.3546236    0.2377165 -21.70  0.001694616    1.456    0.313
       110  -9.6323    172.0672     84.0673   9.4272862955e+01   3.0966371001e+01    0.2326019     0.183073 -66.36 0.0009528312    1.713    0.416
       111  -9.7082    244.7702     80.7355   8.1785290279e+01   1.6039056174e+01    0.2413381    0.1837671 -43.92 0.0007719366    1.431    0.301
       112  -9.0248    167.5065     78.5049   9.3579670304e+01   3.2898003262e+01    0.1501463    0.1399789  -6.28 -0.0001812783    1.005    0.005
       113  -9.1978    250.1578     77.1543   8.0260800841e+01   1.5439560063e+01    0.1831732    0.1346018 -37.35 0.0009637534    1.322    0.244
       114 -11.2028    241.1422     76.3599   8.1160616661e+01   1.7263264034e+01    0.3937593     0.231493  42.13  0.001793578    1.861    0.463
       115  -9.5868    189.8721     76.6102   8.8808018232e+01   2.8103122696e+01    0.3028368    0.1696891 -44.40 0.0009105039    1.936    0.483
       116  -9.2847    158.1184     76.5862   9.4976054927e+01   3.5360446562e+01    0.2624461    0.1785733 -25.18  0.001207111    1.468    0.319
       117  -9.8312    139.9968     75.1890   9.8700647195e+01   3.9716907279e+01      0.37247    0.1924562 -50.63  0.001396184    2.407    0.585
       118  -8.6988    207.5503     74.4750   8.5318520040e+01   2.4474608977e+01    0.1429944    0.1269098  -8.98 7.355462e-06    1.023    0.023
       119 -10.8907    230.4888     71.9301   8.1397194778e+01   1.9935792275e+01    0.2490352    0.1516837 -30.86 0.0005282438    1.437    0.304
       120 -10.0545    188.1514     69.8209   8.7155587403e+01   2.9479826540e+01    0.3232681    0.1945057 -22.98  0.001454132    1.620    0.383
       121 -11.0001    234.2837     68.1319   7.9938496726e+01   1.9621557756e+01     0.395592    0.2053229 -21.92   0.00185801    1.739    0.425
       122  -9.6277    215.4471     70.0620   8.2952603036e+01   2.3341808927e+01    0.2165793    0.1251707 -25.62 0.0008938807    1.559    0.358
       123 -10.2463    239.4443     68.0580   7.9289720023e+01   1.8587335104e+01    0.2782336     0.199187 -24.19 0.0005758005    1.194    0.163
       124  -9.5423    219.7357     68.9982   8.2066887646e+01   2.2555944655e+01    0.1901778    0.1628633 -14.39 0.0003720443    1.041    0.040
       125  -8.7926    156.6511     69.3036   9.3046733604e+01   3.6901825215e+01    0.1520706    0.1196191 -69.95 0.0007040583    1.697    0.411
       126 -10.3498     44.1266     68.1311   1.2775145333e+02   5.8178735501e+01    0.2612091     0.209767 -34.15  0.001230847    1.264    0.209
       127 -10.7514    245.5021     66.0495   7.8078200211e+01   1.7620461255e+01    0.3185316    0.2092525 -43.56 0.0009659842    1.549    0.354
       128  -8.4582    176.5482     67.4724   8.8523904470e+01   3.2518724088e+01    0.1507709    0.1361853   2.17  0.000167061    1.071    0.066
       129  -9.4846    121.9837     66.2115   1.0042037075e+02   4.5352857703e+01    0.2247245    0.1650474 -55.53  0.001040344    1.600    0.375
       130 -10.1306    250.5230     64.9270   7.7240494545e+01   1.6771654828e+01    0.2043054    0.1096111 -23.89 0.0007409758    1.572    0.364
       131  -9.3823    214.3122     62.0231   8.0921829256e+01   2.4616785641e+01    0.2033554    0.1647713 -24.60 0.0005596055    1.111    0.100
       132  -9.1331    205.4872     61.5431   8.2033739880e+01   2.6649725404e+01    0.1421289    0.1293305 -14.43 0.0001411708    1.003    0.003
       133 -10.2604    231.8900     59.0328   7.7874364217e+01   2.1198172316e+01    0.2567458    0.1714912 -19.46  0.001362239    1.348    0.258
       134 -11.1830    224.9308     58.4166   7.8557665692e+01   2.2747405109e+01    0.4059669    0.1967621  31.71  0.001603951    2.934    0.659
       135  -9.2039    174.2283     59.2429   8.6420433467e+01   3.4273576694e+01    0.1988924    0.1712194 -58.25  0.000863501    1.321    0.243
       136  -9.3574    140.0516     54.9573   9.2001335995e+01   4.3149353797e+01    0.2541976    0.1813022  14.81   0.00113908    1.702    0.412
       137  -9.5633    149.2453     52.2450   8.9022863777e+01   4.1356760268e+01    0.2033006    0.1789716 -69.51  0.001047125    1.340    0.254
       138 -10.2336    244.5246     50.5820   7.4304758276e+01   1.9553604856e+01    0.2904403    0.1105655 -25.16  0.001223961    2.218    0.549
       139  -9.4298    194.9333     49.1233   7.9955324607e+01   3.0684460330e+01    0.3807758     0.165148 -35.44   0.00152165    2.094    0.523
       140  -9.6258    220.8492     44.8410   7.5365829220e+01   2.5225703978e+01    0.2130003    0.1797896  12.76 0.0009065114    1.248    0.199
       141  -9.6506    163.8300     43.4171   8.3154995351e+01   3.9017189567e+01    0.2775495    0.2015018 -22.85  0.000608487    1.340    0.254
       142  -9.0160    184.0644     43.2327   7.9760028797e+01   3.4040026563e+01    0.1907462    0.1204871  59.83 0.0008797176    1.642    0.391
       143  -9.0258    132.3208     43.7032   8.9746160964e+01   4.6759477349e+01    0.1499812    0.1180643 -65.86 0.0003198612    1.617    0.382
       144  -9.2951      5.3181     41.6551   1.3901545868e+02   6.7480664792e+01     0.121962   0.08579367  71.39 0.0007048986    1.723    0.419
       145 -11.4613    248.7556     37.9041   7.0711959204e+01   2.0041208392e+01    0.4010288    0.3022373 -10.44   0.00142639    1.277    0.217
       146 -10.4568    248.5211     31.0158   6.9010010188e+01   2.0783054565e+01    0.2841566     0.173086 -40.49  0.001012323    1.451    0.311
       147 -11.7122    242.2123     38.1033   7.1357718301e+01   2.1360523156e+01    0.4108893    0.2305052   3.54  0.001503313    2.404    0.584
       148  -9.3772    173.7893     40.3504   8.0440153316e+01   3.6935034206e+01    0.2082015    0.1819325 -32.24   0.00112146    1.115    0.103
       149  -9.6460    105.4961     40.5025   9.5579750864e+01   5.3523383403e+01    0.1494287    0.1386582  -4.18  0.000810679    1.003    0.003
       150 -10.2433     93.3167     40.1244   9.9223621733e+01   5.6214038653e+01     0.290219    0.2001429  29.54  0.001380699    1.577    0.366
       151 -10.1022    229.4855     37.1901   7.2354807729e+01   2.4164105067e+01    0.2384363    0.2254146  -9.96 0.0005803235    1.080    0.074
       152  -9.9729    218.2824     34.4320   7.2767735807e+01   2.6952106287e+01    0.2530873    0.1687326 -23.77 0.0005938751    1.362    0.266
       153  -9.8791    216.3911     30.2299   7.1789879620e+01   2.7828499939e+01    0.2556604    0.1523704 -33.05    0.0011128    1.491    0.329
       154  -9.5665    111.4293     35.2208   9.1711188616e+01   5.3008699751e+01    0.2154345    0.1312081 -40.88 0.0009456392    1.691    0.409
       155  -9.6938    104.9762     34.1697   9.3091341062e+01   5.4650885154e+01    0.2426265    0.1907085  18.05  0.001222952    1.342    0.255
       156  -9.4797    164.4041     32.3087   7.9260413147e+01   4.0282578805e+01    0.2679826    0.1638663 -32.38 0.0006698294    1.566    0.362
       157  -9.3943    162.3485     28.7016   7.8340471411e+01   4.1231537484e+01    0.2209154    0.1368207 -39.49 0.0009967393    1.616    0.381
       158  -9.4317    194.0300     29.9473   7.4252918381e+01   3.3156198135e+01     0.167832    0.1623088 -25.82 0.0005659803    1.023    0.022
       159  -9.0444    142.4832     30.4339   8.2529909844e+01   4.6079324772e+01    0.1457884    0.1423118  -0.40 0.0001345276    1.038    0.037
       160  -8.9369    170.3831     28.7895   7.7116098057e+01   3.9178246204e+01    0.2097614    0.1365542  -8.27 0.0009536014    1.676    0.403
       161 -11.3693    244.0701     27.2056   6.8417836654e+01   2.2074139011e+01    0.3830189    0.1845974 -47.57  0.001832085    2.046    0.511
       162  -8.9238    101.4349     26.4950   9.0760165694e+01   5.6600358253e+01    0.1462935     0.134836  -0.61 0.0001013415    1.014    0.013
       163 -10.6996    220.8734     23.8326   6.9560612770e+01   2.7455824034e+01    0.2228957    0.1739866  53.98  0.000682666    1.387    0.279
       164 -10.1582    249.4077     22.6993   6.6867534229e+01   2.1407421284e+01    0.2332164    0.2054493   2.04  0.001550305    1.215    0.177
       165  -9.6420    218.9004    248.8063   1.1782896700e+02   8.3928744931e-01    0.1642493     0.121232   2.93  0.000860175    1.231    0.188
       166 -10.1346    210.8692    246.6142   1.1881278535e+02   2.0100218531e+00    0.2776504    0.1306468 -43.10  0.001635045    3.559    0.719
       167 -11.1375    224.4905    244.2614   1.1636248242e+02   5.7874472457e-01    0.3667814    0.2264237 -35.90  0.002182877    2.294    0.564
       168  -9.7756     90.0030     18.9832   9.0694780647e+01   6.0225269030e+01    0.1760187     0.158527   1.33 0.0004276816    1.011    0.011
       169  -9.1977    174.8440     17.8255   7.2791668013e+01   3.9214562483e+01    0.1958927    0.1583769 -56.73 0.0004014703    1.308    0.236
       170  -8.6449    227.6385     17.6923   6.7288887098e+01   2.6525767333e+01    0.1341051    0.0923178  30.45 0.0007039874    1.738    0.425
       171  -9.8001    120.7238     16.8278   8.1556259921e+01   5.3201642391e+01     0.239177    0.1768341   5.72  0.001178171    1.439    0.305
       172 -10.5646    232.9278     14.8951   6.6123930548e+01   2.5618004972e+01    0.1892426     0.168797  13.57 0.0004936749    1.235    0.190
       173  -9.9719    206.4455     20.2104   6.9934148728e+01   3.1168798577e+01    0.2747119    0.2107289   1.31 0.0008232278    1.406    0.289
       174  -9.6549     62.6287     14.8452   9.8610753196e+01   6.6407312739e+01    0.2017817    0.1159402 -40.59 0.0009546697    1.772    0.436
       175  -9.5207    191.7490    246.5902   1.2189971133e+02   4.3716318132e+00    0.1503786   0.07520465  38.97 0.0009603414    1.685    0.407
       176  -9.1196    175.6750    246.3319   1.2453760658e+02   6.4151469039e+00   0.09742507   0.07076106  48.58 0.0007050837    1.707    0.414
       177  -9.7167    191.0356     21.9685   7.2142676871e+01   3.4732161863e+01    0.1688218    0.1580457 -26.16 0.0004645042    1.022    0.022
       178  -9.8325    146.5531    242.2266   1.2907393345e+02   1.0579596885e+01    0.2048462    0.1032307 -44.93  0.001300744    2.587    0.613
       179  -9.0678    201.5741    241.7392   1.1968430725e+02   3.6316347407e+00    0.1162649   0.09716089 -24.20 0.0007992407    1.595    0.373
       180  -9.0220    214.3310    241.2056   1.1755691536e+02   2.0969263672e+00    0.1181377   0.08934459 -24.79 0.0008362579    1.651    0.394
       181  -9.2772    159.3230    238.6525   1.2644910801e+02   9.3753211780e+00    0.1022287   0.07271948  52.88 0.0007049514    1.742    0.426
       182 -10.0375    204.0990    235.2580   1.1842177492e+02   3.9665380809e+00    0.2481515     0.209521 -53.33   0.00188632    2.233    0.552
       183  -9.0976    189.5282    237.0363   1.2107571963e+02   5.6502638009e+00    0.1307921   0.09974584 -22.58 0.0005893321    1.533    0.348
