#   1 NUMBER                 Running object number                                     
#   2 MAG_AUTO               Kron-like elliptical aperture magnitude                    [mag]
#   3 X_IMAGE                Object position along x                                    [pixel]
#   4 Y_IMAGE                Object position along y                                    [pixel]
#   5 X_WORLD                Barycenter position along world x axis                     [deg]
#   6 Y_WORLD                Barycenter position along world y axis                     [deg]
#   7 A_WORLD                Profile RMS along major axis (world units)                 [deg]
#   8 B_WORLD                Profile RMS along minor axis (world units)                 [deg]
#   9 THETA_WORLD            Position angle (CCW/world-x)                               [deg]
#  10 FWHM_WORLD             FWHM assuming a gaussian core                              [deg]
#  11 ELONGATION             A_IMAGE/B_IMAGE                                           
#  12 ELLIPTICITY            1 - B_IMAGE/A_IMAGE                                       
         1 -10.1385    102.3265     30.6406   7.7237706773e+01   5.5379725925e+01    0.2409049    0.2071441 -87.38  0.001320702    1.605    0.377
         2 -12.4490     42.4617     19.7392   9.4274013482e+01   6.7272318511e+01    0.5902454    0.4416662  27.13  0.002137315    1.443    0.307
         3 -12.6949    216.5067     15.1904   5.1604854412e+01   2.8889899415e+01    0.7613847    0.5882069  73.38  0.003218178    1.250    0.200
         4 -13.3368    187.4624      7.1603   5.2529425732e+01   3.7034582599e+01     1.001366    0.5205296 -71.44  0.004115662    2.516    0.603
         5 -11.8214     58.2478      7.8955   8.1850053265e+01   6.6687199038e+01    0.4624951    0.3315198  20.35  0.002840744    1.290    0.225
         6 -10.5043     53.1996      1.7712   8.0701772960e+01   6.8240166601e+01    0.2940204    0.1473365  50.95  0.001459674    2.539    0.606
         7  -9.9497    109.4973      8.5104   6.6173294494e+01   5.6454709422e+01    0.1347267    0.1231516  30.05 0.0008101537    1.047    0.045
         8 -11.6439     44.1434      8.5207   8.8116704150e+01   6.8725205161e+01    0.2556597    0.1988316 -23.39 0.0008730472    1.176    0.149
         9 -11.9164    166.4222      2.0347   5.3562364953e+01   4.2929321927e+01    0.6970854    0.1656089  67.71  0.002223976    3.550    0.718
        10 -10.9334     95.6856    224.9570   1.2230108393e+02   1.7298564528e+01    0.2881769    0.1449472  56.77   0.00157204    1.823    0.452
        11 -10.5333    231.8542    224.3552   9.7272260036e+01  -4.1537386847e+00    0.1787605   0.08590155  31.24 0.0009552617    1.769    0.435
        12 -10.7297    149.1743    223.4889   1.1207237579e+02   9.2831021101e+00    0.2070541     0.144306 -86.54  0.001151462    2.279    0.561
        13 -10.0517    184.8351    223.2432   1.0540422534e+02   3.4601351655e+00    0.2356859    0.1282431  41.99  0.001286994    1.528    0.345
        14 -10.6277    226.1863    221.1829   9.7723345564e+01  -2.9153889711e+00    0.1500279    0.1347446  31.41  0.001073423    1.360    0.264
        15 -11.2941    223.6263    213.5103   9.6894726326e+01  -1.5794721228e+00    0.4078411    0.2178894  23.15  0.002121541    1.921    0.479
        16 -11.0663    232.7452    211.2477   9.4932077221e+01  -2.7459369970e+00    0.2205063    0.1308402  38.48  0.001278983    1.509    0.337
        17 -10.5298    115.9242    209.6167   1.1671075012e+02   1.6944800196e+01     0.242499    0.1588411 -85.80  0.001335408    1.987    0.497
        18 -10.3521     48.8914    201.7874   1.2907028982e+02   2.7706290969e+01    0.2337763    0.1155969  75.46  0.001245613    2.131    0.531
        19  -9.8020     41.4784    201.9782   1.3050073047e+02   2.8515951543e+01    0.1597479   0.09483878 -79.65  0.000568113    1.537    0.350
        20 -11.1593      4.6879    199.1591   1.3709817216e+02   3.2700344302e+01    0.3034877     0.133806  56.84  0.001146002    1.804    0.446
        21 -10.0988     56.3582    205.6834   1.2795831327e+02   2.6064379149e+01    0.1266202   0.06704563  64.98 0.0007044188    1.753    0.430
        22 -12.4419    160.2706    192.0096   1.0522693770e+02   1.2523311500e+01    0.6703193    0.4782712  73.34  0.002715989    2.006    0.501
        23  -9.7028    215.0000    193.0109   9.4838409532e+01   2.5732898996e+00    0.1960046   0.07147735 -36.30 0.0008033356    2.949    0.661
        24  -9.9431     94.3043    185.9659   1.1816689613e+02   2.4783894837e+01    0.2010615   0.09707968 -86.17 0.0007039692    4.210    0.762
        25 -10.7992    223.8637    183.5693   9.1471230515e+01   2.3588791727e+00    0.2063444    0.1536831 -31.90 0.0007847631    1.426    0.299
        26 -10.2422    186.6133    184.2043   9.8595858829e+01   9.0066900821e+00    0.1762432    0.1245144 -23.62 0.0003041218    1.616    0.381
        27 -10.4796    183.1593    182.6970   9.9000972974e+01   9.8937553831e+00    0.3430789    0.1513515 -31.56  0.001351886    3.010    0.668
        28  -9.9277     66.4876    194.9744   1.2498806949e+02   2.6878569789e+01    0.1709211   0.08657685  80.86 0.0008096277    2.481    0.597
        29 -10.3460    191.9573    178.0044   9.6387593499e+01   9.0151168036e+00    0.2072101    0.1729339  80.53   0.00114015    1.729    0.422
        30  -9.5327     28.5044    176.5631   1.3111377028e+02   3.4993732601e+01    0.1134718   0.09069929  83.02 0.0001091938    1.051    0.049
        31  -9.9054    159.3229    175.6484   1.0258482890e+02   1.5594321320e+01    0.1397616    0.1075904  78.47 0.0004911072    1.753    0.429
        32 -10.0194    106.3463    175.6798   1.1411721362e+02   2.4990249896e+01    0.1416813   0.09383478  70.32 0.0006178246    1.732    0.422
        33 -12.0174     35.9808    173.4296   1.2928968963e+02   3.4888952723e+01    0.4543373    0.2195263  65.30  0.002385259    2.087    0.521
        34 -11.0018    121.1302    169.0275   1.0976028232e+02   2.3863595739e+01    0.2937747     0.181688 -73.39  0.001359021    2.112    0.526
        35 -11.5173     55.7970    167.5296   1.2437953709e+02   3.3919188043e+01    0.4700037     0.240552  89.42  0.002253755    2.276    0.561
        36 -10.5286     98.9886    166.0135   1.1432210611e+02   2.8193274578e+01     0.227912    0.1512429  72.57  0.001143182    1.752    0.429
        37 -10.0552    138.3866    164.1924   1.0503508595e+02   2.1721277914e+01    0.1977129     0.133226 -64.08 0.0009529082    1.760    0.432
        38  -9.9324     88.4995    168.5013   1.1709238685e+02   2.9281851491e+01    0.2366522    0.1212784 -76.13  0.001032841    2.433    0.589
        39 -11.6199    106.4736    158.0928   1.1130237530e+02   2.8667705566e+01    0.6196361     0.364327  72.47  0.002606478    2.549    0.608
        40 -10.9596     23.8510    160.1354   1.3075404323e+02   3.8916496926e+01    0.2514447    0.1541678  62.82  0.001565139    1.494    0.331
        41 -11.0824    167.9695    157.4040   9.7221832152e+01   1.7286884436e+01    0.3679484    0.2738505  80.90  0.001732571    2.009    0.502
        42 -11.3462    118.9852    156.9724   1.0816449888e+02   2.6748182972e+01    0.4126567    0.2680067  47.41  0.001561934    1.472    0.321
        43 -10.5172    218.4218    156.1825   8.6926100847e+01   7.4445822283e+00    0.3357306    0.1266626 -38.17  0.001297044    2.663    0.624
        44  -9.9491     81.3475    154.6530   1.1674730359e+02   3.3354130642e+01    0.1446767   0.09261961  72.63 0.0007042019    1.809    0.447
        45 -10.1108     23.2327    153.7858   1.3033511800e+02   4.0349181817e+01    0.1513104    0.1170611 -67.07 0.0004426767    1.289    0.224
        46 -11.7684    243.4306    151.0713   8.1462057613e+01   3.5070383149e+00    0.3219094    0.1780968  48.28  0.001562717    1.975    0.494
        47 -10.1356    189.9687    150.9827   9.1286198433e+01   1.3986645947e+01    0.2246535    0.1849138 -89.33  0.001139021    1.737    0.424
        48 -11.2486    107.2417    145.3856   1.0886402972e+02   3.1304483027e+01     0.578621    0.3271039  75.06  0.002082165    3.424    0.708
        49 -10.5024     56.1441    146.4879   1.2172468071e+02   3.8534956189e+01    0.3084439    0.1301415  64.62  0.001082748    4.092    0.756
        50 -10.4055    148.7641    145.1875   9.8920594357e+01   2.3533760322e+01    0.2465427    0.1633151  85.57 0.0009534957    2.791    0.642
        51  -9.8478    124.5092    143.0174   1.0418499157e+02   2.8716337757e+01    0.2098748    0.1269936 -76.68 0.0008104669    2.670    0.625
        52 -10.3281    181.8289    141.9906   9.0972892906e+01   1.7294851605e+01     0.242066    0.1763462 -71.57  0.001085158    2.076    0.518
        53 -11.0732     82.8129    130.9226   1.1241759953e+02   3.8506280905e+01    0.4107175    0.1770785 -64.56  0.001619596    2.476    0.596
        54 -12.2304     97.5598    126.8541   1.0771311700e+02   3.7097214206e+01     1.045143    0.5903135  83.01  0.003336326    4.415    0.773
        55 -10.5574     11.8241    128.1806   1.3065004392e+02   4.6947644009e+01    0.2593026    0.1096185  82.75  0.001163579    2.797    0.642
        56 -10.1912    118.5954    126.4492   1.0214126890e+02   3.3433858010e+01    0.4577514    0.2118646  63.30  0.001174315    5.870    0.830
        57 -10.8026     59.0653    124.4712   1.1767542652e+02   4.3234797694e+01    0.3955323    0.1950885 -87.97  0.001460936    3.477    0.712
        58 -11.2108     43.5957    122.9870   1.2166427355e+02   4.5334386174e+01    0.5965653    0.2856522  88.46  0.002382015    3.184    0.686
        59 -11.1946     27.1982    120.7612   1.2580512718e+02   4.7408642757e+01    0.6466151    0.2623831  85.42  0.002225609    4.598    0.783
        60  -9.8250     16.5199    121.5096   1.2874188397e+02   4.8100328543e+01    0.1635953   0.09997378  45.87 -1.645378e-06    1.773    0.436
        61 -10.8129     13.6697    120.6570   1.2939785666e+02   4.8503697811e+01    0.3018115    0.1191416 -46.61  0.001385024    2.979    0.664
        62 -11.7688    193.4960    118.4767   8.3020652751e+01   1.9030752570e+01    0.5446749    0.4568812 -78.54  0.002061764    1.540    0.351
        63 -10.1878     71.2697    120.6933   1.1364167447e+02   4.2526130122e+01     0.333023    0.1748697  73.26  0.001147407    3.991    0.749
        64 -11.4006    140.6868    117.1934   9.4412784087e+01   3.0987634740e+01    0.4330374    0.3025328 -52.41  0.002003435    1.492    0.330
        65 -10.7473      2.6356    116.5198   1.3186945975e+02   5.0166493588e+01    0.4481985    0.1688211  82.41  0.001844333    3.514    0.715
        66 -10.6627    108.3122    112.4530   1.0162321314e+02   3.8452606555e+01     0.566808    0.2486516 -62.61  0.001825704    3.486    0.713
        67 -10.9599     78.7470    112.6137   1.0992310088e+02   4.3329645032e+01    0.4681211     0.274103  86.60  0.001773036    3.220    0.689
        68 -12.3539    160.5126    110.6100   8.8043590900e+01   2.7978592129e+01    0.7741281    0.4824821 -63.95  0.003013861    2.375    0.579
        69 -10.5525     92.0300    111.4652   1.0589995680e+02   4.1516206124e+01    0.3810693    0.2011466 -63.83  0.001570659    2.152    0.535
        70 -10.5595     18.2238    112.6174   1.2722958351e+02   4.9991575264e+01    0.2367286    0.1488752  24.18  0.001397737    1.988    0.497
        71 -11.2076     13.8474    109.6542   1.2808318617e+02   5.0981366554e+01    0.5097668      0.20946 -75.38  0.002501108    2.033    0.508
        72 -11.0089    174.5974    110.5179   8.4902830540e+01   2.4787167485e+01    0.4634733    0.2935001 -36.04  0.001499904    1.587    0.370
        73 -11.8736    153.0225    110.3087   8.9700432722e+01   2.9718569180e+01    0.4108239     0.296951  22.79  0.001836463    1.706    0.414
        74  -9.9513     66.6575    111.3286   1.1314087813e+02   4.5320883576e+01    0.1409248   0.09950648  76.70 0.0007051183    1.744    0.426
        75 -12.7587    141.6839    103.3693   9.0602401443e+01   3.3634513636e+01    0.7547499    0.5545716 -54.92  0.003526757    1.467    0.318
        76 -11.8998     44.5462    101.0346   1.1774045759e+02   5.0322975324e+01     0.665481    0.3567051  89.30  0.002802863    2.915    0.657
        77 -12.1861    127.8299    101.2016   9.3541866525e+01   3.7055447247e+01    0.6272222    0.3110817 -56.79  0.002258813    2.584    0.613
        78 -13.2374    111.5877    100.1614   9.7638008318e+01   4.0541660166e+01     1.402265    0.6083471  54.92  0.004677765    3.292    0.696
        79 -10.8361     63.0052     96.0193   1.1100678648e+02   4.9330615970e+01    0.3515773    0.1731053 -79.01  0.001145569    4.300    0.767
        80 -12.8714    170.4668     90.9727   8.0518712821e+01   2.9401123239e+01    0.4405073    0.3997831  85.24  0.001272535    1.234    0.189
        81 -10.9518     82.2091    100.7306   1.0624715697e+02   4.5527725785e+01    0.2643383     0.234465  49.00 0.0008681386    1.213    0.176
        82 -10.8536     34.3935     86.9773   1.1826168063e+02   5.4534262931e+01    0.6225628    0.1439395 -59.08  0.002303033    3.072    0.674
        83 -11.7982     42.3154     87.8801   1.1584768460e+02   5.3571449301e+01    0.7659253    0.3659202  12.41  0.003220477    3.501    0.714
        84 -10.5507     45.4617     81.9754   1.1350676420e+02   5.4582856074e+01    0.2805786    0.1930187 -89.21 0.0009375017    1.894    0.472
        85 -11.4896     86.9048     86.9196   1.0129710532e+02   4.7859816375e+01    0.4830409    0.3534173  87.57  0.002277308    2.038    0.509
        86 -10.9344    104.7610     83.9947   9.5099068778e+01   4.5306336553e+01    0.3987498     0.284302  86.52  0.001712309    2.324    0.570
        87 -10.7726      6.8291     85.1650   1.2691819208e+02   5.6949482542e+01     0.166889    0.1085104 -51.46 0.0004832837    1.357    0.263
        88  -9.9835    140.6236     82.8304   8.5044082344e+01   3.7960601663e+01    0.2294925    0.1395814 -48.54   0.00095313    1.742    0.426
        89  -9.7849     21.5214     82.5913   1.2169192071e+02   5.6579063186e+01    0.1785248    0.1411797 -31.16 0.0001361445    1.396    0.283
        90 -10.6069     23.6899     80.3394   1.2054393579e+02   5.6923896364e+01    0.2491165    0.1633956 -84.15  0.001431728    1.631    0.387
        91  -9.8428      1.8822     77.8450   1.2745372219e+02   5.8837951045e+01    0.1858083    0.1201999 -54.11 0.0007989038    1.283    0.221
        92 -11.0295     82.5281     73.5420   9.8844262488e+01   5.1447468201e+01    0.4010741    0.2542427 -78.45   0.00155067    3.186    0.686
        93 -11.3907    223.4031     71.1883   6.5571387680e+01   1.9921701719e+01    0.3301428    0.2750038 -49.71 0.0007609182    1.182    0.154
        94 -10.6551     52.0077     70.4983   1.0836946960e+02   5.6391890353e+01    0.2679523     0.178664 -52.89 0.0007884067    1.300    0.231
        95 -10.2999    196.4162     67.6671   6.8893099688e+01   2.6990134735e+01    0.3171572    0.1870451  56.55  0.001374273    1.705    0.414
        96 -11.8848     20.8433     51.2415   1.1503356289e+02   6.3468208122e+01    0.7752624    0.3846691 -72.81  0.003672582    2.576    0.612
        97 -11.1675     39.5541     52.1390   1.0774046550e+02   6.1634469328e+01    0.5494798    0.1610851 -44.91  0.001565753    2.834    0.647
        98 -13.5243     30.8620     59.9282   1.1336332230e+02   6.0829774622e+01     1.183812    0.7738988  32.65  0.004555406    1.824    0.452
        99 -11.0027    237.5064     63.5235   6.1664790087e+01   1.7777559239e+01    0.1397218    0.1276003 -44.76 0.0001091443    1.015    0.014
       100 -11.2565      9.9605     57.7383   1.2093377745e+02   6.2801144507e+01    0.5417079    0.3414282  72.40  0.003051251    2.365    0.577
       101 -10.7604     62.4342     70.2557   1.0463443024e+02   5.5134289552e+01    0.3611188    0.1033876 -48.21  0.001276697    2.961    0.662
       102  -9.9914     72.5780     58.2909   9.7353784037e+01   5.6140268473e+01    0.2656277    0.1243666 -49.85  0.001014826    2.097    0.523
       103  -9.9246    119.3201     56.6500   8.2174488995e+01   4.7583449179e+01    0.1507825    0.1183125 -71.80 0.0007048306    1.741    0.426
       104 -11.3155     19.4183     59.3700   1.1763987511e+02   6.1849171028e+01    0.2679909    0.2314228 -35.24  0.001022652    1.164    0.141
       105 -10.2733    161.9679     53.4617   7.1031157541e+01   3.7882429157e+01    0.2379163    0.1479418  58.84 0.0007642775    1.605    0.377
       106 -12.3216    149.5680     52.0577   7.3185453080e+01   4.1205413881e+01    0.4237176    0.3005255  59.03 0.0004549856    1.428    0.300
       107 -10.4657     82.1937     46.9488   9.0000859438e+01   5.6688624325e+01    0.2041874     0.184938 -49.79 0.0005469942    1.267    0.210
       108 -10.6821    157.0872     45.0035   6.9273437762e+01   4.0376877631e+01    0.2747695    0.2052801  57.34  0.000447941    1.307    0.235
       109 -11.6872     71.5352     42.5285   9.2072414098e+01   5.9265692175e+01    0.6077635    0.3142112  51.09  0.002649081    2.675    0.626
       110 -11.1412      7.1437     43.2056   1.1867212205e+02   6.6007729022e+01    0.4412457    0.2488056  41.10  0.002583871    2.451    0.592
       111  -9.4057    149.4424     43.4809   7.0340715044e+01   4.2522919032e+01    0.1457493    0.1445464  53.17 5.110788e-05    1.043    0.041
       112 -12.0956     42.2409     37.5777   1.0170639397e+02   6.4197723665e+01    0.6143835    0.3677869  10.52  0.002731815    2.080    0.519
       113 -11.5553     47.1111     35.6504   9.8931705293e+01   6.3974482759e+01    0.3706336    0.2254533  16.79  0.001525078    1.921    0.479
       114 -10.6102     82.8825     37.9828   8.6307221947e+01   5.8098520418e+01    0.3891371    0.2243218  55.66  0.001755958    2.349    0.574
       115 -11.2222    120.1942     34.2247   7.3798118065e+01   5.0909618638e+01    0.3087303     0.287257  47.48 0.0006576708    1.108    0.098
       116 -10.0917     73.5373     32.7391   8.7440976934e+01   6.0589769664e+01    0.2899538    0.2127728  83.75  0.001318825    3.055    0.673
       117 -10.1811    105.5443     30.4929   7.6260937947e+01   5.4710654662e+01    0.2854303    0.1308332  49.82 0.0007639792    2.107    0.525
       118 -10.9779    220.1044    248.8858   1.0298748304e+02  -5.1143726797e+00    0.2135391    0.1674192  65.51  0.001396611    2.371    0.578
       119  -9.3945     41.3397    247.7135   1.3344500098e+02   2.0403066945e+01    0.1097858   0.05217974  61.66 0.0004921356    1.637    0.389
       120 -11.2618    239.9921     20.5468   5.0707375795e+01   2.2694712292e+01    0.2666905    0.2224211 -87.72 0.0004602966    1.162    0.139
       121 -12.3172     22.0686    238.9147   1.3607155722e+02   2.3921386596e+01    0.4340755     0.173676  69.29  0.002596792    2.181    0.542
       122 -10.3886    134.0372     18.0042   6.4497465199e+01   4.9613408183e+01    0.2201415    0.1981311  44.17 0.0005618177    1.028    0.027
       123 -12.6194    204.7609     22.0469   5.4753150613e+01   3.1058543876e+01    0.7315775     0.361002 -80.53  0.002705389    3.065    0.674
       124 -11.2577     16.8309    235.8541   1.3676449965e+02   2.4963602836e+01    0.3046769    0.0705336  44.56  0.001622639    2.758    0.637
       125 -11.3704      8.0969    240.5929   1.3832380803e+02   2.5017191958e+01    0.1925485    0.1306269  46.20  0.001230407    1.454    0.312
       126  -9.7317      2.6350    240.2970   1.3914559402e+02   2.5576580936e+01    0.1069068    0.0441708  61.69 0.0007031891    1.720    0.419
       127 -10.8581     12.8606    227.3155   1.3702179208e+02   2.6817543171e+01    0.1985331    0.1236462  84.49 0.0005349011    1.279    0.218
       128 -10.2277    104.5173    225.2357   1.2068407428e+02   1.5967862884e+01    0.1992155    0.1137678 -70.86  0.001141266    2.096    0.523
