#   1 NUMBER                 Running object number                                     
#   2 MAG_AUTO               Kron-like elliptical aperture magnitude                    [mag]
#   3 X_IMAGE                Object position along x                                    [pixel]
#   4 Y_IMAGE                Object position along y                                    [pixel]
#   5 X_WORLD                Barycenter position along world x axis                     [deg]
#   6 Y_WORLD                Barycenter position along world y axis                     [deg]
#   7 A_WORLD                Profile RMS along major axis (world units)                 [deg]
#   8 B_WORLD                Profile RMS along minor axis (world units)                 [deg]
#   9 THETA_WORLD            Position angle (CCW/world-x)                               [deg]
#  10 FWHM_WORLD             FWHM assuming a gaussian core                              [deg]
#  11 ELONGATION             A_IMAGE/B_IMAGE                                           
#  12 ELLIPTICITY            1 - B_IMAGE/A_IMAGE                                       
         1 -14.8238    182.1174     43.1935   5.5003185494e+01   3.4144353688e+01     1.315937     1.019085  19.42  0.004029473    1.609    0.379
         2 -14.8842    204.1507     11.8109   4.3099968036e+01   3.2360628480e+01     1.078177    0.9853976  22.44  0.004582855    1.328    0.247
         3 -13.5034    235.4167      4.8855   3.8509989286e+01   2.5554380780e+01    0.4924972    0.4023277  68.44  0.003111481    1.295    0.228
         4 -12.3589    154.0429    239.0311   1.0503471325e+02   4.5148146244e+00    0.2444627    0.1817449 -64.73  0.001001567    1.782    0.439
         5 -17.1132     54.6458    228.0143   1.2224973852e+02   2.1126446219e+01     9.141406      7.03886  85.03   0.06720975    1.169    0.144
         6 -12.6439    150.3674    178.8529   9.6533114103e+01   1.5629079838e+01    0.3867343    0.2525212 -65.59 0.0009629345    1.974    0.493
         7 -13.7554    142.0424    175.1096   9.7684535099e+01   1.7958471503e+01     0.765322    0.4982936  81.20  0.002979097    2.552    0.608
         8 -11.4874    187.6667    176.2869   8.8173665000e+01   8.8839859928e+00    0.3159291    0.2913527  26.18  0.001004058    1.029    0.028
         9 -10.1934    193.7703    171.4012   8.5956744319e+01   8.5552504615e+00    0.1982999    0.1265073  33.45 0.0009111182    1.548    0.354
        10 -11.0289      1.1023    177.4148   1.2881750077e+02   3.6850707437e+01    0.1062768   0.04859886 -73.14 0.0003449302    1.773    0.436
        11 -11.0581     13.4993    160.2711   1.2505904163e+02   3.9525612587e+01    0.2127129    0.1769856  65.98 0.0008098392    1.225    0.183
        12  99.0000     13.9997    205.7319   1.2805682469e+02   2.9929146241e+01    0.3941974    0.1877111  38.94  0.002417933    2.075    0.518
        13 -11.4838    167.0621    226.0683   1.0080638782e+02   4.3335101133e+00    0.2020668    0.1791309 -40.09 0.0004468275    1.352    0.260
        14 -12.9815    133.8072    145.5706   9.3800285844e+01   2.5846266833e+01     1.268681    0.3098642 -54.63   0.00295926    6.148    0.837
        15 -11.9931    192.3094    193.5732   9.0542606345e+01   5.0599754546e+00    0.7713849    0.4223473 -65.20   0.00236973    6.094    0.836
        16 -10.5353    174.7035    149.3206   8.5229955725e+01   1.6582299562e+01    0.1476153     0.120861 -86.86 0.0002935198    1.616    0.381
        17 -12.6834    113.5284    151.7618   9.9998386358e+01   2.8310519441e+01    0.3880552    0.2772221  71.82 0.0008240954    1.652    0.395
        18 -13.2631    110.3929    136.6815   9.7770390057e+01   3.2339457775e+01    0.6120725    0.3577621 -35.49  0.002507147    2.239    0.553
        19 -13.0209     99.3592    135.9733   1.0049353651e+02   3.4457643902e+01    0.4004594    0.3380157 -36.79  0.002146192    1.335    0.251
        20 -10.8389    128.0887    139.3211   9.3856548140e+01   2.8370321796e+01    0.2192788    0.1917707  50.46  0.001013032    1.137    0.121
        21 -12.6769    105.9418    130.8746   9.7698237482e+01   3.4495579388e+01    0.4177111    0.3563879 -76.73   0.00116197    1.187    0.157
        22 -12.2978     81.7916    195.2095   1.1387105959e+02   2.3925660278e+01    0.4861323    0.2949782  56.20  0.002666497    1.494    0.330
        23 -12.1139    116.6996    128.2774   9.4297925446e+01   3.3098620107e+01    0.2839975    0.2607953 -14.35  0.001042786    1.248    0.198
        24 -11.5600    104.9013    123.6576   9.6384670092e+01   3.6367176635e+01    0.2793659    0.2505304 -21.95  0.000618674    1.280    0.219
        25 -13.7870    150.1976    189.3489   9.8414410869e+01   1.3631223563e+01    0.6809533     0.409816 -71.49  0.002914876    2.691    0.628
        26 -10.6971    152.8971    119.8488   8.3178657571e+01   2.7412200363e+01    0.2395756    0.2144248  -3.73 0.0004394213    1.246    0.197
        27 -10.7368    111.8026    117.8013   9.3149383505e+01   3.6443930943e+01    0.2159964    0.2063528 -13.90 0.0004992542    1.141    0.124
        28 -10.8215    231.1824    113.9287   6.5902905280e+01   1.0871721415e+01    0.2335684    0.2139969  43.83 0.0007553005    1.181    0.153
        29 -11.0113    167.5520    112.5326   7.7896762819e+01   2.5590498641e+01    0.3519439    0.2423549 -80.12  0.001366247    2.371    0.578
        30 -13.0095     69.1538    191.8163   1.1614002470e+02   2.6416780019e+01    0.4068022    0.3273407 -54.58  0.001358283    1.511    0.338
        31 -12.1799    119.3010    110.7370   8.9363647539e+01   3.6584367081e+01    0.5428118    0.2889974  61.36  0.001903878    2.872    0.652
        32 -10.8761    205.5215    110.1982   6.9491946811e+01   1.7206347899e+01    0.2698728    0.2176724  49.29 0.0006477018    1.291    0.225
        33 -18.9466     31.9884     98.8669   1.1265291832e+02   5.2165648485e+01     14.69148     0.810822 -64.88   0.02461561   14.828    0.933
        34 -11.3683    189.2528     88.8029   6.6915028205e+01   2.4945429389e+01    0.3775883    0.2784858 -71.12  0.001512231    1.728    0.421
        35 -13.9677    167.5853     58.0304   6.2155593702e+01   3.5658501216e+01    0.7726724    0.6165084 -18.04   0.00115658    1.374    0.272
        36 -10.3316     13.6371     59.9669   1.1106725527e+02   6.2303887720e+01    0.1709207    0.1197074 -57.67 0.0004034784    1.128    0.114
        37 -12.7200    248.2191    247.6512   8.9648186409e+01  -1.0989561218e+01     0.347686    0.2467895  -7.91  0.002514986    1.319    0.242
        38 -13.3344    187.2402     36.4543   5.2199458813e+01   3.3739134708e+01    0.5425341    0.4571086  16.37  0.001474886    1.422    0.297
        39 -12.3848     83.6160    239.2855   1.1798737308e+02   1.5262847265e+01    0.2554788    0.1642788  44.65 0.0004145788    1.351    0.260
