#   1 NUMBER                 Running object number                                     
#   2 MAG_AUTO               Kron-like elliptical aperture magnitude                    [mag]
#   3 X_IMAGE                Object position along x                                    [pixel]
#   4 Y_IMAGE                Object position along y                                    [pixel]
#   5 X_WORLD                Barycenter position along world x axis                     [deg]
#   6 Y_WORLD                Barycenter position along world y axis                     [deg]
#   7 A_WORLD                Profile RMS along major axis (world units)                 [deg]
#   8 B_WORLD                Profile RMS along minor axis (world units)                 [deg]
#   9 THETA_WORLD            Position angle (CCW/world-x)                               [deg]
#  10 FWHM_WORLD             FWHM assuming a gaussian core                              [deg]
#  11 ELONGATION             A_IMAGE/B_IMAGE                                           
#  12 ELLIPTICITY            1 - B_IMAGE/A_IMAGE                                       
         1  -9.7495    230.9691     17.0107   6.0316985344e+01   2.6021287788e+01    0.2883039     0.206729 -54.19  0.001231322    1.281    0.219
         2  -8.2010     30.1771     16.2513   1.0378175586e+02   6.7782943356e+01    0.1372709     0.119657 -12.64 0.0008200658    1.368    0.269
         3  -8.4671     55.7993     10.1640   9.1235478890e+01   6.5091026660e+01    0.1601083    0.1409716   0.36 0.0005577857    1.260    0.207
         4  -9.4015    190.1250     14.5376   6.4075252140e+01   3.5891503584e+01    0.2631058    0.1831442 -69.67  0.001002259    1.460    0.315
         5  -8.1636     90.9818      9.4666   8.0262973840e+01   5.8999829952e+01    0.1489339    0.1073274  84.29 0.0005441973    2.296    0.565
         6  -8.9881      6.0574      8.7672   1.1138289477e+02   7.1056603104e+01    0.1756121    0.1110057  39.28  0.001154081    2.656    0.623
         7 -10.5429    246.3816      5.0795   5.6583957747e+01   2.3990615333e+01    0.4966893    0.3346698  53.24   0.00264579    1.902    0.474
         8  -7.7928    101.2431      8.0026   7.7175636601e+01   5.7067867964e+01    0.1435337    0.1017394 -14.57 0.0004591743    1.526    0.345
         9  -8.6510     33.0441      5.0156   9.7606798804e+01   6.8775036270e+01     0.206782    0.1374363 -44.50  0.001293537    2.444    0.591
        10  -8.4078     78.9452      3.8246   8.1290920732e+01   6.1770874101e+01    0.1986683     0.138756 -45.19  0.001049374    2.069    0.517
        11  -8.2765     16.0023      3.4788   1.0433782452e+02   7.0837683476e+01    0.1420594   0.08814789  21.87 0.0006259265    1.535    0.348
        12  -9.1922    236.2448      1.4371   5.6637810874e+01   2.6590732355e+01    0.2334449   0.09521829  70.01  0.001147022    2.133    0.531
        13  -8.3028     62.2503      1.4155   8.5283648458e+01   6.4890984196e+01    0.1417327    0.1014929  50.09 0.0004764796    1.561    0.359
        14  -7.7615     39.3013      1.6363   9.3533451677e+01   6.8317575630e+01   0.09429788   0.08433373 -31.54 0.0007035445    1.728    0.421
        15  -9.1668    210.9613    246.5317   1.1319764574e+02  -8.1190761674e+00    0.2002494    0.1749259 -60.08 0.0007202814    1.650    0.394
        16  -8.3283     93.8213    249.5222   1.3574337540e+02   1.0886131149e+01    0.2331632    0.1250862  72.45  0.000867368    2.218    0.549
        17  -9.3915     65.5586    249.5053   1.4080311903e+02   1.5042262957e+01    0.2890037    0.1512377  58.49 0.0009641583    1.585    0.369
        18  -9.4643     52.8509    249.8688   1.4302765399e+02   1.6696580396e+01    0.2230411    0.1453633  58.76 0.0005142518    1.221    0.181
        19  -9.3270    119.5952    244.9603   1.3040657397e+02   7.5883155346e+00    0.4160776    0.2042705  65.64  0.001750935    2.917    0.657
        20  -8.5044     45.8835    244.8269   1.4382302361e+02   1.8557857673e+01    0.1648543    0.1003723  67.14 0.0006119517    1.311    0.237
        21  -9.6724    247.7995    235.4269   1.0462675298e+02  -1.2287631717e+01    0.3700617     0.208867 -40.55  0.001604696    2.045    0.511
        22  -8.4922    201.8257    243.2848   1.1437735798e+02  -6.1625696311e+00      0.20204    0.1679477 -72.11 0.0007947976    1.847    0.459
        23  -8.5599    169.0683    243.6147   1.2068741039e+02  -6.4571928247e-01    0.1939206    0.1744965 -86.43 0.0005685622    1.362    0.266
        24  -8.1820    159.4837    244.5172   1.2267083087e+02   8.6399323858e-01    0.1296452    0.1094411  45.10 0.0008101665    1.016    0.016
        25  -9.2735    160.1395    240.4781   1.2195337864e+02   1.4255439564e+00    0.3621158    0.2428016 -79.50  0.001451526    2.430    0.589
        26  -9.6748    248.4486    242.3374   1.0571849059e+02  -1.3277303369e+01    0.2536494    0.2031026 -28.74 0.0009328248    1.411    0.291
        27  -8.0095     77.5068    243.0212   1.3806829231e+02   1.4564917267e+01    0.1728927   0.08818294  83.13 0.0008100416    2.515    0.602
        28  -8.7679    194.3427    240.3683   1.1532349720e+02  -4.4718541247e+00    0.2949998    0.2000591 -62.36  0.001268785    2.325    0.570
        29  -9.6078    182.4200    240.7540   1.1767213878e+02  -2.4934497528e+00    0.5207671    0.3046952  42.26  0.001993015    1.479    0.324
        30  -9.2211     29.8265    241.9840   1.4632603367e+02   2.1071371164e+01    0.2105909    0.1244221  58.71 0.0007012454    1.358    0.264
        31  -9.4211      3.3351    240.7974   1.5053186206e+02   2.4188241994e+01    0.2267908    0.1320112  81.84  0.000656976    1.251    0.201
        32  -7.8679    214.3049    241.6523   1.1177283049e+02  -7.9679888642e+00    0.1132189   0.09902733  71.09 0.0007041567    1.697    0.411
        33  -8.3831     37.5375    241.4523   1.4499091512e+02   2.0250518866e+01    0.1171658   0.08302221  74.25 0.0001034954    1.042    0.040
        34  -8.7282    240.5764    239.8390   1.0667713309e+02  -1.1802933229e+01    0.2218876    0.1081254 -30.03  0.001149449    2.125    0.529
        35  -7.9046    146.2542    239.6332   1.2454458716e+02   3.9952871484e+00    0.1269094    0.0942206  76.64 0.0005415271    1.631    0.387
        36  -9.0067    135.6417    239.0905   1.2654606245e+02   5.9321652846e+00    0.2342771    0.1512918  53.90 0.0007449656    1.392    0.282
        37  -8.2772    129.4781    238.9847   1.2773643157e+02   7.0099163827e+00    0.2683187    0.1335553  66.68  0.001030721    3.360    0.702
        38  -8.3782    125.8267    239.6180   1.2853126180e+02   7.5159048440e+00    0.1898411    0.1004702  51.65 0.0003989368    1.673    0.402
        39  -8.0689     83.9936    239.0231   1.3646477368e+02   1.4371217626e+01    0.1524521    0.1175307  62.11 0.0003850497    1.068    0.064
        40  -8.1898     72.1089    238.8477   1.3864990024e+02   1.6157565652e+01    0.1490976    0.1356872  67.51 0.0004007183    1.306    0.234
        41  -8.5108     52.7580    239.0390   1.4215916429e+02   1.8788446738e+01     0.221898    0.1202925  64.85 0.0008739249    1.600    0.375
        42  -9.2570     19.4412    238.6907   1.4782577817e+02   2.2890290703e+01    0.2047679     0.145645  78.28 0.0005125991    1.018    0.017
        43  -7.8517    208.8531    238.6031   1.1228241119e+02  -6.6366024590e+00    0.1680081    0.1072463  45.21 0.0003152749    1.549    0.355
        44  -8.3609    107.2611    238.4218   1.3197746163e+02   1.0830865332e+01    0.1850715   0.09957398  52.65 0.0009413976    1.614    0.381
        45  -8.1016     88.3819    242.1938   1.3597908602e+02   1.3094498182e+01    0.1660146    0.1043807 -85.67 0.0006473081    1.688    0.408
        46  -9.3495    231.0803    236.9638   1.0788832243e+02  -9.9698488126e+00    0.2461713    0.2003247 -51.68  0.001010095    1.769    0.435
        47  -9.9606    214.8467    233.3643   1.1026528326e+02  -6.8528098434e+00    0.5368771     0.382201 -87.44  0.002317109    4.000    0.750
        48  -8.8684    202.9899    234.4989   1.1270292601e+02  -5.0400591041e+00    0.2831112    0.1853449 -57.79  0.001146058    2.308    0.567
        49  -9.6257    175.7015    233.4048   1.1781413500e+02  -1.2464271034e-01    0.4586993    0.2527772 -59.28   0.00210406    2.662    0.624
        50  -7.7356     44.6617    236.3369   1.4336488853e+02   2.0365903743e+01    0.1289635   0.06680062  69.56 0.0007051287    1.755    0.430
        51  -7.8110    170.2913    235.6672   1.1923497098e+02   4.5241427027e-01    0.1270685   0.09878379  71.90 0.0003270252    1.632    0.387
        52  -9.2302    108.7583    234.6513   1.3122868692e+02   1.1307006399e+01    0.3942068    0.1918492  57.20  0.001201392    2.052    0.513
        53  -8.7156     94.2537    234.0155   1.3396782308e+02   1.3767690177e+01    0.4528302    0.2133773  76.15  0.001610689    4.238    0.764
        54  -8.6267     78.8512    234.3038   1.3693769587e+02   1.6067346876e+01    0.2629814    0.1504258  89.97 0.0009617853    1.934    0.483
        55  -8.1345      7.0169    235.2312   1.4963674936e+02   2.4880124471e+01    0.1283073   0.07661476  47.20 0.0008296031    1.641    0.390
        56  -8.1680    122.7657    234.1935   1.2841922639e+02   9.0461845831e+00    0.2135666    0.1199285  72.48 0.0007597963    2.623    0.619
        57  -8.0771     99.4229    234.2612   1.3299738129e+02   1.2898798766e+01    0.1733465    0.1120921 -84.05 0.0008705204    1.707    0.414
        58  -9.5262     68.5516    232.6337   1.3870126138e+02   1.7896999196e+01    0.4624978     0.191259  69.65  0.001751809    3.776    0.735
        59  -8.7876     54.0000    234.1119   1.4151250830e+02   1.9599023793e+01    0.2592544   0.05999634 -68.40 0.0009616326    4.155    0.759
        60  -9.8253     62.5017    228.5378   1.3943279099e+02   1.9572943625e+01    0.2545841    0.1689113  62.81 0.0009419505    1.266    0.210
        61  -8.7756    140.2038    230.1445   1.2438230007e+02   6.7727978031e+00    0.3487064    0.1857646  61.89  0.001357696    2.416    0.586
        62  -8.4712    132.7550    233.1558   1.2629901927e+02   7.5198435157e+00    0.2202278    0.1264705  73.02  0.000906384    2.738    0.635
        63  -9.2012    236.0360    230.9663   1.0593628463e+02  -9.9054775898e+00    0.2663594    0.1635163 -24.89 0.0005939272    1.656    0.396
        64  -9.0338    186.5530    230.8035   1.1526034191e+02  -1.6111779967e+00    0.2927961    0.2154004 -87.27  0.001312082    2.410    0.585
        65  -7.8809    157.7061    232.3196   1.2120659121e+02   3.2638872959e+00    0.1306468   0.09811226  71.29 0.0003053688    1.609    0.378
        66  -8.1569      1.7633    231.1641   1.5025104811e+02   2.6195303614e+01    0.1888267   0.06689361  68.41 0.0009299386    2.711    0.631
        67  -9.0218    246.4672    229.4444   1.0379709342e+02  -1.1286845337e+01     0.218391    0.2022536  -7.90 0.0007614816    1.304    0.233
        68  -9.8632    149.3955    226.4958   1.2198337127e+02   5.8074912340e+00    0.6052331     0.410628  86.04  0.002922489    2.236    0.553
        69  -8.6005     32.7485    230.3098   1.4498319375e+02   2.3023395649e+01    0.1835724    0.1156833  53.24 0.0005775518    1.410    0.291
        70  -7.9584    220.6300    229.3136   1.0847573767e+02  -7.2046640794e+00    0.1196732    0.1013534  68.86 0.0004803775    1.777    0.437
        71  -8.7465    162.1480    228.0436   1.1965326031e+02   3.2251122819e+00    0.2498997     0.179237  56.71 0.0009339673    1.424    0.298
        72  -8.7866    128.0249    227.3843   1.2643932405e+02   9.4383517204e+00    0.2773537    0.1799017  74.70  0.001154274    1.939    0.484
        73  -8.7681     48.7181    227.8519   1.4192276895e+02   2.1552033799e+01    0.2284247    0.2000444  44.23  0.001617458    1.495    0.331
        74  -8.1290    119.5536    227.5285   1.2816658562e+02   1.0876187974e+01    0.1340482    0.1134234  63.70 0.0001140425    1.027    0.026
        75  -8.9957     94.4057    224.8309   1.3285526049e+02   1.5581529871e+01    0.4341032     0.235371  84.25  0.001751197    2.651    0.623
        76  -8.8100    205.8285    225.9747   1.1069235595e+02  -4.1998028822e+00    0.2168331    0.1855978 -64.56 0.0007897529    1.610    0.379
        77  -9.0782    180.1785    224.9939   1.1554724650e+02   5.0049873707e-01    0.3506718    0.2762203  -4.24   0.00127492    1.539    0.350
        78  -8.4723      6.1182    226.0981   1.4924181276e+02   2.6761185981e+01    0.1542052     0.118535  87.69 0.0004627781    1.185    0.156
        79  -8.3769     74.7671    225.3954   1.3677538683e+02   1.8470158497e+01    0.1538302      0.11318  40.70 0.0002433387    1.490    0.329
        80  -8.7450    216.3629    223.3838   1.0822253491e+02  -5.5952413665e+00    0.2322532    0.1553008 -40.29 0.0009139199    1.636    0.389
        81  -8.5097    173.0255    223.2957   1.1669443171e+02   2.0935328893e+00    0.2248788    0.1853706  88.40 0.0005273797    1.594    0.373
        82  -8.7559    104.6991    223.3964   1.3061280554e+02   1.4202792372e+01     0.309822     0.180545 -88.96  0.001430639    2.322    0.569
        83  -8.2995    194.1693    232.5233   1.1406521354e+02  -3.2201649613e+00    0.1876558    0.1735031  64.03 0.0005948149    1.313    0.239
        84  -8.0747    140.4714    222.9773   1.2326382782e+02   8.0780252957e+00    0.1796948    0.1158423 -86.64 0.0008078083    2.395    0.582
        85  -8.9936    239.0570    221.7962   1.0373377863e+02  -9.0714650268e+00    0.1775271    0.1624051  21.74 0.0004867818    1.244    0.196
        86  -9.1654    225.6763    221.6768   1.0616562717e+02  -6.8921458979e+00     0.247703    0.2004156  10.14  0.001114008    1.119    0.106
        87  -9.2355    192.4433    221.4462   1.1250543903e+02  -1.1047959256e+00    0.2865118    0.2402856  84.75   0.00115324    1.684    0.406
        88  -8.9831    159.0204    220.5227   1.1907880756e+02   5.1617463358e+00    0.2363579     0.190234 -84.84 0.0006980661    1.555    0.357
        89  -8.8005     55.0252    221.7242   1.4018523722e+02   2.1990846870e+01    0.1691778    0.1326084  68.87 0.0004269301    1.087    0.080
        90  -8.5799     82.6345    220.6036   1.3469545654e+02   1.8287318566e+01     0.251421    0.1348786  88.54  0.001132734    2.407    0.585
        91  -8.2559     73.0042    220.8136   1.3662247546e+02   1.9677910916e+01    0.2235547    0.1146993  65.23  0.001071417    2.049    0.512
        92  -8.5310     18.9182    221.2280   1.4673662511e+02   2.6419893749e+01     0.182041    0.1122573  72.15 0.0008262967    1.291    0.226
        93  -8.2576    202.9546    220.3123   1.1024496963e+02  -2.7879974007e+00    0.1857201    0.1589139  28.26 0.0005597751    1.052    0.050
        94  -9.4352    133.0949    217.1509   1.2390130918e+02   1.0545003491e+01    0.5663055    0.3118054 -73.84  0.002346574    2.802    0.643
        95  -9.0909    120.0602    219.2245   1.2690895410e+02   1.2438818239e+01    0.3876555    0.2119746  66.33  0.001550049    2.395    0.582
        96  -7.8648     43.6747    220.7221   1.4222436114e+02   2.3660050301e+01    0.1020499   0.09094939 -56.18 0.0003274599    1.589    0.371
        97  -8.6310    249.3365    218.6990   1.0132747988e+02  -1.0222366553e+01    0.1677311    0.1541124 -77.99 0.0007668753    1.784    0.440
        98  -8.4511    209.9268    218.9459   1.0864999102e+02  -3.7894173217e+00    0.2240734     0.177971 -41.27 0.0008381932    1.405    0.288
        99  -8.4110    153.8893    219.3156   1.1993560466e+02   6.3314787868e+00    0.2783552    0.1078431  48.00  0.001019816    2.451    0.592
       100  -7.9575     98.8044    219.5609   1.3131293591e+02   1.5955990640e+01    0.1841829    0.1067549  54.53 0.0005049433    1.571    0.363
       101  -7.6573      1.4600    219.5106   1.4962098816e+02   2.8531045057e+01    0.1116991   0.07751971  82.13 9.323002e-05    1.006    0.006
       102  -8.3115    108.3150    217.6479   1.2911207477e+02   1.4775296904e+01    0.2147109    0.1377262  71.44 0.0009817245    1.729    0.422
       103  -8.7935     51.7669    217.6949   1.4041880324e+02   2.3264304608e+01     0.239981    0.1258292  80.10 0.0008017722    2.019    0.505
       104  -8.6583    169.1649    216.2899   1.1629493269e+02   4.0668935919e+00     0.242531    0.1772192 -81.80 0.0007874506    2.040    0.510
       105  -8.5349    142.7918    216.5069   1.2178314317e+02   8.9103485924e+00    0.2571421    0.1770721 -77.68  0.001030553    1.904    0.475
       106  -8.2269     61.8615    217.0653   1.3840446244e+02   2.2045843191e+01    0.2132281    0.1161568  78.64 0.0007857939    1.992    0.498
       107  -9.9314     34.0164    214.2546   1.4346152155e+02   2.6180891811e+01    0.5423754    0.2395453 -85.16  0.002685011    2.218    0.549
       108  -8.8370     39.2013    215.4241   1.4259211802e+02   2.5319271488e+01    0.3165834    0.1065934  46.34  0.001478701    2.586    0.613
       109  -8.1312     87.3256    215.6550   1.3315796702e+02   1.8604451793e+01    0.2062556    0.1287461  71.86  0.000910327    1.664    0.399
       110  -8.4473     12.9573    216.0288   1.4741684043e+02   2.8108229092e+01    0.1710856    0.1241753  82.35 0.0003624004    1.014    0.014
       111  -8.6947    232.3423    214.6544   1.0363452734e+02  -6.9252502319e+00    0.2382909    0.1994217 -38.33   0.00114249    1.360    0.265
       112  -8.3289    185.6679    214.5109   1.1263047256e+02   1.3251134584e+00    0.2119859    0.1692652 -74.40 0.0006971215    1.732    0.423
       113  -8.2435    154.4747    215.0455   1.1911655968e+02   7.0359218045e+00    0.1918453    0.1385221 -55.24 0.0005944935    1.539    0.350
       114  -8.5395     93.0984    214.2098   1.3179326792e+02   1.7998523346e+01    0.2617304    0.1535905  61.25  0.001306055    1.681    0.405
       115 -10.0355     72.0466    211.9144   1.3581525681e+02   2.1706527699e+01    0.6339048    0.2820877  54.20  0.002919575    2.157    0.536
       116  -8.3956    224.5897    212.7583   1.0471949174e+02  -5.3310195688e+00    0.1730621     0.122023 -45.60  0.000608372    1.648    0.393
       117  -9.3149    213.8441    212.1575   1.0664728459e+02  -3.3731342753e+00    0.3087532    0.2641981  67.16  0.001454739    1.580    0.367
       118  -8.8527    161.8167    212.5387   1.1716933025e+02   6.1425122791e+00     0.261399     0.208495  83.41 0.0008180939    1.576    0.365
       119  -8.9211    204.4359    211.0593   1.0826870841e+02  -1.5115346879e+00    0.2755134    0.2125525 -66.72 0.0007888584    1.886    0.470
       120  -9.4057    175.5931    210.2767   1.1392533803e+02   3.9726179770e+00    0.3927039    0.2688913 -88.18  0.001501944    2.712    0.631
       121  -7.5576    106.3588    212.6966   1.2883665514e+02   1.6137897557e+01     0.145801   0.09306004  70.00 0.0006562757    1.721    0.419
       122  -8.1259      4.1149    212.1513   1.4870367395e+02   2.9775332787e+01    0.1538756   0.09458397  72.57 0.0003650756    1.286    0.222
       123  -8.3027    192.2953    210.4409   1.1056199049e+02   8.1778568190e-01    0.2165687    0.1703138 -68.71 0.0007455881    1.746    0.427
       124  -8.7686    148.1128    210.6662   1.1972181458e+02   9.0761862729e+00    0.2844807     0.207772  83.10   0.00111085    1.793    0.442
       125  -8.8956    116.2588    210.5666   1.2644772478e+02   1.4884782971e+01    0.3025962    0.1986876  74.73 0.0008742689    1.807    0.446
       126  -9.0223    236.5101    208.3703   1.0168196778e+02  -6.6470468556e+00    0.3291003    0.2566121 -70.52  0.001373022    2.279    0.561
       127  -8.1797    237.5047    204.5074   1.0075827727e+02  -6.2102287745e+00    0.1317327    0.1142803   0.14 1.281474e-05    1.001    0.001
       128  -8.4728     98.7703    210.5656   1.3013314034e+02   1.7854326808e+01    0.1963842    0.1100858  53.61 0.0009443145    1.667    0.400
       129  -8.5605     85.9417    209.8987   1.3272216513e+02   2.0051217818e+01    0.3122799    0.1673708  73.82  0.001355231    2.447    0.591
       130  -9.5774     25.5354    207.8967   1.4451377536e+02   2.8486294000e+01    0.3958236    0.1914749 -86.40  0.001410409    1.846    0.458
       131  -7.9699    156.5137    208.4635   1.1757955383e+02   7.9295344537e+00    0.1419683    0.1279427  57.03 7.741617e-05    1.064    0.060
       132  -8.9353    138.0457    208.2911   1.2146391960e+02   1.1427383205e+01    0.4119184    0.1852827  39.12  0.001671237    2.174    0.540
       133  -8.1347    126.4678    208.5303   1.2396972924e+02   1.3495931054e+01     0.142006    0.1232373  67.62 0.0001394496    1.063    0.059
       134  -9.1179     99.3814    206.1599   1.2939725234e+02   1.8701920162e+01    0.3670332     0.222633  81.21  0.001333828    2.100    0.524
       135  -9.1560     79.9494    206.3480   1.3352151153e+02   2.1743508644e+01    0.2430503    0.1843001  76.98 0.0006113935    1.188    0.158
       136  -8.9547     56.5859    205.4572   1.3822326087e+02   2.5262846272e+01    0.2391946    0.1241584  82.26 0.0009655599    2.243    0.554
       137  -9.4287    194.8820    203.4069   1.0873061689e+02   1.5874810434e+00    0.4228452    0.2954462 -55.38  0.001552487    1.750    0.428
       138  -9.4751    192.3859    197.3827   1.0808230798e+02   3.1614167466e+00    0.4305442    0.3064941 -59.15  0.001307072    1.768    0.434
       139  -9.1600    183.7334    204.0387   1.1111565413e+02   3.5847300846e+00    0.3283493    0.2246983  64.41  0.001041573    1.954    0.488
       140  -8.5814    179.1119    204.0595   1.1207126294e+02   4.4635407376e+00    0.2477593    0.1824175  32.43 0.0005074498    1.330    0.248
       141  -8.0032     89.2970    205.3020   1.3142087691e+02   2.0523574353e+01    0.1200532     0.107208 -29.90 0.0003139243    1.579    0.367
       142  -9.6533    163.7699    203.0294   1.1509163765e+02   7.6097764735e+00    0.4194393    0.2677583  63.34  0.001020247    1.996    0.499
       143  -8.6976    131.2387    204.1010   1.2224109538e+02   1.3551265125e+01    0.2758289    0.1687164  66.40   0.00102688    2.029    0.507
       144  -8.1028    122.0695    204.0798   1.2421741031e+02   1.5224810955e+01    0.1656349    0.1516141  76.20 0.0004234269    1.036    0.035
       145  -9.3252     12.7309    203.6661   1.4656145961e+02   3.0715046543e+01    0.2367054    0.1470366  69.08  0.001143812    1.361    0.265
       146  -9.3354    243.0675    200.7431   9.9022545727e+01  -6.5438358162e+00     0.343901     0.179166 -37.67   0.00111767    1.857    0.461
       147  -8.2508    210.9697    202.0388   1.0528119144e+02  -1.1581592004e+00    0.1992846     0.170864  88.93 0.0004831348    1.682    0.405
       148  -8.8529    140.3396    201.0907   1.1977113007e+02   1.2482933010e+01    0.3538999    0.2276701 -88.85  0.001176615    2.478    0.596
       149  -8.3439     48.2445    202.2414   1.3956696951e+02   2.7049003460e+01    0.1998137   0.08916245 -83.15 0.0006477838    2.442    0.591
       150  -8.5657     79.8076    201.0485   1.3287564105e+02   2.2934166304e+01    0.2315332    0.1336445  80.36  0.001063979    2.105    0.525
       151  -9.0366    237.0528    198.7082   9.9710107431e+01  -5.2136378696e+00    0.2732537    0.1778169 -49.09  0.001002406    1.874    0.466
       152  -9.4009    149.6492    198.7059   1.1733938728e+02   1.1201375419e+01    0.4548156    0.3018789  89.25  0.001506241    2.426    0.588
       153  -8.9372    123.8668    199.2502   1.2305436642e+02   1.5933415089e+01    0.2940894    0.1941357 -78.00 0.0008130048    1.855    0.461
       154  -9.0524    112.7848    198.5186   1.2536760700e+02   1.8078666615e+01    0.4240357    0.2493603  82.89  0.001710393    2.665    0.625
       155  -8.4238    177.0226    199.0389   1.1156952160e+02   5.8203500034e+00     0.215194    0.1743413  88.40 0.0005421704    1.637    0.389
       156  -8.9250    105.5117    199.0269   1.2703873946e+02   1.9229499854e+01    0.2503209    0.1887616  52.23 0.0004769979    1.239    0.193
       157  -8.8864     88.5447    198.6660   1.3068038126e+02   2.2109606831e+01    0.3040669    0.1840881  80.96  0.001415338    2.007    0.502
       158  -9.2248    246.3036    207.3174   9.9717169829e+01  -8.0797205218e+00    0.2626432    0.1910777 -25.84  0.000512671    1.279    0.218
       159  -8.2801    202.0370    197.9466   1.0624718705e+02   1.2202119438e+00     0.208281    0.1745604  89.65  0.000629505    1.689    0.408
       160  -9.7855     61.5866    197.1291   1.3624851482e+02   2.6436748953e+01    0.4423524    0.2295573  71.89  0.001444381    2.315    0.568
       161  -9.8242     53.3264    197.6997   1.3803990605e+02   2.7407456753e+01    0.2731494    0.1981417  50.08  0.001660877    1.377    0.274
       162  -9.4112    250.1098    202.0514   9.8029044435e+01  -7.8897467899e+00    0.3651553     0.173661 -35.63  0.001341189    1.982    0.496
       163  -8.7838    215.8758    195.7674   1.0310269784e+02  -9.7358815456e-01    0.2418805    0.1792353 -66.10 0.0007619843    2.037    0.509
       164  -8.3053    133.3308    196.0932   1.2044765678e+02   1.4859635551e+01    0.2044553     0.129955 -68.02 0.0005503168    1.847    0.458
       165  -8.7027    224.3728    194.2190   1.0117285676e+02  -2.2531208489e+00    0.2262873    0.1658075 -43.53 0.0007140598    1.453    0.312
       166  -7.5633    209.2913    195.6736   1.0436595389e+02   2.6299843424e-01    0.1311986     0.113049 -86.00 0.0003848232    1.618    0.382
       167  -8.7367    185.2464    194.8422   1.0905613223e+02   5.0219070553e+00    0.2548036    0.2157314 -81.26 0.0008103142    1.510    0.338
       168  -9.1733    161.0510    194.5334   1.1411580768e+02   9.8365483924e+00    0.2969027    0.2225525 -87.66  0.001004857    1.823    0.451
       169  -9.4499    245.5004    193.2571   9.7113520329e+01  -5.7651660603e+00    0.2856415    0.2038659 -56.82  0.001039586    2.015    0.504
       170  -8.5936     76.9474    194.1116   1.3257826191e+02   2.4921949125e+01    0.2141096    0.1558549  77.14  0.000616363    1.311    0.237
       171  -9.0275     43.8814    193.3970   1.3952738989e+02   2.9553532441e+01    0.3562212    0.1721068  78.43  0.001583867    2.568    0.611
       172  -8.5076      6.1529    194.1612   1.4706989135e+02   3.3367715869e+01     0.164074    0.1279892 -81.86 0.0004556518    1.181    0.153
       173  -7.8865    230.9934    194.4952   9.9989789045e+01  -3.4775129581e+00    0.1654163    0.1211295  68.54 0.0004690492    2.252    0.556
       174  -8.4736    198.8715    192.0246   1.0571624021e+02   2.9034700597e+00    0.2066677    0.1936035 -83.72 0.0005588465    1.281    0.220
       175  -8.5065    172.6561    192.0844   1.1116551172e+02   8.0378190347e+00    0.2238061    0.1810783 -71.62 0.0008981893    1.500    0.333
       176  -9.1040    139.6003    190.8744   1.1814346444e+02   1.4787345622e+01    0.3944127    0.2531936  76.10  0.001156662    2.309    0.567
       177  -8.0666    117.9852    192.0320   1.2317047900e+02   1.8580460884e+01    0.1731212    0.1576417  77.57 0.0004913704    1.011    0.011
       178 -10.4326     92.0631    188.9545   1.2850266621e+02   2.3738721005e+01    0.8750685    0.3274445  54.43  0.003042021    3.313    0.698
       179  -8.2710     17.0376    191.7055   1.4477994215e+02   3.2869330625e+01    0.1615166    0.1249137  76.35 0.0005945069    1.123    0.109
       180  -8.5282    148.4774    189.4439   1.1591371022e+02   1.3366291717e+01    0.2443005    0.1411265 -63.34 0.0007902312    2.152    0.535
       181  -8.3600    237.1609    188.6183   9.7679576355e+01  -3.5828246208e+00    0.2238031    0.1711649 -41.05 0.0007377708    1.352    0.260
       182  -9.3929    155.9582    187.8752   1.1396945276e+02   1.2218916760e+01    0.3784915    0.2404522 -60.42  0.001052495    1.821    0.451
       183  -8.8480    129.3611    188.7677   1.2005812112e+02   1.7198825984e+01     0.289581    0.2144931  73.89  0.000962676    1.529    0.346
       184  -9.7105    121.0032    186.9540   1.2162997586e+02   1.9160656267e+01    0.5873643    0.3068022 -74.40  0.002119315    3.069    0.674
       185  -8.1151     70.8790    189.1236   1.3324134594e+02   2.6949872896e+01    0.1636963    0.1536049 -68.91 0.0003611487    1.263    0.208
       186  -8.8776     49.1528    188.3983   1.3786485579e+02   3.0035792827e+01    0.3802494    0.1262849  45.09  0.001424518    2.849    0.649
       187  -8.5872     33.8963    187.9882   1.4103076301e+02   3.1927977474e+01    0.2986398    0.1293482  86.17   0.00122221    3.040    0.671
       188  -8.6618    216.6206    188.0711   1.0141601630e+02   2.3847413683e-01    0.2230263    0.1935507  51.12 0.0006920173    1.295    0.228
       189  -8.8938    191.5439    187.6848   1.0634181927e+02   5.1519889723e+00    0.2965879    0.2281977 -82.51  0.001218168    1.928    0.481
       190  -8.6898    164.8726    187.2009   1.1189232077e+02   1.0578376255e+01    0.2481947    0.2024424 -68.81 0.0007109265    1.404    0.288
       191  -9.2646     54.6798    186.9760   1.3650805764e+02   2.9658366053e+01    0.4001584    0.2060497  75.13  0.001674768    2.451    0.592
       192  -9.0694    109.2734    186.0624   1.2414738489e+02   2.1479473147e+01    0.3417734    0.2289088  89.33 0.0009169227    1.846    0.458
       193  -8.8136     28.5018    187.2480   1.4206967012e+02   3.2681674797e+01    0.1927767    0.1516981  55.15  0.000533389    1.329    0.248
       194  -8.6504    249.1049    185.5738   9.4938961806e+01  -5.1350124061e+00    0.2505746    0.1696428 -46.62 0.0008740756    1.643    0.391
       195  -8.6244    210.1927    184.6081   1.0196148638e+02   2.0836564118e+00     0.234443     0.184853 -47.44 0.0006028398    1.361    0.265
       196  -8.5467    202.8622    185.0851   1.0351460994e+02   3.4176413920e+00    0.2120406     0.197011 -87.05 0.0005265038    1.301    0.231
       197  -8.7533    182.9395    185.1156   1.0761525264e+02   7.3671102706e+00    0.2218355    0.1991887  88.74 0.0006388083    1.308    0.236
       198  -8.9163     66.5807    184.7595   1.3361126610e+02   2.8565345397e+01    0.3195931    0.1854718  68.77  0.001066145    1.926    0.481
       199  -8.2840    224.1891    183.8462   9.9108206278e+01  -4.2763434125e-01    0.1983095    0.1862602 -49.17 0.0004096225    1.226    0.185
       200  -8.8432    174.3195    183.6326   1.0914804602e+02   9.4034834078e+00    0.2999085    0.2348845 -87.82 0.0008160991    1.722    0.419
       201  -7.9020    143.5067    184.5108   1.1609935557e+02   1.5402569984e+01     0.147693    0.1397135  66.13 6.393132e-05    1.001    0.001
       202  -8.0389      1.8698    183.8475   1.4709825354e+02   3.5971307417e+01    0.1574313    0.1032847  71.72 0.0008347592    1.327    0.247
       203  -8.9974     44.5622    182.6269   1.3818529634e+02   3.1915084621e+01    0.3228156    0.1609678  65.00  0.001105172    2.288    0.563
       204  -8.4030    240.5547    181.2566   9.5568386690e+01  -2.9476861050e+00    0.2648895    0.1215138 -42.49  0.001136573    2.147    0.534
       205  -8.1997     60.2571    182.0031   1.3465652039e+02   3.0070012977e+01    0.1850113    0.1513186 -87.04 0.0005019029    1.031    0.030
       206  -9.5664     25.7967    179.2377   1.4183256453e+02   3.4767337639e+01    0.6156028    0.2436773  83.19  0.002181387    4.284    0.767
       207  -9.2766    147.4929    180.5241   1.1444050725e+02   1.5478559224e+01    0.3550448    0.2648568  88.47  0.001160855    1.736    0.424
       208  -8.4194    137.6560    179.6324   1.1650240400e+02   1.7623268245e+01    0.2955819    0.2027682  79.97  0.001103998    2.009    0.502
       209  -8.0190    114.5453    180.5107   1.2198817723e+02   2.1801629312e+01    0.1489073    0.1314239  80.56 5.497213e-05    1.077    0.072
       210  -9.4045    191.5906    178.4768   1.0444888100e+02   6.9279517966e+00    0.3284609    0.2579219  67.98 0.0006416076    1.579    0.367
       211  -8.6918    250.5086    172.9577   9.2113777853e+01  -3.2995111526e+00     0.240129    0.1864547 -23.05 0.0005249722    1.174    0.149
       212  -9.1266    248.9046    177.3745   9.3301608723e+01  -3.7569832750e+00    0.2752838    0.2490558 -39.37  0.001047209    1.215    0.177
       213  -8.3352    247.3217    173.7211   9.2820674594e+01  -2.8709544200e+00     0.219034    0.1261394 -39.61 0.0004661176    1.616    0.381
       214  -8.6738    231.4367    177.5576   9.6456057721e+01  -6.6700555708e-01     0.241089    0.1836918 -51.14 0.0007585497    1.494    0.331
       215  -8.7572    205.0934    177.7012   1.0153976211e+02   4.3655809080e+00    0.2537723    0.1915906 -50.91 0.0006740685    1.441    0.306
       216  -7.6936    169.3358    178.6789   1.0922454378e+02   1.1437237833e+01    0.1533535    0.1186771  83.12 0.0004517837    1.707    0.414
       217  -8.5409    129.3449    177.4745   1.1800647633e+02   1.9721876419e+01     0.324233    0.2074719  88.89  0.001026492    2.450    0.592
       218  -8.7102    101.2490    178.3985   1.2471778019e+02   2.4639275007e+01    0.2764358    0.1644262  52.86  0.001267575    1.695    0.410
       219  -8.9597     35.7977    176.5710   1.3939859747e+02   3.4313245759e+01    0.4362212    0.1879543  82.66  0.001603278    3.793    0.736
       220  -8.2725    217.4168    177.2491   9.9028963606e+01   2.0356158680e+00    0.1949633    0.1311319 -49.19 0.0006195921    1.620    0.383
       221  -8.9602    183.1442    176.2398   1.0575209552e+02   9.0985354722e+00    0.2981172    0.2333763 -58.04 0.0006328179    1.422    0.297
       222  -8.6327     89.1099    177.0501   1.2733235423e+02   2.6973381929e+01     0.267479    0.1622914  67.84 0.0008811183    1.963    0.491
       223  -9.9142     57.4198    173.4120   1.3415467974e+02   3.2449931929e+01    0.7706133    0.3513884  84.56  0.002438935    4.748    0.789
       224  -8.5972     12.8384    176.6707   1.4429154345e+02   3.6592878248e+01    0.2370777    0.1166919  79.45 0.0008389466    2.095    0.523
       225  -7.8611    211.5290    176.5028   1.0001514593e+02   3.3193514750e+00    0.1434026    0.1347434  -4.75 2.384862e-05    1.005    0.005
       226  -9.1395    158.7168    175.1495   1.1085010794e+02   1.4364824663e+01    0.3689386    0.2621189 -89.83 0.0009607902    2.081    0.519
       227  -9.1171    104.3700    174.8929   1.2338490981e+02   2.4915252779e+01    0.5208476    0.2614422  65.09  0.001674638    3.214    0.689
       228 -10.6974     75.9438    171.0721   1.2948696447e+02   3.0421524529e+01     1.099017    0.4362072 -76.30  0.003210437    4.822    0.793
       229  -9.3800     74.3704    160.3239   1.2814062966e+02   3.3215107746e+01    0.2594704    0.1930658  -7.43 0.0009160686    2.247    0.555
       230  -8.0228    224.4800    174.4992   9.7107732849e+01   1.1797214654e+00    0.1394721    0.1319243 -20.05  9.25733e-06    1.067    0.062
       231  -9.2858    175.7051    172.3298   1.0652509809e+02   1.1439426891e+01     0.366327    0.2503777 -49.10 0.0008368775    1.509    0.337
       232  -8.1466    143.0404    173.0182   1.1397820054e+02   1.8023929125e+01     0.237409    0.1808813  85.62 0.0007196245    1.627    0.385
       233  -8.5836    194.7528    172.3956   1.0251522414e+02   7.4791168500e+00    0.2123605    0.1370254  34.25 0.0008004418    1.644    0.392
       234  -8.3834    134.8231    172.0801   1.1569638592e+02   1.9873259898e+01    0.2404685    0.1996609  84.47 0.0007976035    1.312    0.238
       235  -9.5011    121.4353    170.4312   1.1852673286e+02   2.2842414224e+01    0.4340018    0.2766652 -76.16  0.001137864    2.013    0.503
       236  -9.1335     45.0548    171.2065   1.3669321990e+02   3.4500316748e+01    0.3390777    0.1924073  83.92  0.001173197    1.968    0.492
       237  -8.9621    230.4739    170.4185   9.5131649870e+01   7.7372287072e-01    0.2507798    0.2211007 -23.57 0.0007439055    1.051    0.049
       238  -8.5672    205.6992    170.5302   9.9898270847e+01   5.6103380788e+00    0.2415019    0.1751378 -61.19 0.0006557456    1.731    0.422
       239  -8.7876     39.4547    170.5190   1.3787677259e+02   3.5305037592e+01    0.2572676    0.1370487  46.07  0.001291423    1.944    0.486
       240  -9.0251     20.2311    170.6423   1.4214138561e+02   3.7266042284e+01     0.201517    0.1474825  77.35  0.000542443    1.229    0.186
       241  -8.2446    237.1602    169.8430   9.3797998999e+01  -3.7398738127e-01    0.2020016    0.1827971 -53.81 0.0005780704    1.268    0.212
       242  -8.7891    198.4767    170.1735   1.0127724385e+02   7.1516063771e+00    0.2259412    0.2044984  83.20 0.0005199202    1.304    0.233
       243  -9.0552    167.1087    168.6584   1.0763143832e+02   1.4010817782e+01    0.3650362    0.2605129  81.91   0.00121739    2.063    0.515
       244  -8.3667    149.9185    169.9276   1.1177245877e+02   1.7310795220e+01    0.2411034    0.1836199  83.94 0.0007835519    1.664    0.399
       245  -9.1188    111.6425    168.3735   1.2047589501e+02   2.5141479408e+01    0.4281562    0.2239105 -59.89  0.001772452    1.944    0.486
       246  -8.1199    244.4501    169.4339   9.2424511673e+01  -1.6322981587e+00    0.1355051    0.1225805 -22.74 8.641737e-05    1.047    0.045
       247  -8.3695    218.7318    168.5674   9.6933921270e+01   3.3769635541e+00    0.2248314    0.1735263 -61.32 0.0006096622    1.606    0.377
       248  -8.3837     88.5177    168.5203   1.2606962560e+02   2.9081388015e+01    0.2546737     0.131034 -72.29 0.0009742119    2.276    0.561
       249  -8.9483    191.9828    166.5908   1.0183971241e+02   9.2082525878e+00    0.2749332    0.2038283 -59.28 0.0005647993    1.559    0.359
       250  -8.9427    185.0942    166.6457   1.0329758086e+02   1.0642984220e+01    0.2570516    0.2048192 -56.80 0.0005439502    1.358    0.263
       251  -9.2015     20.5859    166.2574   1.4160317895e+02   3.8232217437e+01    0.3522414    0.1515756  62.22  0.001137543    2.895    0.655
       252  -9.8829    136.6107    164.3651   1.1372488404e+02   2.1268620915e+01     0.610831    0.3271711  63.97  0.002132102    2.882    0.653
       253  -9.9115    105.7322    158.0087   1.1994161712e+02   2.8655279085e+01    0.4802203    0.3296857  85.73  0.001132046    1.895    0.472
       254 -10.4844     94.9174    162.3515   1.2343184688e+02   2.9497063771e+01    0.9522205    0.5434205 -79.02  0.003158181    2.372    0.578
       255  -8.8964    100.3130    156.3500   1.2097034853e+02   3.0006524887e+01    0.3641303     0.247585  71.68  0.001142886    1.809    0.447
       256  -8.1699    233.9928    165.0594   9.3349364554e+01   1.0644214772e+00    0.2134528    0.1691757 -66.48 0.0006717221    1.670    0.401
       257  -8.6704    159.4942    164.3674   1.0842263301e+02   1.6538929030e+01    0.3179389    0.2342013 -87.11 0.0008970249    1.877    0.467
       258  -8.9294     63.1659    164.6429   1.3154918015e+02   3.3761167999e+01    0.2620881     0.191144 -86.24 0.0005688373    1.308    0.235
       259  -8.6197     60.2785    160.1303   1.3156244082e+02   3.5221055808e+01    0.3153708    0.1780835  75.77  0.001174462    2.413    0.586
       260  -9.5348     33.4720    163.4506   1.3837709709e+02   3.7600073919e+01    0.5243067    0.2257949  60.53  0.002210502    3.068    0.674
       261  -8.0519    239.9918    164.3252   9.2124389288e+01   6.9227021614e-02    0.1839226    0.1742603  -6.52 0.0004608243    1.074    0.069
       262  -8.4991    212.9881    163.5395   9.6950579892e+01   5.4697494487e+00    0.2759723    0.1954169 -54.73 0.0006352222    1.603    0.376
       263  -9.0646    246.0518    163.0372   9.0797610914e+01  -8.2022903435e-01    0.2090486    0.1847465 -25.22 0.0004143343    1.018    0.018
       264  -8.5060    204.9221    162.9225   9.8402475407e+01   7.2408115258e+00    0.2243577    0.1824026 -77.92 0.0004718151    1.614    0.380
       265  -7.8474    127.5800    162.8523   1.1556763816e+02   2.3410933514e+01    0.2097009    0.1421526 -66.92 0.0006621196    1.629    0.386
       266  -9.2037      3.4287    162.4844   1.4496010261e+02   4.0559318558e+01    0.3554606    0.1621466  62.95  0.001818924    2.469    0.595
       267  -8.8860    177.5340    160.6738   1.0361274994e+02   1.3488583135e+01    0.2946921    0.2464994 -73.15 0.0007776978    1.386    0.279
       268  -8.6014    151.6453    161.1007   1.0951814624e+02   1.8910069811e+01    0.2446024    0.1893836 -69.24 0.0008916244    1.456    0.313
       269  -8.5382    227.3700    159.1638   9.3278921572e+01   3.4121408263e+00    0.2643352    0.2044157 -64.57  0.001100704    1.643    0.391
       270  -8.8464     84.5016    159.8389   1.2555427964e+02   3.1791599942e+01    0.2173332    0.1766177  83.14 0.0005185252    1.236    0.191
       271 -10.0438     81.5447    154.7277   1.2538584903e+02   3.3478506692e+01    0.6418893    0.3631996  85.23  0.001524514    3.033    0.670
       272  -9.6980    250.2194    157.9409   8.9009018135e+01  -6.9712342080e-01    0.3422992    0.1747566 -35.89 0.0008349216    1.775    0.437
       273  -8.4559    236.9568    158.9646   9.1509318448e+01   1.5905142046e+00    0.2158545     0.171298 -69.67 0.0008718305    1.688    0.408
       274  -9.1958    167.6360    157.5752   1.0510636854e+02   1.6277658536e+01    0.3961017    0.2909863 -84.24  0.001473789    1.916    0.478
       275  -8.4031    196.7824    158.1100   9.8981376196e+01   9.8992666018e+00    0.2286659    0.2040621 -69.28 0.0007260788    1.252    0.201
       276  -8.2629    188.0282    157.5273   1.0066813126e+02   1.1888523641e+01    0.2390095    0.1992016 -44.19 0.0005031902    1.191    0.161
       277  -8.4005    144.6596    155.0966   1.0984977323e+02   2.1722488454e+01    0.3073063    0.2101909 -75.75  0.001277241    1.973    0.493
       278  -8.6941     79.0876    158.4754   1.2666043824e+02   3.2954786769e+01    0.2038838    0.1394183  39.47  0.001028496    1.582    0.368
       279  -9.2351     42.4254    157.4563   1.3549378143e+02   3.8032938857e+01    0.2191004    0.1876125 -83.48 0.0005315009    1.052    0.049
       280  -8.1767    217.8877    156.5837   9.4480201932e+01   5.7947735203e+00    0.2941636     0.176579 -53.42 0.0009371503    1.922    0.480
       281  -8.7413    157.5597    156.0118   1.0704231447e+02   1.8784620550e+01    0.3453257     0.217293 -54.94 0.0008000324    1.680    0.405
       282  -9.3183    119.4802    155.3588   1.1600380604e+02   2.6730104548e+01     0.429625    0.2800647 -82.15  0.001594238    2.171    0.539
       283  -9.3615     49.4325    155.2032   1.3347266032e+02   3.7754822831e+01    0.3568287    0.2100426  78.91  0.001487524    2.107    0.525
       284  -8.9145    242.9385    155.0537   8.9623231346e+01   1.1529335470e+00    0.1924561    0.1584217 -55.75 0.0004099426    1.355    0.262
       285  -8.2582    204.6230    155.2769   9.6765215698e+01   8.8018517969e+00    0.2100833    0.1384682 -32.60  0.000624526    1.564    0.361
       286  -9.8956     67.6970    153.8750   1.2872545492e+02   3.5714584806e+01    0.4291732    0.2521435  85.42  0.001271735    2.365    0.577
       287  -9.6506    132.8667    153.1339   1.1225174000e+02   2.4603591319e+01     0.452945    0.3244496  87.49  0.001283596    1.896    0.473
       288  -9.4938    133.4871    148.4954   1.1108319720e+02   2.5547794357e+01    0.3892618    0.2491187 -43.59  0.001608799    1.602    0.376
       289  -8.7985     20.0455    152.9740   1.4023147231e+02   4.1333618980e+01    0.1940956    0.1224715  76.87 0.0005401145    1.629    0.386
       290  -9.7954     28.9569    150.4599   1.3779950425e+02   4.1086866837e+01    0.4555499    0.2202033  72.80  0.001923636    3.082    0.676
       291  -9.4766    248.8732    149.4315   8.7410135204e+01   1.0300766824e+00     0.336729    0.1761772 -40.15  0.000847692    1.711    0.416
       292  -9.4641    242.6068    149.9772   8.8579313419e+01   2.1171405237e+00    0.3069585    0.2707766  56.74  0.001723909    1.309    0.236
       293  -8.8826    189.3681    150.2112   9.8728904790e+01   1.3102786324e+01    0.3233487    0.2201018 -56.28 0.0007407091    1.631    0.387
       294  -7.6954    182.4963    151.4742   1.0047357692e+02   1.4343534158e+01    0.1545068    0.1480481 -81.09 8.975158e-05    1.087    0.080
       295  -8.4792    128.2687    159.1306   1.1463819953e+02   2.4137048113e+01    0.2927339    0.1922478  69.77  0.001216585    2.006    0.502
       296  -8.8278     98.1996    150.6772   1.2039407023e+02   3.1727822980e+01    0.3073824    0.2165107 -87.01 0.0009776572    1.728    0.421
       297  -8.3633    237.0197    150.4931   8.9653850817e+01   3.1028099547e+00    0.1966367    0.1410342  43.76 0.0004372328    1.507    0.337
       298  -7.9340    212.8598    149.8485   9.3932323461e+01   8.1264302631e+00    0.1958265    0.1709057 -65.12 0.0003205602    1.277    0.217
       299  -8.3371    198.9361    149.0033   9.6483340708e+01   1.1266470201e+01    0.2330664      0.18358 -76.97 0.0004978933    1.637    0.389
       300 -10.2411     89.1265    146.8083   1.2196090201e+02   3.4177937321e+01    0.6711324    0.4374785 -79.23  0.002574882    1.833    0.454
       301 -10.5210     61.5316    135.8672   1.2716044479e+02   4.0860255606e+01    0.6595678    0.2848242  33.16  0.000796021    2.651    0.623
       302  -8.8199     53.2690    149.3931   1.3163082188e+02   3.8674603349e+01    0.2715099    0.1973659  47.93 0.0008377581    1.493    0.330
       303 -10.3752     54.7916    144.6669   1.3047703747e+02   3.9615400235e+01    0.7891477    0.4205617  81.64  0.003012186    3.233    0.691
       304  -9.8780     39.9973    148.1270   1.3476856490e+02   4.0503752651e+01    0.4443084    0.2329337  65.49  0.001925611    2.563    0.610
       305  -8.2716    233.4871    147.5121   8.9615225884e+01   4.3410351391e+00    0.2529603    0.1308143 -29.28 0.0007079648    2.145    0.534
       306  -9.3873     77.7588    147.0257   1.2494720735e+02   3.5906259592e+01     0.298872    0.2082862  89.95 0.0008932286    1.682    0.405
       307  -8.1037    223.4705    146.9869   9.1296511661e+01   6.4654911483e+00    0.2166242    0.1363073 -41.23  0.000500573    1.493    0.330
       308 -10.2273    148.9468    144.7933   1.0651304456e+02   2.3137852374e+01    0.6575855     0.411091 -69.18  0.001650177    2.236    0.553
       309  -9.7849    139.1627    145.2619   1.0897116086e+02   2.5113451684e+01     0.431229    0.2628037 -63.11  0.001159005    1.952    0.488
       310 -10.5245    106.3976    144.0398   1.1692677827e+02   3.1856450183e+01    0.7705742     0.461318 -85.52  0.002223908    3.002    0.667
       311 -10.0073     73.0765    129.5356   1.2277748227e+02   4.0779590975e+01    0.4346897    0.2767893 -76.31  0.001161723    1.847    0.458
       312  -8.8116     74.8763    134.6117   1.2331627951e+02   3.9309831069e+01    0.2593141    0.1912127  89.37 0.0008448527    1.589    0.371
       313 -11.2303     69.1484    141.1114   1.2610159103e+02   3.8575809401e+01    0.8126989    0.4633364 -58.67  0.002709157    1.550    0.355
       314  -9.6525     70.4631    134.0233   1.2439577302e+02   4.0085924592e+01     0.468995     0.246358  17.30  0.001772432    3.469    0.712
       315  -9.0728     13.1849    146.1729   1.4104862962e+02   4.3480258066e+01    0.3104481    0.1525174  70.06  0.001177664    2.637    0.621
       316  -7.8144    206.5327    146.5352   9.4405246385e+01   1.0118746989e+01    0.1494923    0.1436904 -45.06 0.0001966171    1.035    0.033
       317  -8.1118    175.4214    146.2520   1.0080248505e+02   1.7004886250e+01    0.2172852    0.1456842 -56.09  0.000468421    1.623    0.384
       318  -9.0828     33.1604    145.3216   1.3607110997e+02   4.1875256404e+01    0.3238616    0.1637169  65.94   0.00143899    2.761    0.638
       319  -8.5572    240.2041    145.4128   8.7989227900e+01   3.3989342442e+00    0.2134236     0.184349 -23.09  0.000418353    1.116    0.104
       320  -8.0617    242.6858    143.3500   8.7116428923e+01   3.2863218355e+00     0.148697    0.1332033 -23.22 0.0008490068    1.070    0.066
       321  -9.6924    125.1084    142.9062   1.1191114156e+02   2.8541528312e+01    0.5212063    0.3326047 -83.82  0.001341834    2.595    0.615
       322  -9.9692      2.6950    142.2211   1.4308331455e+02   4.5169683022e+01    0.4492418    0.1967674  89.81  0.002105707    2.544    0.607
       323  -9.1086    246.9962    143.8468   8.6508926016e+01   2.3678739673e+00    0.2696685    0.1835192 -31.08 0.0005927836    1.384    0.277
       324  -8.4704    250.3882    141.2304   8.5386848153e+01   2.1845615414e+00    0.2103085    0.1834128 -18.58 0.0005528326    1.141    0.124
       325  -8.0847    194.4315    143.9328   9.6228685224e+01   1.3276513341e+01    0.2145659    0.1291443 -63.38 0.0006005283    2.377    0.579
       326  -8.6332    165.6038    144.1208   1.0249222778e+02   1.9640600987e+01    0.2630197    0.2139076  65.47 0.0006396986    1.341    0.254
       327  -8.4989    182.1133    141.8442   9.8318866141e+01   1.6446028205e+01    0.2405693    0.2074692 -80.48 0.0006689243    1.321    0.243
       328  -9.0247     46.0393    140.7355   1.3209991693e+02   4.1586709372e+01    0.2285843    0.1684723  60.42  0.001018805    1.498    0.332
       329  -7.9246    226.0632    140.5622   8.9376333901e+01   7.1382247696e+00    0.1938654    0.1311079  80.26 0.0008059859    2.429    0.588
       330  -9.9089     22.9884    138.3932   1.3766021271e+02   4.4447495238e+01    0.4794714     0.306807  63.95   0.00203368    1.792    0.442
       331  -8.4409    242.1577    139.1663   8.6282557710e+01   4.1407165147e+00    0.3185701    0.1884939  79.80  0.001089563    4.210    0.762
       332 -10.2920    132.2838    131.5157   1.0744750979e+02   2.9698015895e+01    0.7699307    0.4874291  80.47  0.002737438    2.906    0.656
       333  -7.9751    207.4258    138.1587   9.2293393452e+01   1.1576528240e+01    0.2100213    0.1368748 -52.06 0.0005795565    1.604    0.376
       334  -8.5055    197.4700    137.5476   9.4113245924e+01   1.3897366240e+01    0.3017021    0.1989199 -66.63  0.001232905    2.081    0.519
       335  -8.2829    172.2200    138.2243   9.9613012344e+01   1.9434672993e+01    0.2164467    0.1835214 -83.59 0.0004810564    1.358    0.264
       336  -8.7881     93.0682    137.7010   1.1906938081e+02   3.5703730990e+01     0.405077    0.1819092  51.17   0.00149913    2.692    0.629
       337 -10.4274     83.2243    133.3597   1.2079701628e+02   3.8340186640e+01    0.6334489    0.3522845 -57.54  0.001868451    1.658    0.397
       338  -9.5844     39.0299    136.2079   1.3320564019e+02   4.3418770288e+01    0.2798401    0.1795163  88.60  0.001014002    1.753    0.430
       339  -9.1965    248.4621    135.3228   8.4406519648e+01   3.5959036080e+00    0.3097172    0.1941692 -39.29 0.0007193906    1.417    0.294
       340  -8.9318    250.7408    130.0771   8.2895500574e+01   4.0805544953e+00    0.4469721     0.118327 -37.36   0.00140549    3.525    0.716
       341  -8.1709    162.7287    136.5873   1.0135697847e+02   2.1922085945e+01    0.2138264    0.1505741  59.06 0.0005497725    1.548    0.354
       342  -7.7728    130.3049    136.3490   1.0909658723e+02   2.9003093504e+01    0.1580311    0.1248912 -12.37 0.0007041552    1.700    0.412
       343  -8.2041    237.5076    133.5051   8.5798196282e+01   6.0950916759e+00    0.2544887    0.1205792 -48.13 0.0009580543    2.119    0.528
       344  -8.6045    179.3325    133.8414   9.7003216560e+01   1.8752863379e+01    0.3027192    0.2286268 -67.76 0.0008874513    1.568    0.362
       345  -9.4114    112.8794    133.5835   1.1292234225e+02   3.3113258505e+01    0.3208792    0.2497192 -87.25 0.0009261357    1.551    0.355
       346 -10.3987     98.2759    129.5738   1.1588931331e+02   3.6733050225e+01    0.9604238    0.2904286 -51.62  0.003070826    3.064    0.674
       347  -8.9092    143.1342    131.7088   1.0480578774e+02   2.7337619153e+01    0.3182349    0.2358734 -77.20 0.0008513436    1.722    0.419
       348  -8.9187     31.0090    130.3734   1.3440541964e+02   4.5581649459e+01    0.2273477    0.1562575  89.14 0.0007265672    1.538    0.350
       349  -9.8037     12.8990    129.3452   1.3900379996e+02   4.7350973814e+01    0.4132645    0.2220491  78.39  0.002061727    2.421    0.587
       350  -8.4884    246.8754    130.1171   8.3513241807e+01   4.8303010784e+00    0.2183205    0.1730623 -56.92 0.0006861625    1.303    0.232
       351  -7.6039    220.6650    130.3059   8.7992111974e+01   1.0218114112e+01    0.1510329    0.1151995 -75.21 0.0004339483    1.669    0.401
       352  -7.7755    204.5487    130.4780   9.1038608645e+01   1.3728665458e+01    0.1527358    0.1442497 -56.01 0.0001471607    1.040    0.039
       353  -7.9338    192.5500    130.4649   9.3416311536e+01   1.6439896340e+01     0.153909    0.1486833 -53.37 7.871256e-05    1.006    0.006
       354  -9.1239    168.3278    129.6559   9.8398121534e+01   2.2150591623e+01    0.3266613    0.2463729 -78.71 0.0007941665    1.713    0.416
       355  -9.6396    153.0128    128.4006   1.0161631480e+02   2.5891560128e+01    0.6817523    0.2672434 -45.26  0.001790258    2.517    0.603
       356  -7.8511      1.6567    130.3250   1.4197763217e+02   4.7917617430e+01    0.1193812   0.07503124  75.04 0.0007050798    1.736    0.424
       357  -8.0391    211.4673    129.2413   8.9429469239e+01   1.2431856496e+01    0.2183092    0.1345685 -52.21 0.0007871891    1.697    0.411
       358 -10.8117     44.8622    124.1095   1.2956406470e+02   4.5636710190e+01     1.031473    0.5736896  88.92  0.003903842    2.882    0.653
       359  -9.4050     36.4484    115.1327   1.3029526403e+02   4.8585899185e+01    0.2576864    0.1767092  43.96 0.0007119016    1.728    0.421
       360 -10.9707     59.7046    124.1404   1.2540764444e+02   4.3873608077e+01     0.951096    0.4507492 -67.87  0.003946054    2.296    0.564
       361  -9.9712    117.9704    125.6121   1.0969551913e+02   3.3969750002e+01    0.5136955    0.3514319  83.96  0.001454502    2.289    0.563
       362  -7.8370    228.2805    125.6226   8.5569886962e+01   9.4661304708e+00    0.1533419    0.1084195 -65.17  0.000700978    1.711    0.415
       363  -8.7535    179.2772    124.8199   9.4801743748e+01   2.0648842430e+01    0.2894097    0.2279229 -72.47 0.0008223731    1.494    0.331
       364 -10.2876     28.3961    122.5447   1.3385828716e+02   4.7635803271e+01    0.6842971    0.3472946  83.00  0.002714821    3.611    0.723
       365  -8.9411     27.0183    114.0125   1.3280119310e+02   4.9710918886e+01    0.2043363    0.1552104 -16.45 0.0007089147    1.660    0.398
       366  -9.8062    244.7794    121.9592   8.2030845500e+01   6.7028326548e+00    0.4308671    0.2019232 -27.95  0.001610041    2.733    0.634
       367  -7.9488    188.5265    124.0224   9.2666257474e+01   1.8671931733e+01    0.2182548    0.1296995 -63.07 0.0004991236    2.325    0.570
       368  -8.8426    135.4182    123.1258   1.0458906838e+02   3.0925903671e+01    0.3933225    0.1947505 -52.67  0.001454683    2.125    0.529
       369  -9.5164    130.6222    118.7125   1.0468399998e+02   3.2931851663e+01    0.5161965    0.3460277 -82.16  0.001198146    2.434    0.589
       370  -8.3131     77.2525    124.4088   1.2053041076e+02   4.1375239404e+01    0.1976573    0.1310533  49.40 0.0009574909    1.695    0.410
       371  -8.6379      5.2444    124.3853   1.4032399514e+02   4.9016508069e+01    0.1433067    0.1031335  47.15 0.0005329655    1.670    0.401
       372  -8.6307    172.3349    122.1653   9.5641374531e+01   2.2811895742e+01      0.34168    0.2310312 -67.46  0.001399786    1.924    0.480
       373  -7.9249    194.7787    122.0537   9.0917860134e+01   1.7624695454e+01    0.2062467    0.1232967 -42.37 0.0004445781    1.615    0.381
       374  -9.2179    158.5409    121.6407   9.8621335651e+01   2.6106342428e+01    0.3034877    0.2493994 -72.51 0.0006526787    1.372    0.271
       375  -9.7051     71.0526    120.2492   1.2137600634e+02   4.3255440573e+01    0.3453983     0.235724  86.71 0.0009802727    2.092    0.522
       376  -9.6534    141.5287    118.5144   1.0189147568e+02   3.0614279405e+01     0.473637    0.3012235 -68.21  0.001093897    2.205    0.546
       377  -9.5165     20.3236    118.8420   1.3548642686e+02   4.9169451344e+01    0.3453504    0.1666936  26.19  0.001627727    2.555    0.609
       378  -9.6518      2.9118    117.5214   1.4002384618e+02   5.0703031727e+01    0.4211654    0.2047116  80.91  0.001938336    3.050    0.672
       379  -7.9928    185.7003    116.3142   9.1325862260e+01   2.0889619903e+01    0.1590493    0.1216767 -76.77 0.0002809916    1.609    0.379
       380 -10.1249    109.1645    114.2175   1.0921315541e+02   3.8274415782e+01    0.5800183    0.3246851 -62.93  0.001344025    2.288    0.563
       381  -9.8122    110.1578    107.1406   1.0709623812e+02   3.9653571628e+01     0.889597    0.2178823  39.14  0.002341111    4.882    0.795
       382 -10.9740    248.8421    108.1363   7.8332031472e+01   8.3119658587e+00    0.6854033    0.2674568 -45.11  0.002683835    2.294    0.564
       383  -7.9148    193.2797    115.6439   8.9629415867e+01   1.9248059347e+01    0.1609312    0.1184057 -70.74 0.0007012961    1.659    0.397
       384  -9.9355     78.8466    112.5213   1.1736610248e+02   4.3891379787e+01    0.5254729    0.3523241 -84.18  0.001825121    2.239    0.553
       385  -9.0040     78.3581    105.5994   1.1582132962e+02   4.5530929620e+01     0.464018    0.2703208  14.52  0.001885331    2.800    0.643
       386  -7.9762    167.4689    114.5096   9.4762669296e+01   2.5541509556e+01    0.1574094    0.1522969 -72.52 0.0001925226    1.017    0.017
       387 -10.3487    133.9083    109.5742   1.0145425948e+02   3.4223138163e+01    0.7773193    0.3212695 -50.09  0.002465376    2.564    0.610
       388  -9.9726     92.6913    112.4815   1.1337282298e+02   4.1655051966e+01    0.5029723    0.3179455 -67.08   0.00137723    1.932    0.482
       389  -9.3315     51.3877    113.3200   1.2558999931e+02   4.7403559240e+01    0.2404659    0.2084749 -79.02 0.0006354181    1.194    0.162
       390  -9.6442    121.9733    112.7736   1.0539492710e+02   3.6053171766e+01    0.3258702    0.2654772  67.34 0.0007841319    1.402    0.287
       391  -9.6812     14.0776    111.4380   1.3605430828e+02   5.1315630501e+01    0.3427828    0.1960745  82.38  0.001577384    2.407    0.585
       392  -8.4091    174.5432    111.9197   9.2547617281e+01   2.4407940266e+01     0.238267    0.1516752 -43.84 0.0005202066    1.542    0.352
       393  -8.4763    159.1223    111.9008   9.5969823194e+01   2.8032520870e+01    0.2425838    0.2062676 -73.95 0.0005119973    1.298    0.230
       394 -10.1782     66.2210    110.5777   1.2061441131e+02   4.6160315755e+01     0.394556    0.2722987 -74.84  0.001264702    1.714    0.417
       395  -9.1180      7.0533    109.5340   1.3773963568e+02   5.2216900253e+01    0.3172905     0.103502  36.55  0.001454764    3.606    0.723
       396  -8.1194    189.3808    108.1732   8.8521156114e+01   2.1637049717e+01    0.2226119    0.1383097 -50.53 0.0005273225    1.636    0.389
       397 -10.4763     45.6244    102.6093   1.2502980746e+02   5.0478883433e+01    0.6576045    0.3986305  75.11  0.002819606    3.202    0.688
       398 -10.6716     22.8634    102.8809   1.3200924513e+02   5.2558071865e+01    0.6385419    0.3743345  80.49  0.002483783    2.787    0.641
       399  -8.4797    166.5648    104.3479   9.2297783275e+01   2.7828308519e+01    0.2814534    0.1476471 -45.95 0.0005874047    1.904    0.475
       400  -9.4834    150.5703    103.2357   9.5651177718e+01   3.1807836366e+01    0.4337161    0.2705437 -64.39  0.001254737    2.195    0.544
       401  -9.2142    139.9241    104.7009   9.8629748900e+01   3.3928250602e+01    0.3316799    0.2711298  77.91 0.0009766901    1.446    0.309
       402  -8.9894     94.0245    104.4578   1.1093861504e+02   4.3217746233e+01     0.441963    0.2465407  16.18  0.001537235    3.515    0.716
       403  -9.8911    128.5143    102.2775   1.0086118368e+02   3.6939736752e+01    0.3447726    0.2797652 -80.96 0.0009349863    1.527    0.345
       404  -8.8756      6.7520    102.9238   1.3678870640e+02   5.3692528973e+01    0.2250021    0.1401114 -83.06  0.001133486    1.658    0.397
       405  -7.7176    175.6560    102.2948   8.9800075232e+01   2.6066048467e+01    0.1612006    0.1219758 -82.19 0.0003754059    1.664    0.399
       406 -10.2498    109.1178     99.0639   1.0519313010e+02   4.1596642456e+01    0.6116131    0.4028673  74.98  0.002034418    2.661    0.624
       407  -8.2707    159.5673    101.0170   9.2966317793e+01   3.0153393668e+01    0.2376035    0.1508462 -43.63 0.0005101967    1.562    0.360
       408  -9.1846     82.1270    100.0649   1.1328211779e+02   4.6166026717e+01    0.3391345    0.2335974 -69.10 0.0008701423    1.817    0.450
       409  -9.1475     94.9374     97.0146   1.0867344502e+02   4.4670280100e+01    0.3136998    0.2021932 -55.27 0.0005638134    1.618    0.382
       410 -10.1136     63.8966     96.0041   1.1780323562e+02   4.9724143886e+01    0.4718021    0.3089994 -81.62  0.001624755    2.517    0.603
       411  -8.1072    164.7261     94.1531   8.9953585811e+01   3.0273434339e+01     0.245764    0.1851207 -57.96 0.0005309418    1.426    0.299
       412  -9.3577    139.0178     92.3617   9.5422666077e+01   3.6642732666e+01    0.4208451    0.2844943 -69.88  0.001177622    2.126    0.530
       413 -10.1802    123.6985     91.4300   9.9069124615e+01   4.0197320708e+01    0.5885631    0.4425273  24.89  0.001372161    1.543    0.352
       414  -7.7952    188.3546     93.6961   8.4993283177e+01   2.4649598563e+01    0.1614565    0.1176883 -78.57 0.0007040155    1.712    0.416
       415  -8.2015    176.1906     93.1922   8.7271903677e+01   2.7690791362e+01    0.2215506    0.1790164 -72.99 0.0006573704    1.382    0.276
       416  -9.0198    108.1360     92.4630   1.0361038918e+02   4.3165553050e+01    0.4660216     0.262207  25.64  0.001807179    2.527    0.604
       417  -9.6734      4.9801     92.2181   1.3551214265e+02   5.6117292377e+01    0.2775033    0.1805289  65.77  0.001509749    2.188    0.543
       418  -7.9913    157.8456     91.8101   9.0830817028e+01   3.2368554176e+01    0.2136659    0.1797993 -73.30 0.0003936595    1.327    0.246
       419  -9.4543     34.7716     89.9397   1.2560474470e+02   5.4352513124e+01    0.4252921    0.2402408 -80.52  0.001876637    2.974    0.664
       420  -8.6693     29.8683     92.0622   1.2765460255e+02   5.4341709862e+01    0.1894018     0.151812 -71.98 0.0008713347    1.299    0.230
       421  -9.3716     23.1393     90.4520   1.2946182287e+02   5.5250273047e+01    0.3113186    0.2259305 -13.01  0.001631769    1.623    0.384
       422  -9.2530     46.5349     92.3380   1.2238278147e+02   5.2636164779e+01     0.383732     0.210574  11.71  0.001791555    2.642    0.622
       423  -8.4839    151.0057     89.2607   9.1676900673e+01   3.4475947679e+01    0.2110698    0.2057751  74.76 0.0004563193    1.022    0.022
       424  -9.9415     86.2576     86.6959   1.0835625435e+02   4.8319976140e+01    0.4154079    0.3161229 -82.61  0.001246368    1.992    0.498
       425  -9.0953     56.5311     94.9993   1.1985870234e+02   5.0891752021e+01    0.2775558      0.17922  49.07  0.001191567    1.969    0.492
       426  -9.8040     48.5012     84.4902   1.1978223947e+02   5.4083606136e+01    0.4151559    0.2891358  78.94  0.001621046    2.621    0.619
       427  -9.7269    104.7989     83.3153   1.0188353186e+02   4.5648363024e+01    0.4111181    0.2960367 -67.27  0.001056037    1.907    0.476
       428  -8.3565    157.9009     84.1015   8.8660838782e+01   3.3806644319e+01    0.2279646    0.2055251 -74.85 0.0003836465    1.172    0.146
       429  -9.2948    140.8100     82.9549   9.2277351166e+01   3.8041043438e+01    0.2701678    0.2060468 -60.38 0.0005650612    1.504    0.335
       430  -8.4401     35.3188     83.3165   1.2385905012e+02   5.5703586857e+01    0.1318308   0.07990594 -31.96 0.0005448993    1.656    0.396
       431  -9.7543     24.5511     80.3785   1.2676672411e+02   5.7263490508e+01    0.4031892    0.2370652 -78.70     0.001489    2.515    0.602
       432  -8.5546    150.2017     80.8780   8.9469858181e+01   3.6231708414e+01    0.2328839    0.2053294 -74.74 0.0008766793    1.244    0.196
       433  -8.5410    119.4962     80.5045   9.6970824105e+01   4.3214242934e+01    0.3090259    0.2197029 -77.83 0.0008775105    2.266    0.559
       434  -8.7921     74.5435     80.6497   1.1024532643e+02   5.1414146284e+01    0.2683367    0.2072566 -77.80 0.0009385317    1.900    0.474
       435  -9.3139      9.5318     80.5792   1.3183449107e+02   5.8296207583e+01    0.2264412    0.1534358  72.96 0.0009003679    2.285    0.562
       436  -8.3293    166.8384     79.8354   8.5551136214e+01   3.2418043781e+01    0.2204236    0.2057488  13.79  0.000432104    1.197    0.164
       437  -8.3875     15.5086     86.5170   1.3110046294e+02   5.6657380046e+01    0.1205022   0.09469914 -53.19 0.0002861449    1.020    0.019
       438  -9.1883     65.2153     78.2049   1.1254381199e+02   5.3260004334e+01    0.3100327    0.1882609 -50.80  0.001572581    1.581    0.368
       439  -9.8726     63.3844     73.6100   1.1179510946e+02   5.4417405356e+01    0.4378005    0.2168735 -54.81   0.00140043    2.261    0.558
       440  -8.5645    184.4163     78.0058   8.1598433555e+01   2.8432531117e+01    0.2259018    0.1445027 -39.12 0.0007068547    1.567    0.362
       441  -8.0281    157.2750     76.6494   8.6679304258e+01   3.5299936374e+01    0.1548643    0.1160489 -70.38 0.0003229388    1.637    0.389
       442  -9.0139    140.4569     75.6564   9.0214095656e+01   3.9452995404e+01    0.2661516       0.1425 -42.84 0.0006107903    1.905    0.475
       443  -9.2293    128.1075     75.5358   9.3219724420e+01   4.2269349127e+01    0.2895488    0.2174599 -63.80 0.0005265871    1.670    0.401
       444  -8.5099    163.3226     73.3889   8.4467674385e+01   3.4400841341e+01    0.2587852    0.1698457 -55.96 0.0008756205    1.732    0.423
       445  -9.5744     82.2973     72.7181   1.0539580748e+02   5.1723256553e+01    0.3635464     0.236662 -55.74 0.0009673245    1.843    0.457
       446  -7.8628    151.3055     73.6400   8.7121413838e+01   3.7257053144e+01    0.1567785    0.1165324 -73.07 0.0007039472    1.729    0.422
       447  -8.6322    115.5951     72.8196   9.5671679373e+01   4.5447657386e+01    0.2579719    0.1765834 -45.69 0.0008545188    1.522    0.343
       448  -7.6207    175.3178     72.6978   8.1880328238e+01   3.1578580100e+01    0.1543816    0.1141389 -76.06 0.0004306613    1.622    0.384
       449  -9.1856    105.9146     71.8421   9.8050296682e+01   4.7590244605e+01    0.2430393    0.2079803 -54.20 0.0005774156    1.313    0.239
       450  -9.2394     95.0835     71.1850   1.0099652440e+02   4.9774593216e+01    0.3282736     0.209555 -51.90 0.0009242743    1.796    0.443
       451  -9.5465     51.5041     69.9112   1.1472355345e+02   5.6666123266e+01     0.380495    0.2212325 -62.61  0.001399098    2.341    0.573
       452  -8.1639     42.5141     72.5361   1.1859222815e+02   5.7174619262e+01    0.1244224    0.1073103 -39.41 9.900519e-05    1.086    0.079
       453  -9.1406     28.7828     70.4123   1.2282949442e+02   5.8929160302e+01    0.2442863    0.1321948 -10.95 0.0008275685    2.623    0.619
       454  -8.7981     16.7573     70.0744   1.2699810633e+02   5.9952204576e+01    0.2256436     0.167755 -84.68 0.0009955346    1.868    0.465
       455  -9.1298    146.9317     68.5041   8.6587640436e+01   3.9173066150e+01    0.2787001    0.2127352 -45.63 0.0006063311    1.362    0.266
       456  -9.8071    239.4795     65.9970   7.0160786270e+01   1.7349811585e+01    0.2476768    0.2037953  68.40 -2.682714e-05    1.271    0.213
       457  -9.0447    138.6435     66.1954   8.7797707928e+01   4.1500096464e+01    0.3093846    0.1674371 -46.97  0.001104565    2.037    0.509
       458  -9.0322    121.5193     65.9948   9.1964760881e+01   4.5376734871e+01    0.2849789    0.2236641 -60.75 0.0008041626    1.562    0.360
       459  -8.8684     64.0668     63.9115   1.0856667962e+02   5.6148346088e+01    0.4058969    0.2247151  -6.85  0.001544374    3.434    0.709
       460  -8.9765     37.2883     64.0866   1.1802811859e+02   5.9355916614e+01    0.2872502    0.1989406 -77.30 0.0009848132    2.508    0.601
       461  -8.7844    110.0649     63.8371   9.4339583825e+01   4.8152998930e+01     0.236685      0.19859 -38.46 0.0005918703    1.224    0.183
       462  -8.7218    157.9906     62.2187   8.2358298882e+01   3.7542570156e+01    0.2051955    0.1872608  58.36  0.000441589    1.050    0.047
       463  -9.3405     97.6352     60.9287   9.6925184955e+01   5.1093526739e+01    0.2846098    0.2709605  84.95 0.0008649119    1.308    0.235
       464  -9.6450     73.2600     59.5308   1.0405898923e+02   5.5558678648e+01    0.3856964    0.2159759 -49.13   0.00129789    2.000    0.500
       465  -7.9681    146.7263     59.3184   8.3882686499e+01   4.0708357304e+01    0.1437301    0.1122763 -71.30 0.0002579076    1.568    0.362
       466  -7.9464     89.2827     59.6602   9.9007580447e+01   5.2847595136e+01    0.1278114    0.1091943 -70.71 0.0003572394    1.629    0.386
       467  -9.9681     23.3502     56.4585   1.2094634310e+02   6.2065921522e+01     0.381818    0.2639147 -79.05  0.002016533    2.560    0.609
       468  -9.4583      7.5809     57.4245   1.2716792687e+02   6.3016909602e+01    0.2560008    0.1808106 -71.57   0.00120659    1.726    0.421
       469  -8.1893    130.6050     57.7943   8.7105940211e+01   4.4693353494e+01    0.1942719    0.1324221 -44.86 0.0004225762    1.585    0.369
       470  -9.0159    119.2447     55.9147   8.9327280819e+01   4.7501134882e+01    0.3050344    0.2109029 -57.48 0.0008551835    1.910    0.476
       471  -9.5307     54.3286     55.7266   1.0928087092e+02   5.8922228573e+01    0.3173013    0.2099764 -54.36  0.001149897    1.840    0.457
       472  -8.3744    139.9678     56.3026   8.4461313678e+01   4.2767231748e+01    0.1993515    0.1849572  54.48 0.0003828225    1.044    0.042
       473  -8.7624     44.1365     55.6318   1.1293164375e+02   6.0176718841e+01    0.2062994    0.1525712 -47.73 0.0007811898    1.378    0.274
       474  -8.5595    152.5076     53.9731   8.1056586368e+01   4.0136064750e+01     0.212892    0.1442959 -32.42  0.001025339    1.569    0.363
       475  -8.7509    105.4026     53.1904   9.2123055912e+01   5.0815479982e+01    0.2169748    0.1979862  35.62 0.0006461007    1.100    0.091
       476  -9.4696     92.3826     50.7090   9.5026066269e+01   5.3721565090e+01    0.3486803    0.2166245 -47.65  0.001040838    1.931    0.482
       477  -8.2148    144.7856     49.0497   8.1179597196e+01   4.2699671425e+01    0.1826331    0.1157669 -33.31 0.0005836413    1.669    0.401
       478  -8.1518    129.8368     49.3441   8.4603391203e+01   4.6132733379e+01    0.1879447    0.1747563 -42.44 0.0002303342    1.164    0.141
       479  -7.7915    163.5066     48.4803   7.7299361491e+01   3.8252966013e+01    0.1431452    0.1324944  57.55 0.0008098304    1.050    0.047
       480  -8.6020    120.9345     47.4908   8.6145442665e+01   4.8384546495e+01    0.2026014    0.1825621 -19.17   0.00048966    1.146    0.127
       481  -8.4971    112.1789     46.9494   8.8192436805e+01   5.0344329813e+01    0.1996591    0.1857991 -61.82 0.0005488076    1.289    0.224
       482  -9.2578     81.9542     46.5961   9.6783230559e+01   5.6220891495e+01    0.2337371    0.1803393 -36.36 0.0006240068    1.348    0.258
       483  -8.3722     45.0362     44.9885   1.0900674290e+02   6.1887084393e+01    0.1617776     0.148306 -64.00 0.0005329627    1.621    0.383
       484  -9.1198     16.7403     44.8637   1.2000956083e+02   6.4674618258e+01    0.1934049    0.1419443 -58.92  0.000871386    1.624    0.384
       485  -8.8576    133.0040     43.5999   8.2040094188e+01   4.6210096451e+01    0.2544459    0.1879488 -51.77 0.0007677706    1.587    0.370
       486  -8.9934     58.2507     42.8263   1.0338780202e+02   6.0515619373e+01    0.2673375    0.1827332 -53.27  0.001103565    2.052    0.513
       487  -8.6958     92.9714     42.8394   9.2092246865e+01   5.4771757826e+01    0.2290051    0.1355743  22.58  0.001074931    2.019    0.505
       488  -9.2074     69.5344     41.7256   9.9070999410e+01   5.9001650920e+01    0.3039945     0.206669 -49.76  0.001093691    1.942    0.485
       489  -9.7279      5.1339     42.1124   1.2386711856e+02   6.5954757528e+01    0.2844522    0.1777317 -68.43  0.001399157    2.260    0.558
       490  -7.4931    154.3275     42.6756   7.7332867440e+01   4.1287878347e+01    0.1451867    0.1062918 -73.90 0.0004262712    1.695    0.410
       491  -8.0272    206.4681     41.4897   6.8672183845e+01   2.8665759277e+01    0.1377997    0.1225423 -87.14  0.000101563    1.021    0.021
       492  -8.1200    140.3075     41.6628   7.9841899717e+01   4.4770470097e+01    0.1406198    0.1070665 -71.87 0.0003821966    1.678    0.404
       493  -8.5423    106.0247     41.0698   8.7810801441e+01   5.2441042409e+01     0.199587    0.1651662 -68.54 0.0006617539    1.684    0.406
       494  -8.3701     36.8251     40.8245   1.1067419957e+02   6.3496081744e+01    0.1471214    0.1326241 -31.60  0.000529217    1.335    0.251
       495  -9.0219    136.7335     39.4363   7.9900765334e+01   4.5897126700e+01    0.2524028    0.2128424  17.67 0.0006337392    1.281    0.219
       496  -8.2498     80.5320     36.5614   9.3583241274e+01   5.7904315120e+01    0.2170441    0.1105649 -42.78  0.000879712    2.313    0.568
       497  -9.5167     25.9740     35.5458   1.1311910537e+02   6.5439119486e+01    0.2562104    0.1781539 -51.57 0.0009978473    1.737    0.424
       498  -8.4461    200.8321     35.8545   6.8028829576e+01   3.0780209385e+01    0.1939436    0.1747697  63.83  0.000496454    1.175    0.149
       499  -7.9053    133.4675     36.4571   7.9653467404e+01   4.7032278932e+01    0.1356883    0.1261021  55.14 0.0001769967    1.056    0.053
       500  -8.0245    125.8502     35.8048   8.1127287488e+01   4.8849176089e+01     0.173732    0.1586327 -79.82 0.0004116004    1.291    0.226
       501  -8.6855    111.6024     34.7109   8.4162193825e+01   5.2101966133e+01    0.2182601    0.1613742 -36.46 0.0005507429    1.482    0.325
       502  -8.7538    119.2342     33.5478   8.1907320930e+01   5.0597226879e+01    0.2313262    0.1560784 -41.05  0.000683286    1.676    0.403
       503  -8.8262     48.5100     33.5977   1.0350752773e+02   6.3209811722e+01    0.2069452    0.1746106 -29.86 0.0007209061    1.307    0.235
       504  -8.4530     60.7204     32.6280   9.8682729024e+01   6.1646678143e+01    0.1819032    0.1448372 -45.30 0.0006268285    1.645    0.392
       505  -8.6104     72.1734     31.2809   9.4268290352e+01   6.0027771355e+01    0.2056034    0.1540231 -51.64 0.0007527333    1.955    0.489
       506  -8.5645     95.3530     38.0504   8.9693553787e+01   5.4973130482e+01    0.1821259    0.1571424 -21.75  0.001084929    1.191    0.160
       507  -9.1590     12.9561     30.6552   1.1682969199e+02   6.7328677201e+01    0.2103797    0.1362077 -47.07   0.00114295    1.510    0.338
       508  -8.6092    101.6692     29.6646   8.4944436114e+01   5.4775426735e+01    0.2351497    0.1823161 -69.02 0.0007717683    2.001    0.500
       509  -8.7011     81.6236     27.6224   8.9879441868e+01   5.8855695326e+01    0.2145903    0.1741031 -62.14 0.0007382769    1.956    0.489
       510  -8.9129      3.7078     27.9021   1.1989158769e+02   6.8420330182e+01    0.1790761    0.1297501 -53.14 0.0008045842    1.592    0.372
       511  -8.5353    208.8908     27.3559   6.4959593575e+01   2.9914165898e+01    0.1889797     0.150957  75.75 0.0008122685    1.137    0.120
       512  -8.6753     91.8293     26.6004   8.6507335142e+01   5.7078363402e+01    0.2298654    0.1536101 -43.28 0.0008594592    1.866    0.464
       513  -7.7958    145.7076     26.3412   7.4035403828e+01   4.5356653685e+01    0.1348261     0.100208 -69.37 0.0004784665    1.653    0.395
       514  -8.9072    183.9019     24.3228   6.7373494550e+01   3.6320802910e+01    0.3077869    0.1565389  80.50  0.001337085    2.163    0.538
       515  -8.3261     34.2369     23.3905   1.0507077823e+02   6.6380738060e+01    0.1422057   0.09924839  33.46 0.0004060731    1.671    0.402
       516  -8.9279     63.6161     21.3512   9.3208658937e+01   6.2641952128e+01    0.2426329    0.1812529 -36.53 0.0008526146    1.593    0.372
       517  -8.8182     48.3581     21.7481   9.8847780648e+01   6.4836048345e+01    0.1831735    0.1541065 -17.16 0.0006139082    1.249    0.199
       518  -8.5580    120.7721     21.0311   7.7333262968e+01   5.1664107033e+01    0.1595204    0.1078887 -23.52 0.0006848017    1.624    0.384
       519  -8.4434     19.2745     21.6143   1.1067680482e+02   6.8161558880e+01    0.1427159   0.08866932   7.78 0.0009450961    1.555    0.357
       520  -8.6910     73.9917     19.5183   8.9077401860e+01   6.1135188982e+01    0.2125978    0.1577907 -36.94 0.0007465751    1.621    0.383
       521  -8.1454     11.5654     20.4962   1.1364967386e+02   6.8984203844e+01    0.1089691   0.07935517 -21.08 0.0002181746    1.017    0.017
       522  -7.9439    191.3775    249.6989   1.1735991625e+02  -5.3723594189e+00    0.1233303   0.09184727  62.18 0.0007026283    1.763    0.433
       523  -8.2237     87.7987     17.7866   8.4308358670e+01   5.8813770420e+01     0.150295    0.1465109 -34.28 0.0003634185    1.337    0.252
       524  -8.1536     38.5331     18.5614   1.0133611061e+02   6.6509391313e+01    0.1141339   0.08880266  -4.08 0.0001058043    1.028    0.028
       525  -7.5924    112.6984     16.7184   7.7645374523e+01   5.3859983496e+01    0.1319984   0.08424284  31.66 0.0002261149    1.549    0.355
       526  -9.0153    175.7455    247.6405   1.2000844248e+02  -2.4312501300e+00    0.3009993    0.2103928  75.31  0.001174359    2.327    0.570
       527  -8.1968     17.1701     14.4139   1.0865189746e+02   6.9350996835e+01    0.1286452   0.09202842  26.62 0.0005285467    1.642    0.391
       528  -8.9387    132.5052    248.0856   1.2833824813e+02   4.8743016571e+00    0.3129716    0.1885682  70.43  0.000674255    2.170    0.539
       529  -7.7852     47.7370     10.3708   9.4243336370e+01   6.6254114069e+01   0.09916217   0.08558655 -35.47 0.0006983448    1.657    0.396
       530  -8.0709    113.2010    248.4431   1.3203228698e+02   8.0100758242e+00    0.2311612   0.09487043 -71.52 0.0008632963    4.254    0.765
       531  -9.2584     21.7651    248.2055   1.4804620670e+02   2.0817358473e+01    0.1861808    0.1277311  75.05 0.0005756259    1.023    0.022
       532  -9.0910    243.0797    246.5787   1.0738759165e+02  -1.3041576294e+01     0.335004    0.1706873 -25.02  0.001742888    2.095    0.523
       533  -9.0147    233.1020    246.9775   1.0923008160e+02  -1.1621982823e+01    0.2557953    0.2135019 -41.43  0.001532336    1.595    0.373
       534  -9.1194    218.7507    247.2227   1.1187452414e+02  -9.4513798654e+00    0.3399801    0.1327371 -29.89  0.001444893    3.342    0.701
       535  -8.2871    156.1432    248.2214   1.2384015845e+02   8.2776427579e-01    0.1748099    0.1349102  64.21 0.0005669798    1.391    0.281
       536  -9.7483    146.7597    246.7752   1.2543887766e+02   2.6764991460e+00    0.3513314    0.2529551  38.40  0.001854439    1.254    0.203
       537  -8.9684    103.6820    246.5720   1.3360096105e+02   9.8832712239e+00    0.3741554    0.1622809 -72.54  0.001595799    3.299    0.697
       538  -8.7501     34.8903    248.1660   1.4591324423e+02   1.9288702400e+01    0.1781519     0.109682  69.27 0.0004633298    1.243    0.195
       539 -10.0085    224.1020    244.2522   1.1040255555e+02  -9.8834492992e+00    0.3947749    0.2381694 -44.78  0.001873882    2.100    0.524
