#   1 NUMBER                 Running object number                                     
#   2 MAG_AUTO               Kron-like elliptical aperture magnitude                    [mag]
#   3 X_IMAGE                Object position along x                                    [pixel]
#   4 Y_IMAGE                Object position along y                                    [pixel]
#   5 X_WORLD                Barycenter position along world x axis                     [deg]
#   6 Y_WORLD                Barycenter position along world y axis                     [deg]
#   7 A_WORLD                Profile RMS along major axis (world units)                 [deg]
#   8 B_WORLD                Profile RMS along minor axis (world units)                 [deg]
#   9 THETA_WORLD            Position angle (CCW/world-x)                               [deg]
#  10 FWHM_WORLD             FWHM assuming a gaussian core                              [deg]
#  11 ELONGATION             A_IMAGE/B_IMAGE                                           
#  12 ELLIPTICITY            1 - B_IMAGE/A_IMAGE                                       
         1 -15.8816    168.3381      6.5792   3.9805636505e+01   4.1997131009e+01     2.818327    0.9581191  73.00   0.01083657    2.938    0.660
         2 -11.6303     33.9161     14.1742   7.7515343368e+01   6.8943205311e+01    0.1700808    0.1438499 -10.59 0.0004448202    1.253    0.202
         3 -11.5474      3.5743      8.8049   9.0660796982e+01   7.2841956471e+01    0.1936324    0.1329749   2.76 0.0007481319    1.359    0.264
         4 -13.0572    125.6297      7.7143   4.6513888044e+01   5.2059566918e+01    0.2406692    0.2160311  76.16 0.0006207525    1.181    0.153
         5 -11.1570     85.6061      7.7902   5.5483677933e+01   6.0871097513e+01    0.1658774    0.1116965 -28.17 0.0002792711    1.609    0.378
         6 -11.7294     98.5041      8.0135   5.2282708806e+01   5.8141678306e+01    0.1865648    0.1222575 -17.32 0.0008349161    1.587    0.370
         7 -11.8536    113.6534      1.8353   4.6583142573e+01   5.5274552547e+01    0.2350046    0.1466003  50.32 0.0007175305    1.363    0.266
         8 -11.8678      7.1389      1.4024   8.4735499499e+01   7.3620614395e+01    0.2379031    0.0951703  24.56 0.0004824369    2.552    0.608
         9 -11.3193     99.2599    246.2825   1.1095891349e+02   1.0852243866e+01    0.2292711    0.1468236  35.98 0.0007255103    1.439    0.305
        10  99.0000     41.0578    182.1811   1.1625904792e+02   3.1387381646e+01     4.388218     2.036968 -62.76   0.01970811    1.906    0.475
        11 -11.1127    135.4865    230.0747   1.0190630511e+02   8.4118162528e+00    0.1960724    0.1798194 -84.15 0.0009572985    1.263    0.208
        12 -11.8162    157.3776    231.7441   9.7759004357e+01   4.7382258083e+00    0.1909954    0.1583493 -34.55 0.0008041108    1.339    0.253
        13 -11.4588    160.5220    231.4639   9.7092919636e+01   4.2960691742e+00    0.1967329    0.1099676  26.85 0.0006838882    1.799    0.444
        14 -16.5922     68.2913    181.1462   1.0988767956e+02   2.8396508814e+01     6.405311     2.124702  54.81   0.01902242    5.261    0.810
        15 -12.7372    140.6573    227.8054   1.0054372922e+02   8.0125035377e+00    0.3828343      0.28905 -82.81  0.002184205    1.874    0.466
        16 -11.2608    141.4507    223.4944   9.9760056483e+01   8.6544859723e+00    0.1665244    0.1260515 -64.41 2.579312e-05    1.616    0.381
        17 -10.5722    129.7750    223.6684   1.0218260881e+02   1.0447109772e+01    0.1997187    0.1533073 -89.74 0.0007677381    1.705    0.414
        18 -13.5401    166.3587    212.5903   9.2914452442e+01   6.5792951545e+00    0.4808526    0.2921937 -51.45  0.001694625    1.937    0.484
        19 -12.4977    148.8880    214.6423   9.6873586951e+01   9.0692112024e+00    0.2259326    0.1784574 -28.92  0.001221539    1.405    0.289
        20 -16.7456     74.3153    226.3982   1.1376509917e+02   1.7905247840e+01     2.778544     1.148683 -72.73   0.01271523    2.826    0.646
        21 -10.1860     19.7040    211.6702   1.2315355016e+02   2.7115429381e+01    0.3072017    0.1293196  41.08  0.001692862    2.152    0.535
        22 -16.6977     60.8503    228.1252   1.1655547068e+02   1.9268814370e+01     12.05842     3.985778 -75.19   0.04834187    3.844    0.740
        23 -14.7243    146.6452    188.5705   9.2929734718e+01   1.4489080062e+01    0.7274387    0.5694079 -29.83  0.002216949    1.374    0.272
        24 -14.7524    146.1683    202.8484   9.5530331761e+01   1.1738507094e+01    0.8938589     0.413056 -48.49   0.00388191    2.291    0.563
        25 -13.1971    149.1984    195.1785   9.3551765675e+01   1.2723292235e+01    0.2999509    0.2885828  18.83 0.0008943038    1.032    0.031
        26 -12.6829    161.0806    202.6107   9.2302842838e+01   9.2684406308e+00    0.3956767     0.179568 -41.52  0.001683528    2.340    0.573
        27 -11.4723     24.6519    204.2608   1.2167300970e+02   2.8187488256e+01    0.2281037    0.1592874 -79.17  0.001513275    1.248    0.199
        28 -12.2009    170.4776    204.0919   9.0592518384e+01   7.4085851336e+00    0.1963623    0.1321877 -41.99 0.0005791356    1.561    0.359
        29 -10.7114     14.5084    203.1843   1.2358184909e+02   2.9374680241e+01    0.1564782    0.0835513  81.82 0.0008451919    1.663    0.399
        30  -9.4600     14.7527    199.2224   1.2326477764e+02   3.0194870966e+01    0.1828439    0.1262359 -41.63  0.001138367    2.114    0.527
        31  -9.4617     14.7848    195.9716   1.2303096213e+02   3.0890738877e+01    0.2505866    0.1633857 -43.14  0.001510795    2.189    0.543
        32 -17.9492     87.1560    184.6135   1.0595768691e+02   2.5007882368e+01     5.716144     4.760378 -86.06   0.03351735    1.182    0.154
        33 -11.3211     22.3247    191.5481   1.2116289822e+02   3.1163123477e+01    0.2214254    0.1294378 -78.69  0.001308626    1.439    0.305
        34 -10.8074     26.9020    190.4249   1.2011418765e+02   3.0973347801e+01    0.1490468    0.1296719  72.71 0.0004173945    1.143    0.125
        35 -11.1379     15.6049    188.2223   1.2229581109e+02   3.2510608442e+01    0.1393794    0.1097459 -65.63 0.0004892236    1.330    0.248
        36 -10.8320    134.4017    233.8282   1.0263292439e+02   7.9206684803e+00    0.2373548    0.1776805   2.70 0.0008419572    1.753    0.430
        37  -9.5266     13.6165    181.4027   1.2218696470e+02   3.4201604270e+01    0.1168556   0.09159284 -87.92   0.00012988    1.036    0.035
        38 -10.0007      6.2437    177.3529   1.2344349589e+02   3.5714896103e+01    0.1144991    0.0718398 -59.80 0.0006278925    1.584    0.369
        39 -16.2010     90.2475    226.6493   1.1061656625e+02   1.5712474954e+01     2.419374     1.856871  33.91   0.01530747    1.339    0.253
        40 -13.2498    139.5162    173.4496   9.1704544239e+01   1.8919999455e+01    0.4132198    0.2902517  87.45  0.001211101    2.377    0.579
        41 -10.8402      2.3779    174.0818   1.2402680249e+02   3.6746400175e+01    0.1648793      0.15047 -25.13 0.0003961569    1.556    0.357
        42 -11.1708    116.6474    237.2480   1.0658964649e+02   9.9706397412e+00     0.245481    0.1710129  32.30 0.0006845049    1.372    0.271
        43 -10.6782      4.6379    170.0073   1.2323691431e+02   3.7498159861e+01    0.1553531    0.1117897 -82.79 0.0003540261    1.086    0.079
        44 -10.7924    200.0593    246.3537   9.1787766529e+01  -3.8573473203e+00    0.1672889    0.1254448  23.69 0.0003919514    1.103    0.093
        45 -12.2848      7.1059    163.4177   1.2215994066e+02   3.8823482249e+01    0.3784466    0.1950529 -50.18  0.002043229    2.134    0.531
        46 -10.5851    105.9195    237.2290   1.0869515946e+02   1.1525177487e+01    0.1566582    0.1348441  50.53 0.0002230199    1.013    0.013
        47 -14.3679    125.7187    149.8856   9.0204963528e+01   2.6697807958e+01    0.7505774    0.4834822 -59.83  0.003310572    1.696    0.410
        48 -10.9544      7.6475    155.5293   1.2134930517e+02   4.0618886936e+01     0.188619     0.144557 -54.05 0.0004292221    1.393    0.282
        49 -10.4248    144.5171    153.4918   8.6374052543e+01   2.2344595079e+01    0.1506701    0.1455179 -23.04 7.737915e-05    1.010    0.010
        50 -12.4977    148.1632    232.5359   9.9708610776e+01   6.0327888143e+00    0.2814158    0.2237332 -52.96 0.0003164455    1.471    0.320
        51 -11.8835    146.6273    228.1690   9.9388512297e+01   7.0186579865e+00    0.2387188    0.1852082  47.03 0.0005896001    1.252    0.201
        52 -11.8150    249.7472    116.7388   5.7061620425e+01   8.5445241128e+00     0.231669   0.08802726 -43.64  0.000899823    2.427    0.588
        53 -12.2605     97.1067    108.7755   8.8190628287e+01   4.1464600316e+01    0.2796355    0.2125039   7.83 0.0008936298    1.625    0.385
        54 -11.0337    138.9810    243.0280   1.0294221506e+02   5.6771710874e+00    0.3428257    0.2085201  14.31  0.001153302    2.380    0.580
        55 -10.9651     96.2370    242.9391   1.1118753787e+02   1.1858284507e+01    0.2237849    0.1258492  51.11 0.0007419544    1.583    0.368
        56 -11.6326      2.0046    105.2560   1.1728284282e+02   5.2928850281e+01    0.2615659     0.153647 -52.43  0.001528475    1.414    0.293
        57 -11.3980    129.8115    233.8563   1.0355236263e+02   8.6110400285e+00    0.3190456    0.2252766 -88.63  0.001766629    2.072    0.517
        58 -10.9749     26.2972    101.3420   1.0895150035e+02   5.2266254447e+01    0.1406391   0.07883078 -42.26 0.0004264217    1.665    0.400
        59 -11.2161     19.9206     95.5196   1.0996573435e+02   5.4138267716e+01    0.1991201    0.1408411 -61.49 0.0003605803    1.130    0.115
        60 -10.9848     89.5597     85.4985   8.3893572635e+01   4.7980471427e+01    0.1496509    0.1341142 -28.48 3.917172e-05    1.008    0.008
        61 -12.5062    101.6523    240.2638   1.0986330257e+02   1.1583595096e+01    0.2910219    0.1991208 -52.44  0.001504787    1.704    0.413
        62 -12.5652     43.4660     83.0218   9.8932372160e+01   5.4983192760e+01     0.302421    0.1833289   7.04  0.001481434    2.135    0.532
        63 -11.5676     99.4187     62.1063   7.3088314762e+01   5.0766973865e+01    0.3576938    0.2678373 -61.68  0.001166963    1.868    0.465
        64 -10.3053    128.5941     44.5673   5.9017927198e+01   4.7271261090e+01    0.1401131    0.1330371  13.86 4.760387e-05    1.019    0.019
        65 -10.9034     40.8726     35.9736   8.4328407268e+01   6.4747653515e+01    0.1914401    0.1546284 -14.58 0.0006145758    1.033    0.032
        66 -12.0425     89.4828     26.8138   6.2523768233e+01   5.8076406803e+01    0.3712034    0.2684357   8.87   0.00157541    1.382    0.277
        67 -10.2782    238.9917     24.9793   3.7292099869e+01   2.3978903915e+01    0.1452733    0.1227276 -63.28 0.0009580861    1.010    0.010
        68 -10.8255    125.0170    239.4820   1.0521802586e+02   8.3488281952e+00    0.1625229    0.1533344  54.06 0.0003691936    1.102    0.093
        69 -10.2106    135.2995    239.6403   1.0322153665e+02   6.7909472442e+00    0.1227197   0.08910548  66.57 0.0002405988    1.713    0.416
        70 -10.7234    116.2543    248.9632   1.0802660795e+02   8.0090617495e+00    0.1684021    0.1357627 -46.81 0.0009531343    1.500    0.333
        71 -11.1605    151.3906    247.5565   1.0114326826e+02   3.1068328865e+00    0.2025281    0.1648311  31.47   0.00066705    1.034    0.033
        72 -11.2568     95.6215     12.8377   5.4994292415e+01   5.8323006294e+01    0.1796945    0.1120784 -32.12 0.0009478937    1.750    0.429
        73 -11.8528     89.2267    247.3583   1.1295184082e+02   1.2026914329e+01    0.2004254    0.1509527  71.39  0.000910553    1.292    0.226
        74 -11.2321    143.8014    246.3528   1.0244124661e+02   4.4220508043e+00    0.1663345    0.1567847  61.36 0.0003230794    1.206    0.171
        75 -10.9743    132.3174    247.1335   1.0474578355e+02   5.9893859900e+00    0.1555044    0.1381821  57.22 0.0003874323    1.161    0.138
        76 -11.2096     50.3320     14.0997   7.0330268632e+01   6.6621677633e+01    0.1738594    0.1360485  -6.44 0.0006330476    1.083    0.076
        77 -10.3906    125.0427    246.9865   1.0612282146e+02   7.0747382146e+00    0.1249318    0.1202987  85.46 0.0009070223    1.185    0.156
        78 -10.7067    104.0856    245.2550   1.0993466814e+02   1.0361198414e+01    0.1866836    0.1441658 -55.33  0.001239617    1.513    0.339
