#   1 NUMBER                 Running object number                                     
#   2 MAG_AUTO               Kron-like elliptical aperture magnitude                    [mag]
#   3 X_IMAGE                Object position along x                                    [pixel]
#   4 Y_IMAGE                Object position along y                                    [pixel]
#   5 X_WORLD                Barycenter position along world x axis                     [deg]
#   6 Y_WORLD                Barycenter position along world y axis                     [deg]
#   7 A_WORLD                Profile RMS along major axis (world units)                 [deg]
#   8 B_WORLD                Profile RMS along minor axis (world units)                 [deg]
#   9 THETA_WORLD            Position angle (CCW/world-x)                               [deg]
#  10 FWHM_WORLD             FWHM assuming a gaussian core                              [deg]
#  11 ELONGATION             A_IMAGE/B_IMAGE                                           
#  12 ELLIPTICITY            1 - B_IMAGE/A_IMAGE                                       
         1 -14.6810     24.3864     49.5054   1.0432776687e+02   6.4022399879e+01     3.262982     1.604782 -23.47   0.01560218    2.660    0.624
         2 -15.5049      9.3032     25.9218   1.0335165256e+02   6.9684358074e+01     2.676322     1.064115 -48.64     0.014464    1.832    0.454
         3 -13.5462     30.8400     10.4914   8.5912817307e+01   7.0301191498e+01     1.895396    0.5087338 -38.43  0.007883374    3.189    0.686
         4 -14.4446     37.4605     84.9872   1.0856455905e+02   5.5182434000e+01     2.101316     1.025014 -53.91   0.01047341    1.643    0.391
         5 -15.2266     96.4464     71.6363   8.5243758418e+01   4.9713768961e+01     2.204496     1.986421 -26.48   0.01232123    1.053    0.051
         6 -15.4522     60.9761     71.4302   9.6931625246e+01   5.5502849783e+01     2.774919     1.638493  49.08   0.01331453    2.202    0.546
         7 -15.0732     70.4812     56.4329   8.8716774029e+01   5.7199238154e+01     2.751524     2.027532 -86.89   0.01301777    2.547    0.607
         8 -12.5555    138.2018      4.4021   5.0066297624e+01   4.9961060966e+01     1.083097    0.3335306  60.55   0.00404074    2.596    0.615
         9 -11.9818     73.2352      1.5231   6.4124684337e+01   6.4810464428e+01    0.2650263    0.1444791  50.51 0.0006079213    1.774    0.436
        10 -13.1799     83.5245     22.5725   7.0657870193e+01   6.0468455814e+01    0.5936621    0.5058509  43.93 0.0005045213    1.269    0.212
        11 -13.4533    121.3696     10.6728   5.5624264678e+01   5.3523858256e+01     1.439138     0.488932  54.97  0.005585344    2.431    0.589
        12 -14.9309     87.0933      7.0473   6.2552944486e+01   6.1537043955e+01     2.768226    0.9830533  52.69   0.01157377    2.538    0.606
        13 -12.4666     75.6650     13.4864   6.9106844838e+01   6.3085666871e+01    0.3469822    0.2792062  29.27 0.0009768931    1.148    0.129
        14 -12.8422    185.9410     11.7741   4.5619842416e+01   3.6966567722e+01     0.674902    0.4644065  58.69  0.002490421    1.380    0.275
        15 -12.2225    192.9293      6.1740   4.3214918974e+01   3.5728430356e+01    0.5951437    0.3845316 -42.50  0.003091141    1.541    0.351
        16 -11.8842     64.6871     17.9301   7.5084854029e+01   6.4476519711e+01     0.452159    0.2895343  26.60  0.001461067    1.537    0.350
        17 -12.0192    175.6871     13.8487   4.7549806512e+01   3.9418481977e+01    0.4093986    0.2932334  29.14  0.002071893    1.683    0.406
        18 -10.0294    199.8240     11.8055   4.4036185662e+01   3.3390080230e+01    0.1949852    0.1452899 -71.38 0.0004383658    1.308    0.236
        19 -11.5438    149.4898      8.5751   4.9676932707e+01   4.6726008230e+01    0.6472323    0.2562637  69.01  0.002504815    2.418    0.586
        20 -10.7153     49.2317      4.5844   7.4519080242e+01   6.8610533372e+01    0.2471134    0.2080853  -8.22  0.001129159    1.168    0.144
        21 -10.0378    168.3194      2.3427   4.4954218712e+01   4.2437244244e+01    0.1460045   0.09292904  39.61 0.0007049621    1.720    0.419
        22 -11.3012    188.4302      5.5640   4.3533991403e+01   3.6943454737e+01    0.2920198     0.246609  27.56  0.001045087    1.412    0.292
        23 -11.0981    224.0715    133.9216   7.2649588791e+01   8.8632801937e+00    0.4159401    0.1827238  46.41    0.0016397    2.341    0.573
        24  -9.9077    138.8323    152.1716   9.4650708231e+01   2.3566958199e+01    0.2011756    0.1820682   0.80 0.0006865295    1.311    0.237
        25 -11.1235    122.3346    127.2156   9.3221470774e+01   3.2432206140e+01    0.4076726    0.3613881  65.29  0.001393427    1.151    0.131
        26 -13.2663    219.3757    121.4843   7.0515911600e+01   1.2010376508e+01    0.8121725    0.3688671  52.61  0.003155719    2.368    0.578
        27 -10.2749    193.3183    249.3441   1.0004020251e+02  -3.0128467471e+00     0.119007    0.0776013  15.70 0.0007049125    1.721    0.419
        28 -10.3603     33.7104    177.8195   1.2269603367e+02   3.4114274800e+01    0.1865339    0.1310744 -66.91  0.001197927    1.418    0.295
        29 -11.6895    203.2205    172.2966   8.5039265338e+01   6.5621520029e+00    0.4080575    0.2775549 -18.97  0.002013025    1.683    0.406
        30 -10.3545      2.4819    171.4717   1.2862000445e+02   3.8414675341e+01    0.1141199   0.08166849  83.57 0.0005973717    1.019    0.019
        31 -10.2689    185.4876    167.4620   8.7583936721e+01   1.0951211839e+01    0.1444453    0.1337208  22.84 0.0002193722    1.019    0.019
        32 -11.5773    214.6121    163.2756   8.0971273443e+01   5.8343453767e+00    0.3188393    0.2107835  -6.46  0.001474816    1.939    0.484
        33 -11.0383    135.5103     98.1844   8.2316078381e+01   3.6042137752e+01    0.5708759    0.3255104  33.48  0.001918213    2.175    0.540
        34 -12.2854    141.4620     95.5926   8.0073536458e+01   3.5229682981e+01    0.7995268    0.6183051  80.99  0.003475216    1.661    0.398
        35 -10.9755    239.8145    156.5205   7.4983756416e+01   2.0715420598e+00    0.5671948    0.1588734 -37.60   0.00194663    3.353    0.702
        36 -11.3121    114.4450     97.1785   8.7660077390e+01   4.0771626774e+01    0.3317639    0.2723499 -54.12 0.0005542744    1.202    0.168
        37 -10.7541     74.4612     97.7909   9.9617970408e+01   4.7698692148e+01    0.2498367    0.2026368  36.10 0.0006574501    1.373    0.272
        38 -11.9248     83.7178     94.7416   9.5993686267e+01   4.6957178841e+01    0.3744762    0.2837991  34.13  0.001947395    1.460    0.315
        39 -11.5020    117.4481     90.8965   8.5029258398e+01   4.1511860840e+01    0.2521052    0.2173739   6.82 0.0007059061    1.342    0.255
        40 -10.5750    188.4272     94.3844   6.9290271377e+01   2.4123292758e+01     0.395881    0.2693008 -59.12  0.001694286    1.742    0.426
        41 -13.3031      5.8921     82.5551   1.1865460832e+02   5.8111861501e+01     1.067621    0.3934807 -53.44  0.005356379    2.037    0.509
        42 -10.4001    249.1264     85.9209   5.7156489133e+01   1.1363269987e+01    0.3313534    0.2195644  66.36   0.00165974    1.764    0.433
        43 -12.2475    128.2671     81.5303   7.9273190699e+01   4.1101502662e+01    0.4483097    0.3820565 -30.87  0.002259677    1.175    0.149
        44 -12.4229    126.1621     72.7857   7.7066665982e+01   4.3288994324e+01    0.5040979    0.3462899  72.24  0.002140803    2.026    0.506
        45 -12.7856    121.1893     81.4063   8.1140637662e+01   4.2691072166e+01    0.5830616    0.3978916  39.09  0.001640595    1.544    0.352
        46 -13.1643    117.6098     75.5984   8.0302345915e+01   4.4630618287e+01     1.003329    0.6673214 -12.39  0.003904447    2.179    0.541
        47 -12.4804    116.9097     68.7239   7.8256925312e+01   4.6117247888e+01     0.486851    0.3473929   9.73  0.002150378    1.913    0.477
        48 -13.1177      2.9208     70.7115   1.1764962334e+02   6.0894581046e+01     1.094506    0.3030626 -69.63  0.004526965    2.955    0.662
        49 -12.4613    144.1768     75.6751   7.3420598532e+01   3.8524524128e+01    0.5723421    0.3991933 -37.45  0.001740171    1.422    0.297
        50 -11.8139    118.5338     64.0014   7.6220041157e+01   4.6642857838e+01    0.3847058    0.2820322 -30.83  0.001697107    1.362    0.266
        51 -11.1958    152.2352     73.0060   7.0692444945e+01   3.7048645782e+01    0.5120316    0.2793808  46.42  0.002035782    1.853    0.460
        52  -9.4762    170.7956     72.6074   6.6560103508e+01   3.2456333555e+01    0.2273864    0.1508854  70.70 0.0009511445    1.759    0.431
        53  -9.2387    182.6381     71.7647   6.3987980748e+01   2.9583326705e+01    0.1564786    0.1156541  32.20 0.0005587796    1.589    0.371
        54 -10.7193    146.7741     65.7669   6.9652817276e+01   3.9687980804e+01    0.3671111    0.2536355  -6.70  0.001538882    1.976    0.494
        55 -12.4110      8.2826     65.6509   1.1473241672e+02   6.1712966430e+01    0.4959878    0.2291439 -60.80  0.002000338    1.591    0.371
        56 -10.9229    214.3554     61.0411   5.5684586805e+01   2.3285362031e+01    0.3867164    0.2552009 -21.29  0.001545456    1.717    0.417
        57 -10.8932    169.6133     63.0289   6.3883214123e+01   3.4383183382e+01    0.3979849     0.205986  55.95  0.001495822    1.896    0.473
        58 -12.1370    124.6732     57.4403   7.2314891533e+01   4.6420353425e+01    0.4154553    0.3179622  41.39 0.0006601672    1.306    0.234
        59 -10.5545    227.0475     56.9861   5.2861116227e+01   2.0791846423e+01    0.2763321    0.2037816  77.43 0.0005438501    1.444    0.308
        60 -11.5150    174.7765     56.5260   6.0895149284e+01   3.4093642945e+01    0.2627573    0.2493322 -54.40 0.0003423357    1.051    0.048
        61 -11.8714    133.8783     53.8684   6.8749785851e+01   4.4848875250e+01    0.5983738    0.3244367  60.60  0.001493019    2.042    0.510
        62 -10.6681    154.5287     52.9354   6.3755261361e+01   3.9869880391e+01    0.5701892    0.1879318  44.82  0.001716879    3.427    0.708
        63 -13.6665     42.2885     47.7792   9.6409371157e+01   6.2640499416e+01    0.7343609    0.6026142   0.56  0.002327931    1.279    0.218
        64 -11.1147    145.3290     50.5589   6.4951850238e+01   4.2563614452e+01    0.3227428    0.2898169 -47.01 0.0006995315    1.158    0.137
        65 -10.4697    137.3623     48.2476   6.5971588872e+01   4.4895260856e+01    0.3075267    0.2417634 -66.22  0.001016903    1.561    0.360
        66  -9.8312    126.9741     48.7062   6.8648989037e+01   4.7324269440e+01    0.2107611    0.1837878  42.54 0.0005758624    1.122    0.108
        67 -10.6494    119.2116     49.1545   7.0819331695e+01   4.9052977837e+01    0.2220161    0.1932587   8.77 0.0004266443    1.177    0.150
        68 -10.7087    175.9219     45.7611   5.7376969403e+01   3.5408627730e+01    0.4542023    0.3415192  -7.47  0.002164484    1.620    0.383
        69 -13.6959     42.5896     42.2970   9.4332601968e+01   6.3653775762e+01      1.03016     0.539258  12.87  0.003929884    2.699    0.629
        70 -11.4967    157.4621     43.6600   6.0109925052e+01   4.0508092586e+01     0.369176    0.2637255  41.85 0.0008596467    1.441    0.306
        71 -10.9361    122.3472     43.8475   6.8065886857e+01   4.9162044011e+01    0.2887721    0.2520366   1.50 0.0008313826    1.169    0.144
        72 -10.0352    203.4961     43.8276   5.2506375169e+01   2.8529435340e+01    0.2817664    0.1455195  45.07  0.001130597    2.263    0.558
        73 -10.5006    181.9106     43.2774   5.5611126738e+01   3.4196034469e+01     0.247497    0.2334812  45.88 0.0002663086    1.108    0.097
        74 -10.4420    140.5280     43.9862   6.3766902662e+01   4.4755568125e+01    0.2867343    0.2324301  55.16 0.0005766258    1.204    0.169
        75  -9.6335    137.6862     43.3001   6.4167291212e+01   4.5560108480e+01    0.2377472    0.1885616 -53.02 0.0004196535    1.412    0.292
        76 -10.5379    196.8792     40.9916   5.2642751593e+01   3.0619372205e+01    0.2787289    0.2218009 -37.38 0.0006898083    1.251    0.200
        77 -12.1015    216.3628     38.8429   4.9451280048e+01   2.5956734901e+01    0.6887869    0.2612871  58.64  0.002645448    2.529    0.605
        78 -10.5722    204.4905     37.4470   5.0589330931e+01   2.9139987750e+01    0.4751039    0.2532333  69.24  0.002059384    1.874    0.466
        79 -10.3324    160.0469     36.3109   5.7198539944e+01   4.0854362656e+01    0.2161729    0.1996283  12.03 0.0002154761    1.163    0.140
        80 -12.2318     82.5191     33.4994   7.5674526359e+01   5.9120140471e+01    0.3964327    0.3170294  12.21 0.0009949093    1.215    0.177
        81 -12.9133     79.6706     30.7437   7.5475180848e+01   6.0057034556e+01    0.6547688    0.5149603  30.40  0.001703279    1.241    0.194
        82  -9.6897    240.4926     34.4474   4.5638134439e+01   2.0706836618e+01    0.1354377    0.1194589 -63.03 0.0002315147    1.018    0.018
        83 -10.8921    176.7549     33.3882   5.3415799089e+01   3.6871640614e+01    0.2851841    0.2458236  74.94 0.0006111762    1.117    0.104
        84 -10.0251     97.2466     33.7250   7.1105550300e+01   5.6192485336e+01    0.1962907    0.1504892  15.01 0.0006814974    1.343    0.255
        85 -10.2873    151.2841     31.8929   5.7362018767e+01   4.3692009192e+01    0.3627035    0.1951327  71.81  0.001469699    2.109    0.526
        86 -12.4939    199.6419    154.1965   8.1890450130e+01   1.0437901830e+01    0.5587588    0.4198742 -26.33  0.002833272    1.372    0.271
        87 -11.9949    233.5084    153.8927   7.5504328223e+01   3.6775780045e+00     0.431163     0.272763  37.75  0.002156779    1.596    0.373
        88 -10.4062     30.1369    154.1474   1.2121312260e+02   3.9754572200e+01    0.1780385    0.1202467  76.45  0.001080626    1.332    0.249
        89 -11.5029     19.3531    153.9207   1.2366457729e+02   4.0821873849e+01    0.1982639    0.1858481  44.91  0.001484328    1.405    0.288
        90 -12.4758    248.0565    144.3628   7.0943708061e+01   2.4036209227e+00     1.044421    0.3676765 -36.65  0.004034735    2.580    0.612
        91 -11.5502    241.8362     22.8633   4.2721561150e+01   2.1839681872e+01    0.3810468     0.269049 -67.89  0.001109382    1.317    0.241
        92 -10.1167    235.6997     21.5491   4.2964495585e+01   2.3432947127e+01    0.3160978    0.1275663  74.86  0.001299194    2.562    0.610
        93 -11.4506     58.6008    144.6741   1.1312533031e+02   3.8750406886e+01    0.4856836    0.3104389  85.81  0.002508097    1.668    0.400
        94 -10.9065    153.8254     21.1937   5.3260435127e+01   4.4316783238e+01    0.2593038    0.2247838  43.66 0.0004425675    1.131    0.116
        95 -11.6107    149.6570     21.2431   5.4010136113e+01   4.5383798704e+01    0.4330189    0.2563266  52.36  0.001458303    1.551    0.355
        96 -10.3216    139.2601     20.9915   5.5866024800e+01   4.8052994156e+01    0.2534101     0.191728  58.64 0.0006953619    1.232    0.188
        97 -10.6774    208.9503     19.0719   4.5019015846e+01   3.0272471631e+01    0.3673312    0.2262612 -56.77  0.001794651    1.619    0.382
        98 -10.3950    186.9973     19.1021   4.7635735792e+01   3.5905508233e+01    0.3380044    0.2044716 -42.56 0.0007555509    1.652    0.395
        99 -12.7942     49.3701    141.7484   1.1504041082e+02   4.0561862770e+01    0.8193024    0.5532454  33.81  0.004648086    1.721    0.419
       100  -9.9877     90.3685    145.7755   1.0525898802e+02   3.3907607499e+01    0.2055516    0.1214422 -51.70 0.0009514927    1.687    0.407
       101 -12.0047    213.6806    142.0300   7.6432097724e+01   9.6496902576e+00    0.8545514    0.3972724  54.79  0.003263334    2.577    0.612
       102 -11.7090     76.1313    141.4499   1.0813734605e+02   3.7118883544e+01    0.4479999     0.233842 -82.84  0.001753896    2.741    0.635
       103 -11.6559    192.8560    137.4788   7.9431092768e+01   1.4969205024e+01    0.4293209    0.3119427  17.09  0.001962172    1.710    0.415
       104 -10.9554     33.8280    135.9008   1.1821445091e+02   4.3606850765e+01    0.2499137    0.1706108  45.33  0.001177192    1.584    0.369
       105 -13.1126    204.6106    125.0115   7.4104075330e+01   1.4663145386e+01    0.7943228    0.5359364 -25.12  0.003613047    1.581    0.367
       106 -10.5736     82.4970    134.5098   1.0522925837e+02   3.7806395872e+01    0.2661241    0.1124166 -49.35  0.001037198    2.374    0.579
