#   1 NUMBER                 Running object number                                     
#   2 MAG_AUTO               Kron-like elliptical aperture magnitude                    [mag]
#   3 X_IMAGE                Object position along x                                    [pixel]
#   4 Y_IMAGE                Object position along y                                    [pixel]
#   5 X_WORLD                Barycenter position along world x axis                     [deg]
#   6 Y_WORLD                Barycenter position along world y axis                     [deg]
#   7 A_WORLD                Profile RMS along major axis (world units)                 [deg]
#   8 B_WORLD                Profile RMS along minor axis (world units)                 [deg]
#   9 THETA_WORLD            Position angle (CCW/world-x)                               [deg]
#  10 FWHM_WORLD             FWHM assuming a gaussian core                              [deg]
#  11 ELONGATION             A_IMAGE/B_IMAGE                                           
#  12 ELLIPTICITY            1 - B_IMAGE/A_IMAGE                                       
         1 -16.9409     11.8266     80.8300   1.2071448030e+02   5.7517442819e+01     5.350443    0.9532695 -63.11   0.02079393    3.282    0.695
         2 -13.5184    153.1021     61.7514   7.2736855668e+01   3.8567511590e+01     1.462455     1.117272 -17.15 0.0009124658    1.429    0.300
         3 -13.3888    164.8772     47.4092   6.5619436762e+01   3.7824145900e+01     1.269711     1.105419   0.29  0.003942335    1.227    0.185
         4 -14.8646    123.6831     19.9988   6.4320911703e+01   5.1985804191e+01     3.837087     2.901435 -22.20   0.01990628    1.331    0.249
         5 -13.1948    180.3605     16.6538   5.2929535793e+01   3.7618649799e+01     1.107225     0.983212  49.29  0.004369201    1.120    0.107
         6  -9.9471      1.3204    198.2828   1.3230010085e+02   3.4011589372e+01    0.1528202   0.07047887 -79.51 0.0007067692    1.878    0.468
         7 -10.5151    127.1135    249.9036   1.1434636056e+02   1.0661468403e+01    0.1515322    0.1352756  51.59 0.0004155431    1.249    0.199
         8 -19.3160     65.8285    226.2979   1.2272341642e+02   2.2411245657e+01     4.628614     3.239632  49.31   0.02554473    1.214    0.176
         9 -10.8645    159.4510    196.0037   1.0212517364e+02   1.3241939170e+01    0.2479258    0.2205137  80.24 0.0006364478    1.339    0.253
        10 -12.8851    127.0911    173.9378   1.0522806990e+02   2.2566082230e+01    0.6947478     0.487664  50.95  0.001985966    1.266    0.210
        11 -12.7628    147.2134    180.7461   1.0216406560e+02   1.7843797357e+01    0.7514098    0.3732994  48.76  0.003598195    1.816    0.449
        12 -12.4942    138.6293    173.9029   1.0282168648e+02   2.0555318668e+01    0.6527253    0.4402357  82.32  0.002379579    2.221    0.550
        13 -12.2710    142.8572    172.8195   1.0177274942e+02   1.9991483047e+01    0.5652603    0.3894306  81.18  0.002101792    2.132    0.531
        14 -10.6038    164.6987    188.6282   9.9984038745e+01   1.3458149590e+01    0.2307786    0.1924571  52.78 0.0002682747    1.169    0.145
        15 -10.5136    245.0291    184.6832   8.5021502678e+01  -5.5408300851e-02      0.19032     0.172928 -43.04  0.001311464    1.645    0.392
        16 -10.2931    133.4146    199.6229   1.0761743056e+02   1.7061514122e+01    0.3709381     0.206768  31.11  0.001901669    2.039    0.509
        17 -10.8943    185.2458    225.8625   1.0174364298e+02   4.8698344624e+00    0.1994054    0.1493646   5.12  0.001347014    1.575    0.365
        18 -11.7424    189.0066    178.4414   9.3642793113e+01   1.0592723349e+01    0.5661721    0.3875107 -54.28  0.002429115    2.008    0.502
        19 -10.1088    185.4877    170.5185   9.2868221926e+01   1.2440168833e+01    0.2950659    0.2447844 -67.00  0.001212553    1.653    0.395
        20 -15.1782     66.8083    139.6627   1.1380711018e+02   3.8866546745e+01     2.542325     2.093642  57.72    0.0112199    1.173    0.148
        21 -10.3198    233.1421    179.8745   8.6082077577e+01   2.4977824367e+00    0.1732177    0.1571182  18.28  0.000291281    1.225    0.184
        22 -10.4003    195.6202    174.1704   9.1634553958e+01   9.9934838829e+00     0.303152    0.2521847 -48.70  0.001321637    1.503    0.335
        23 -11.4538    234.4327    174.9015   8.4933319685e+01   2.8815516238e+00     0.311179    0.1810238  31.32 0.0008478558    1.547    0.354
        24  -9.6061    203.5130    175.0136   9.0341121599e+01   8.4126474505e+00    0.1824663    0.1267681 -32.53 0.0007670172    1.580    0.367
        25 -11.5068    153.9583    186.6480   1.0175424732e+02   1.5673300042e+01    0.4016023    0.2838532 -84.80  0.001680021    2.238    0.553
        26  -9.6968    207.5870    172.5893   8.9150385477e+01   8.0006565614e+00    0.2516239    0.2036818 -61.07  0.001456136    1.835    0.455
        27  -9.8898    244.3184    170.3108   8.2430972287e+01   1.7331863008e+00    0.1315054   0.08237634  13.64  0.000248537    1.642    0.391
        28 -11.4161    233.3773    170.3271   8.4233284795e+01   3.6336453393e+00    0.3582563     0.138525  42.24  0.001056809    2.324    0.570
        29 -11.6001    180.8388    199.0055   9.8598745308e+01   9.0995271651e+00    0.3006767     0.247481  69.00  0.001914909    1.571    0.363
        30 -10.2878    155.1968    170.1663   9.8793983908e+01   1.8196991474e+01    0.1947633    0.1726309  21.49 0.0003980767    1.190    0.160
        31 -10.0815    202.3595    167.4804   8.9128880110e+01   9.7014744458e+00    0.2180728    0.2028091  33.40 0.0003910023    1.158    0.136
        32  -9.8548    192.1375    166.0481   9.0760603980e+01   1.1857417269e+01    0.2889119    0.2251417 -52.53  0.001316753    1.629    0.386
        33  -9.9600     25.0301    166.4576   1.2608169177e+02   3.7913046023e+01    0.1750565    0.1612172 -60.91 0.0008718855    1.482    0.325
        34 -11.1799    180.6053    194.7616   9.7969598196e+01   9.7385337918e+00    0.2496935    0.2208028 -76.66  0.001283269    1.549    0.354
        35 -10.5605    120.4152    158.3800   1.0418143352e+02   2.6666449054e+01    0.2557339     0.242303  40.04 0.0007964825    1.151    0.131
        36  -9.3476     19.2646    159.3369   1.2677527826e+02   3.9885657236e+01    0.1796808    0.1503637 -46.99 0.0005152443    1.677    0.404
        37 -10.2005     22.8747    157.3318   1.2585684870e+02   3.9967680884e+01    0.3425511     0.161904 -62.91  0.001484549    2.042    0.510
        38 -11.0928    189.0499    155.9000   8.9358449236e+01   1.4032633010e+01    0.5060967    0.4166415  24.91  0.002212306    1.151    0.131
        39 -12.2459    133.8730    147.1770   9.9182435937e+01   2.6414827801e+01       1.1582    0.3225394 -55.14   0.00329137    5.282    0.811
        40  -9.3639      7.0026    151.0449   1.2882810895e+02   4.2607666755e+01    0.3103019    0.1518918 -43.70   0.00159191    3.553    0.719
        41 -10.4899    151.6723    239.1552   1.0913437640e+02   8.4382148938e+00    0.2925588     0.173012  30.29  0.001812592    1.716    0.417
        42  -8.5727    222.2311    150.6053   8.2165161276e+01   8.3079608218e+00     0.124712    0.1019532 -53.25 0.0006899088    1.648    0.393
        43 -10.8752    144.0224    147.3366   9.6957851128e+01   2.4444965981e+01    0.6229559    0.2966941 -63.93  0.002094112    4.042    0.753
        44  -9.3629     27.1730    146.0788   1.2397278626e+02   4.1915895177e+01     0.172618    0.1344492 -72.41  0.001138444    1.250    0.200
        45 -11.7636    150.0454    196.4627   1.0398616827e+02   1.4785487994e+01     0.436455    0.3285158  75.29  0.002615653    1.678    0.404
        46 -11.8625    135.9124    131.5934   9.5585559705e+01   2.9098225446e+01     1.034988    0.2080809 -49.70   0.00264689    5.742    0.826
        47 -11.9936    116.6740    135.9168   1.0100815921e+02   3.1860489883e+01     0.456953    0.3679238 -29.17   0.00141881    1.554    0.357
        48 -11.7307    106.5723    135.3773   1.0334282188e+02   3.3755008701e+01     0.288993    0.2760679  50.53  0.001774217    1.119    0.106
        49  -9.2086    160.0856    236.7276   1.0742620448e+02   7.4635157131e+00    0.1554041    0.1136379  39.75 0.0004096136    1.054    0.051
        50 -10.1453    160.2317    128.8491   8.9497877832e+01   2.4638081293e+01    0.3525711    0.2520211 -62.33  0.001673934    1.758    0.431
        51 -11.1897    120.9050    128.2654   9.8450289097e+01   3.2669571329e+01    0.2966124    0.2482807  21.95 0.0008851964    1.413    0.292
        52 -10.2223    100.6966    127.9939   1.0339678540e+02   3.6331983467e+01    0.2574196    0.1960046  55.48 0.0008080156    1.300    0.231
        53 -10.3302    154.7045    194.6468   1.0282754824e+02   1.4271080902e+01    0.2199009    0.1801643 -10.85 0.0006723654    1.590    0.371
        54 -10.7847    109.4722    124.0096   1.0039158846e+02   3.5662375588e+01     0.283384    0.2498658 -61.36 0.0004500323    1.126    0.112
        55 -10.4248      5.3149    233.3054   1.3291288641e+02   2.7771307032e+01    0.1417986    0.1142085  42.32  0.001288147    1.615    0.381
        56 -10.0716    114.2328    118.2839   9.7968040791e+01   3.6013744770e+01    0.2260979    0.1944363 -65.06 0.0002885619    1.165    0.142
        57  -9.5070    168.3404    114.3188   8.4300900334e+01   2.5555453434e+01    0.2876712    0.2133474 -83.72  0.001052657    2.027    0.507
        58  -8.6389     32.3187    115.2756   1.1937972591e+02   4.8167500964e+01    0.1138925   0.08359329 -45.90 0.0003120627    1.571    0.364
        59 -10.0896    134.4874    106.4836   9.0111703082e+01   3.4452880861e+01    0.4208411    0.1450959 -44.49  0.001405489    2.923    0.658
        60 -10.6422     96.9977    112.2143   1.0113436800e+02   4.0392959167e+01    0.3306475    0.2670314 -46.49 0.0009563994    1.269    0.212
        61 -11.5320     64.7700    109.0646   1.0939067142e+02   4.5950919808e+01    0.6467286    0.6031695  39.63  0.004185962    1.227    0.185
        62  -8.8316    165.1161    101.8602   8.1815510213e+01   2.8566764725e+01    0.1978178    0.1722683  11.00            0    1.253    0.202
        63  -9.4379    221.1140     95.6793   6.9572552153e+01   1.6589444964e+01    0.1938214    0.1724618  32.63 0.0003115599    1.126    0.112
        64  -9.3681    145.3358     82.9105   8.1046742375e+01   3.6672199897e+01    0.2145913    0.1954658 -28.77 0.0005101961    1.104    0.094
        65  -9.8483    116.8873    245.6738   1.1564984479e+02   1.2678065277e+01    0.1840833    0.1489784 -87.60  0.001040135    1.470    0.320
        66 -10.7241    152.1914    192.4254   1.0297984973e+02   1.5055317062e+01     0.237351    0.1671703  62.38 0.0005374063    1.570    0.363
        67 -12.0355    169.5941     39.0084   6.1974358163e+01   3.7776096439e+01    0.4709757    0.4485055 -10.73 0.0007816134    1.067    0.063
        68 -11.6248    122.4068     59.7262   7.9521146120e+01   4.6196797298e+01    0.4051603    0.2615298 -40.90 0.0004300587    1.526    0.345
        69  -8.3252    244.2804    245.3247   9.4918355357e+01  -5.9326934257e+00    0.1069556   0.06046268  16.81 0.0002035545    1.593    0.372
        70  -9.1594    218.4724     46.9912   5.6896866786e+01   2.4086970483e+01    0.2277945    0.1390305 -25.39  0.001035545    1.611    0.379
