#   1 NUMBER                 Running object number                                     
#   2 MAG_AUTO               Kron-like elliptical aperture magnitude                    [mag]
#   3 X_IMAGE                Object position along x                                    [pixel]
#   4 Y_IMAGE                Object position along y                                    [pixel]
#   5 X_WORLD                Barycenter position along world x axis                     [deg]
#   6 Y_WORLD                Barycenter position along world y axis                     [deg]
#   7 A_WORLD                Profile RMS along major axis (world units)                 [deg]
#   8 B_WORLD                Profile RMS along minor axis (world units)                 [deg]
#   9 THETA_WORLD            Position angle (CCW/world-x)                               [deg]
#  10 FWHM_WORLD             FWHM assuming a gaussian core                              [deg]
#  11 ELONGATION             A_IMAGE/B_IMAGE                                           
#  12 ELLIPTICITY            1 - B_IMAGE/A_IMAGE                                       
         1 -11.8747    224.3465     19.2168   3.7958011300e+01   2.6330871259e+01    0.7633816    0.7111592 -78.36   0.00514852    1.147    0.129
         2 -12.3617    207.6956     35.9258   4.3765082454e+01   2.8223785336e+01    0.9732252    0.9203017 -22.16  0.005617358    1.159    0.137
         3 -10.4684      2.0000     10.9843   1.0235255216e+02   7.6372412587e+01    0.5549861    0.1508998 -62.88  0.002195351    3.234    0.691
         4  -9.4229    246.7939      1.6972   3.2450127349e+01   2.3331240710e+01    0.4497426    0.1569042  82.97  0.002026408    3.163    0.684
         5 -12.9508      9.4588    207.3113   1.2310692006e+02   3.0290393683e+01     1.032508    0.7805963  21.95  0.004599554    1.591    0.371
         6 -11.9486     85.4816    228.9941   1.0842747439e+02   1.7913350775e+01     1.005678    0.5874473 -74.22   0.00349833    2.185    0.542
         7 -14.2619      6.1821    141.6359   1.2103440524e+02   4.4716030750e+01     9.982204     1.871526 -87.20    0.0267079    6.797    0.853
         8 -13.7345     39.7412    192.8852   1.1564651590e+02   3.0191980334e+01     3.496191     1.039577  58.04   0.01311035    3.753    0.734
         9  -9.7903    153.4185    227.8677   9.4678652902e+01   8.8137195231e+00    0.2246435    0.1355199   7.42  0.001210391    2.265    0.559
        10  -8.7253    164.0000    226.9636   9.2548318809e+01   7.4574319838e+00    0.1606424   0.06664167 -44.48 0.0008076353    2.979    0.664
        11 -10.7312    120.4251    223.7020   1.0072629666e+02   1.4074294013e+01    0.3464166     0.252888 -30.45   0.00212504    1.834    0.455
        12 -10.3307     49.3575    218.0341   1.1516484697e+02   2.4225565054e+01    0.3217011    0.2371787  74.86  0.001939545    1.297    0.229
        13 -13.7371      6.8091    240.6501   1.2460174716e+02   2.4520112424e+01     1.755463     1.261236  83.54   0.01417074    1.404    0.288
        14  -7.9803    209.5316    199.5137   8.0185141738e+01   4.5875346120e+00    0.1175812   0.09487835  11.48 8.061356e-05    1.049    0.047
        15  -8.0928     60.8950    198.6740   1.1118694449e+02   2.6565538309e+01    0.1735244    0.1315211  44.86  0.000554194    1.105    0.095
        16 -10.8968    134.6027    231.9677   9.8824045315e+01   1.0848920888e+01    0.4341189    0.2193435 -57.30  0.002399875    2.781    0.640
        17 -10.2304     61.4645    178.7500   1.0921416354e+02   3.0605710462e+01    0.3835856    0.2899559 -23.22  0.001514486    2.008    0.502
        18 -10.2102     66.7467    173.2850   1.0730554505e+02   3.1100998921e+01    0.2935558    0.2540795 -12.18 0.0006241165    1.556    0.357
        19 -10.8807    139.5795    230.4358   9.7673228285e+01   1.0381561512e+01    0.3990824     0.178903  44.85  0.002065424    2.034    0.508
        20  -8.5520     94.7880    169.4212   9.9693125160e+01   2.7900335524e+01     0.190237     0.124538  26.30 0.0009472884    1.637    0.389
        21  -9.9915     76.6467    163.5561   1.0356227720e+02   3.1877568314e+01    0.2806628    0.2620474  46.30 0.0003260432    1.117    0.105
        22 -11.7392     68.4472    144.5394   1.0319328212e+02   3.7405838386e+01    0.9065737    0.5767553  74.39  0.003306424    1.829    0.453
        23 -11.2578     83.2393    157.4830   1.0097117199e+02   3.2263356977e+01     0.841132     0.620128 -36.71  0.001332305    1.741    0.426
        24 -10.6635     74.2184    154.7181   1.0302013069e+02   3.4217681359e+01    0.5382591    0.3841388  70.15  0.002424544    1.464    0.317
        25 -11.7536     63.8943    159.5406   1.0646090685e+02   3.4542592171e+01    0.4643222    0.3130679 -44.04  0.001417256    1.869    0.465
        26  -9.8395     22.4612    156.8061   1.1747807406e+02   3.9834096460e+01    0.2698507    0.1967629 -56.92   0.00163018    1.573    0.364
        27  -9.0143     44.1678    229.7829   1.1693253061e+02   2.2692861636e+01    0.2351952    0.1093031  55.58  0.001363537    1.760    0.432
        28  -9.1461     53.9084    231.1797   1.1504267198e+02   2.1365702322e+01     0.221091    0.1365777  82.40  0.001221436    1.753    0.430
        29 -13.2526     66.9369    246.9886   1.1345594341e+02   1.7253720673e+01     2.654828    0.6147677  29.93   0.00976151    4.512    0.778
        30  -9.4726     99.3548    141.5895   9.3989684569e+01   3.3247009193e+01    0.5904953    0.3175535 -29.89  0.002044825    3.668    0.727
        31 -10.6105     86.1358    141.3315   9.7627306425e+01   3.5496621841e+01    0.3039797    0.2799978 -36.32 0.0005565344    1.250    0.200
        32  -8.9200     31.9963    142.9915   1.1365193898e+02   4.2177273297e+01    0.1619401     0.138912  72.35  0.001008872    1.008    0.008
        33 -10.5204     58.3664    131.1898   1.0422557340e+02   4.1997842826e+01     0.597721    0.2632003 -82.02   0.00211688    3.255    0.693
        34  -7.7531    159.0164    134.7457   7.7741691900e+01   2.3363775751e+01     0.180542    0.1194912  43.19 0.0003171581    1.465    0.318
        35  -9.2380    107.6930    131.3692   8.9711844568e+01   3.4064127301e+01    0.5075532    0.2616067  40.46  0.002113704    1.852    0.460
        36  -8.4782     33.0000    130.9828   1.1211534305e+02   4.5000137814e+01    0.2201282   0.06958431 -73.32 0.0008038848    2.952    0.661
        37 -12.1587     36.3553    248.7485   1.1936894769e+02   2.0334505473e+01     1.999219    0.2521775  34.14   0.00806853    3.929    0.745
        38  -9.3574     96.5757    127.4981   9.2052295269e+01   3.6950399078e+01    0.2744803     0.248289  -7.60 0.0007706388    1.311    0.237
        39  -8.0239    106.5149    119.8810   8.7567990372e+01   3.6874002645e+01    0.2086931    0.1478717 -52.69 0.0003725877    1.445    0.308
        40  -8.2239     27.1586    135.3615   1.1436697877e+02   4.4493753977e+01    0.1810019    0.1024036  41.95 0.0003865833    1.645    0.392
        41  -8.2787    204.9044    110.5886   6.3292829153e+01   1.8230650716e+01    0.2748501    0.1170882  42.37  0.001104823    2.565    0.610
        42  -8.4056     30.3192    108.3057   1.1022483662e+02   5.0937312598e+01    0.1360069   0.09543258 -41.43 0.0007029873    1.633    0.388
        43 -12.1870     19.9021    220.8714   1.2143879935e+02   2.6779573158e+01    0.9674893    0.4801883  57.53    0.0060405    1.547    0.354
        44  -8.1649    134.6972    105.6566   7.6494002298e+01   3.4179592668e+01    0.1553614    0.1219236   0.36 0.0007039521    1.682    0.405
        45  -7.9707     41.6895     92.0065   1.0328464739e+02   5.3881785807e+01    0.1996162    0.1687447 -72.98 0.0004117208    1.093    0.085
        46 -12.1710      3.0962    181.9257   1.2363529355e+02   3.5941883694e+01     1.886379    0.3506059 -85.18  0.006382776    5.369    0.814
        47  -8.0583     46.9007     61.7942   9.3589073255e+01   6.0659555066e+01    0.1868862    0.1583123  61.70 0.0004515388    1.343    0.255
        48 -10.0229     13.2527     60.1334   1.0948938197e+02   6.4429224356e+01    0.2688267    0.1877463 -74.84 0.0008318389    1.302    0.232
        49 -10.7810    113.6720    238.4329   1.0362173638e+02   1.2729300055e+01    0.2786429     0.225169  34.82 0.0009789986    1.077    0.072
        50 -11.0319    216.1404     27.6319   4.0767526727e+01   2.7249055602e+01    0.5794007    0.4101245  44.05  0.001175659    1.744    0.427
        51 -12.0512    199.2978     41.1090   4.6101271522e+01   2.9560728006e+01       0.7562    0.6166602  -4.02  0.003031936    1.454    0.312
        52 -12.5239    111.5574    229.2206   1.0312123457e+02   1.4427270957e+01     1.668566    0.2529179  38.07  0.005658557    4.206    0.762
        53  -7.6835    136.6479     43.2826   5.6642897219e+01   4.5153983054e+01    0.1574442    0.1142659 -73.39 0.0004866371    1.656    0.396
        54  -7.7577    139.0397     37.0176   5.3915734118e+01   4.5436976767e+01    0.1773736    0.1640313  72.21 0.0003206347    1.048    0.046
        55  -9.8322     60.7326    233.5194   1.1381191439e+02   2.0179879537e+01     0.266045    0.2052163 -82.68  0.001081696    1.506    0.336
        56 -11.5568     33.9079    206.1140   1.1778405414e+02   2.8167821549e+01    0.4681245    0.3915895 -30.69  0.001063233    1.802    0.445
        57  -7.8533     12.3257     13.3329   9.5011880777e+01   7.5131846473e+01    0.1341182   0.07843404 -28.35 0.0004852665    1.712    0.416
