#   1 NUMBER                 Running object number                                     
#   2 MAG_AUTO               Kron-like elliptical aperture magnitude                    [mag]
#   3 X_IMAGE                Object position along x                                    [pixel]
#   4 Y_IMAGE                Object position along y                                    [pixel]
#   5 X_WORLD                Barycenter position along world x axis                     [deg]
#   6 Y_WORLD                Barycenter position along world y axis                     [deg]
#   7 A_WORLD                Profile RMS along major axis (world units)                 [deg]
#   8 B_WORLD                Profile RMS along minor axis (world units)                 [deg]
#   9 THETA_WORLD            Position angle (CCW/world-x)                               [deg]
#  10 FWHM_WORLD             FWHM assuming a gaussian core                              [deg]
#  11 ELONGATION             A_IMAGE/B_IMAGE                                           
#  12 ELLIPTICITY            1 - B_IMAGE/A_IMAGE                                       
         1 -13.6715    230.5839     25.5323   4.1619055816e+00   2.5429718305e+01    0.8326454    0.7115779 -78.54  0.003891791    1.125    0.111
         2 -12.0655     34.5278     15.0226   4.2975504718e+01   6.8323328248e+01    0.4377742     0.193947  37.56  0.002294668    2.114    0.527
         3 -11.5697     42.5065     17.6630   4.0550921427e+01   6.6865267576e+01    0.4213482    0.1909883  48.44  0.001929766    3.023    0.669
         4 -11.6928    241.8752    246.2523   4.5698234954e+01  -1.0886194733e+01    0.3699378    0.2117933 -33.32 0.0009720902    1.683    0.406
         5  -9.1062    164.4866    249.9861   6.1382505628e+01  -7.6072620615e-01    0.1641135     0.126793 -38.46 0.0003687743    1.483    0.326
         6 -14.4547    120.1436    234.2136   6.8761368867e+01   9.0097579122e+00     5.333327     4.057518 -68.52   0.03027888    1.581    0.367
         7  -9.0989    165.1555    211.1107   5.5007700625e+01   6.0617509216e+00    0.1792108    0.1657494 -71.59  0.001040446    1.356    0.262
         8  -9.9183    211.0305    198.7697   4.3118576417e+01   6.8895720548e-01    0.2174446    0.1786267 -25.26 0.0004579021    1.139    0.122
         9  -9.9345     35.8398    185.1615   8.2807634120e+01   3.1809939941e+01    0.2287006    0.1552663  64.07 0.0003109672    1.453    0.312
        10  -8.9069     37.1310    199.1361   8.3914507178e+01   2.8372309031e+01    0.2454104    0.1356118  74.82  0.001177761    1.999    0.500
        11 -11.3132     39.4735    193.4967   8.2787280247e+01   2.9428417133e+01    0.4972661    0.3641569  64.99  0.001695398    1.288    0.224
        12 -15.2820     66.0291    143.8371   6.8552988977e+01   3.8313872296e+01     3.380556     2.507476  85.74   0.01661518    1.626    0.385
        13 -10.6260     69.2965    194.6779   7.5541722275e+01   2.5380858099e+01    0.2694751    0.2230363  85.61 0.0009759919    1.191    0.160
        14  -9.2188     46.0434    189.9781   8.0791202223e+01   2.9501683514e+01    0.2056072    0.1338839  70.65  0.000492772    1.604    0.377
        15  -9.2874    207.5244    189.5000   4.2039711199e+01   2.8991821070e+00     0.138643    0.1212961  -6.73 0.0008100672    1.024    0.023
        16 -10.2596     76.0751    244.3116   7.9634549019e+01   1.3577133119e+01    0.1659271    0.1520681  85.57 0.0002836417    1.175    0.149
        17 -11.0334    141.7783    183.0122   5.5320228525e+01   1.6032628327e+01    0.2871963    0.2477994  49.13 0.0007135397    1.179    0.152
        18  -9.5896     28.7302    240.2834   8.9086967594e+01   2.0318573688e+01    0.3826787    0.1860233  30.56   0.00203374    2.149    0.535
        19  -9.7564    198.1462    213.6083   4.8420276665e+01   1.6406598293e-01    0.4129733    0.1702169 -46.01  0.001236535    2.671    0.626
        20 -12.8444     31.4576    247.0018   8.9000775184e+01   1.8661860355e+01    0.8594599    0.5169531 -24.09  0.003562766    5.224    0.809
        21 -11.4985    179.4636    169.3110   4.3817035776e+01   1.1787854769e+01    0.6559008    0.5596509   9.83  0.003505922    1.211    0.174
        22 -10.0270    174.5152    180.5067   4.7187142575e+01   1.0450974601e+01    0.2904691    0.2563523  11.36 0.0008072493    1.105    0.095
        23 -10.9871    172.9422    176.6341   4.6759503847e+01   1.1532263447e+01     0.421919     0.353609 -77.68   0.00167759    1.585    0.369
        24 -10.7771     96.4473    176.0104   6.5656548964e+01   2.5713601275e+01    0.3733918    0.2586777 -51.51  0.001253649    1.476    0.323
        25 -18.5842     13.0019    201.5781   8.9655504895e+01   3.0270887823e+01     11.48714     3.095962 -75.57   0.04462358    3.350    0.701
        26  -9.4010     75.8891    175.0666   7.1022466600e+01   2.9159537051e+01    0.2212927    0.2080393 -76.71  0.001269588    1.050    0.048
        27 -11.2083    104.8188    172.8149   6.2858184193e+01   2.5064543683e+01    0.4409686    0.2886534 -65.60  0.001093874    1.698    0.411
        28 -10.7064    101.7001    167.1709   6.2659740500e+01   2.6957114003e+01    0.4242662    0.3395903  24.72  0.001020776    1.328    0.247
        29 -11.0061    111.3012    167.8511   6.0201679742e+01   2.5107738058e+01    0.4332382    0.2970027  82.82  0.001580422    2.198    0.545
        30  -8.7546     38.5250    204.4777   8.4100913622e+01   2.6982413742e+01    0.1283877    0.1108497  76.33 -5.066072e-06    1.012    0.012
        31  -9.0642     57.2058    202.8633   7.9512168555e+01   2.5087460570e+01    0.1717783    0.1020711 -73.83  0.000847285    1.691    0.408
        32 -10.4430    238.3219    158.6711   3.0348051750e+01   3.2408229383e+00    0.1764516    0.1143454  39.53 0.0009433317    1.725    0.420
        33  -9.4724     45.7007    157.5806   7.6764036140e+01   3.7461003026e+01     0.349617    0.1926632 -71.21  0.001247692    1.758    0.431
        34 -10.0132     43.3282    155.3136   7.7115462045e+01   3.8293062076e+01    0.3459852     0.223278 -19.99  0.001610643    2.253    0.556
        35 -10.9669     83.9699    150.0778   6.4408798654e+01   3.4084919501e+01    0.3208085    0.2678717   1.06 0.0003283811    1.413    0.292
        36  -9.7838     92.5301    156.3850   6.3164608817e+01   3.1136536354e+01    0.2491177    0.2327442  12.71 8.829581e-05    1.139    0.122
        37 -12.5211     89.0282    145.9906   6.2124298852e+01   3.4267661715e+01     0.936215    0.6988034   9.08  0.002616291    1.673    0.402
        38 -10.8866     90.2665    152.6639   6.3090203282e+01   3.2425260498e+01    0.2898419    0.2518911 -59.09 0.0006293519    1.144    0.126
        39 -10.6947     88.0000    149.9597   6.3214913504e+01   3.3462784350e+01    0.2778227    0.2267642  41.89 0.0003444947    1.230    0.187
        40 -11.4577    133.6218    145.6192   4.9631612485e+01   2.6053971235e+01     1.164335    0.2948678 -53.06  0.002817544    5.235    0.809
        41 -10.2235    120.3972    146.9911   5.3458177069e+01   2.8353702245e+01    0.3745017    0.2826287 -27.89 0.0006767614    1.535    0.349
        42 -11.0592    108.8955    145.3184   5.6274103526e+01   3.0932328703e+01    0.3280494    0.3140502 -43.22 0.0006683561    1.053    0.050
        43 -10.1469     81.5934    143.2733   6.3773726625e+01   3.6139814593e+01    0.2700052    0.2626666  45.20 0.0002062772    1.046    0.044
        44  -9.4069    127.9689    138.1688   4.9425060236e+01   2.8899479899e+01    0.2340953    0.2084254  80.18 0.0004387988    1.277    0.217
        45 -11.9053    105.2186    131.5662   5.4246391554e+01   3.4883338686e+01    0.6678194    0.4471627 -26.62  0.001792932    1.905    0.475
        46 -11.6255     91.6229    131.7812   5.8327154915e+01   3.7280674643e+01    0.2931223    0.2691901 -21.33 0.0003904688    1.131    0.116
        47 -11.2412    135.2619    123.4636   4.3973404974e+01   3.0679852502e+01    0.8872077    0.1800521 -48.73  0.002039371    5.665    0.823
        48  -9.0682    150.5455    130.0393   4.1725730805e+01   2.5980200988e+01    0.2298509    0.1521508 -48.36 0.0005726656    1.540    0.351
        49  -9.5000    146.7264    125.9174   4.1666071063e+01   2.7687831410e+01    0.4105389     0.200048  53.34 0.0007323713    2.340    0.573
        50 -10.7456    112.8432    125.8349   5.0687292034e+01   3.4753709843e+01    0.3497587    0.2693819  17.04 0.0009366535    1.510    0.338
        51  -9.3135     99.0436    125.2500   5.4588109073e+01   3.7511476349e+01    0.2056611    0.1948608  42.39 0.0002408063    1.070    0.065
        52 -10.4138     99.7361    121.1048   5.3383802834e+01   3.8349988133e+01    0.3258501    0.2595454   7.51 0.0009592613    1.476    0.322
        53  -9.2341     92.9645    123.2476   5.5954764952e+01   3.9075565547e+01    0.2061769    0.1980035   3.41 0.0004086846    1.044    0.042
        54 -10.5533     75.8546    120.6899   6.0730550562e+01   4.2529179255e+01    0.3616253    0.2297216 -16.47  0.001318709    2.356    0.576
        55  -8.7417    131.2901    120.6355   4.4314404157e+01   3.2142207877e+01    0.1591509    0.1251308 -87.15 0.0007025754    1.702    0.412
        56 -10.7461     42.6431    201.9321   8.2887793222e+01   2.7094089484e+01    0.2519765    0.2247278  55.56  0.001618108    1.120    0.107
        57 -10.1201    108.2355    116.1477   4.9624116166e+01   3.7861468478e+01    0.2526897    0.2417689 -20.48 0.0004274615    1.046    0.044
        58 -11.2997     46.1725    238.5182   8.5408673350e+01   1.8653769799e+01    0.1836904     0.142193 -78.46 -1.630574e-05    1.317    0.241
        59  -9.4425     63.9796    231.3544   8.0963145032e+01   1.7879804739e+01    0.1543316    0.1301685  50.39 0.0002491897    1.083    0.077
        60 -10.8038    115.7052    108.8628   4.5578879613e+01   3.7967441928e+01    0.2747004    0.2111714  28.80 0.0007978767    1.364    0.267
        61  -9.6202     53.9573    230.8696   8.3099742866e+01   1.9284620565e+01    0.1440315    0.1103958 -81.64  0.000450969    1.299    0.230
        62  -9.8206    132.2919    102.6689   3.9398481526e+01   3.5727795568e+01    0.2990199    0.1856378  60.71 0.0007122335    1.946    0.486
        63 -10.7240    112.6609    104.1198   4.5191448951e+01   3.9609903808e+01    0.3129401    0.1413604 -52.64  0.001102663    2.566    0.610
        64 -10.9614     66.9138    104.4000   5.9829883846e+01   4.7689745139e+01    0.3456315    0.2010881 -30.99  0.001479371    2.029    0.507
        65 -10.2785    134.5070    105.9983   3.9707008215e+01   3.4558188586e+01    0.3891891    0.1512437 -46.05  0.001316107    2.665    0.625
        66  -9.0170     60.6780     95.2631   5.9702468618e+01   5.0640892345e+01    0.1328023     0.110004  63.42 0.0002143216    1.556    0.357
        67  -9.6362    113.5436     94.4955   4.2293530815e+01   4.1427011402e+01     0.150253     0.145243  23.22 0.0008090358    1.009    0.009
        68 -12.4186     35.5842     88.9119   6.7405332033e+01   5.5066150672e+01     0.591071     0.351086   5.10  0.002910544    2.008    0.502
        69 -11.6229     45.1490     89.5934   6.3950201983e+01   5.3880087251e+01    0.5884695     0.204306  34.45  0.001883821    2.952    0.661
        70  -9.1515    102.4527     88.4861   4.3861651464e+01   4.4910058883e+01    0.2242705    0.1399555 -33.65 0.0001181288    1.738    0.425
        71 -11.8704     25.5663     87.9885   7.1029190029e+01   5.6199048741e+01    0.3788992    0.2631842  23.84  0.002178375    1.572    0.364
        72  -8.7919    105.0006     78.9273   4.0272880233e+01   4.6239523871e+01    0.1737166     0.161843  25.86 0.0004005327    1.011    0.011
        73  -9.9312     58.0143     85.0704   5.7947437099e+01   5.3223658255e+01    0.2046072    0.1928396  -9.36 0.0003921864    1.076    0.070
        74  -8.8571     90.1527     77.1637   4.4359931573e+01   4.9518271969e+01    0.1897154     0.171324  69.77  0.000481819    1.358    0.264
        75  -9.3115    113.2737     76.5437   3.7158930589e+01   4.4930051189e+01    0.2617018    0.1397585  50.82 0.0006175033    1.863    0.463
        76  -9.6432     46.4047    229.3006   8.4587988946e+01   2.0555726122e+01    0.3322643    0.1791542  28.29  0.001701476    2.029    0.507
        77  -9.3985     30.6490     72.7245   6.5276576237e+01   5.9027096161e+01    0.1356197    0.0846462 -22.54 0.0003203074    1.639    0.390
        78  -9.8782     89.3024     68.3070   4.1865406974e+01   5.1311022334e+01    0.2737049    0.2330332  79.71 0.0006477926    1.623    0.384
        79  -8.9795     72.5434     69.0154   4.7824943085e+01   5.4203795881e+01    0.1951465    0.1320861 -39.00 5.093056e-05    1.478    0.323
        80 -10.2494     33.0415     68.1512   6.3024054418e+01   5.9725225418e+01    0.2100062    0.1682774 -39.59 0.0003755501    1.137    0.120
        81 -12.2140    184.0150     64.0850   1.8331033062e+01   3.0560948583e+01    0.4484395    0.4116544 -50.68 0.0008156174    1.144    0.126
        82  -9.8165     73.4595     64.5806   4.6064133498e+01   5.4858857892e+01    0.3343923    0.2296591 -74.45  0.001223573    3.106    0.678
        83 -13.7492    200.6745     51.9589   1.3012751845e+01   2.8500436897e+01     1.199669    0.9133944  42.84  0.004218225    1.629    0.386
        84  -9.6060    141.3530     59.1330   2.4992615675e+01   4.1415088057e+01     0.265131    0.2008147 -74.13  0.000674294    1.639    0.390
        85  -9.9586    128.3902     55.2679   2.6782244230e+01   4.5030395329e+01    0.3086474    0.2232572  82.78 0.0005704577    1.793    0.442
        86 -12.5969    206.6101     47.2029   1.1183336418e+01   2.7823791266e+01    0.4993266    0.4488065  85.15  0.001614965    1.115    0.103
        87 -12.9536     40.5961    178.9933   8.0914418167e+01   3.2771422294e+01     2.528083     1.168928  33.58   0.01155496    2.149    0.535
        88  -9.4731     58.1583     43.0725   4.4308133733e+01   6.0964991876e+01    0.2231183    0.1627628  55.76  0.000895978    2.003    0.501
        89  -9.6968     40.5468     39.9872   5.0505701185e+01   6.3981886439e+01    0.2052951    0.1588121  32.58 0.0005600881    1.421    0.296
        90 -11.4370     29.0551     36.6675   5.4507055069e+01   6.5894799785e+01    0.4435481    0.2099793 -14.77  0.001835781    3.327    0.699
        91 -10.7482     89.2360    221.9568   7.4212305227e+01   1.6312672444e+01       0.4188    0.2819231  76.41  0.001819045    1.787    0.441
        92 -11.0399     51.0770    247.8161   8.5151719793e+01   1.6169568910e+01    0.2019077    0.1319828  69.06  0.001214527    1.418    0.295
        93  -9.2842     82.9676    246.9391   7.8433351901e+01   1.2094611576e+01    0.1358867    0.1166525  56.41            0    1.042    0.040
        94 -10.3291     33.3896     30.9665   5.0269107899e+01   6.6282259952e+01    0.2064902    0.1424326   6.21 0.0008639413    1.300    0.231
        95 -10.3387     61.0364     21.2148   3.4606007829e+01   6.3449481269e+01    0.2455184    0.1763038  40.63 0.0007782723    1.293    0.227
        96  -8.7146    189.6388     14.7252   5.8001233486e+00   3.5554101680e+01     0.122385   0.08332727  50.78 0.0007005347    1.660    0.398
