#   1 NUMBER                 Running object number                                     
#   2 MAG_AUTO               Kron-like elliptical aperture magnitude                    [mag]
#   3 X_IMAGE                Object position along x                                    [pixel]
#   4 Y_IMAGE                Object position along y                                    [pixel]
#   5 X_WORLD                Barycenter position along world x axis                     [deg]
#   6 Y_WORLD                Barycenter position along world y axis                     [deg]
#   7 A_WORLD                Profile RMS along major axis (world units)                 [deg]
#   8 B_WORLD                Profile RMS along minor axis (world units)                 [deg]
#   9 THETA_WORLD            Position angle (CCW/world-x)                               [deg]
#  10 FWHM_WORLD             FWHM assuming a gaussian core                              [deg]
#  11 ELONGATION             A_IMAGE/B_IMAGE                                           
#  12 ELLIPTICITY            1 - B_IMAGE/A_IMAGE                                       
         1 -10.3276     46.6926     16.5984   7.2819526750e+01   6.7635600327e+01    0.2837723     0.150318 -25.09 0.0008681107    1.809    0.447
         2 -12.3228    216.2927     13.7436   3.5390431480e+01   3.0307236056e+01    0.4178308    0.3489556  77.69    0.0012577    1.177    0.151
         3 -13.3282    189.7085      8.8471   3.6750065598e+01   3.6980870721e+01    0.8680707    0.3557489  73.87  0.003844434    2.239    0.553
         4 -10.6050     65.7769     11.2064   6.2499786495e+01   6.5114428675e+01    0.3429729    0.1480473  49.02   0.00161314    2.215    0.549
         5 -11.8955     43.5822      8.5791   7.0216749003e+01   6.9094215756e+01    0.3047256    0.2186056  36.64 0.0009073672    1.453    0.312
         6 -11.2094     57.8463      6.7865   6.3320766669e+01   6.6985784224e+01     0.332147    0.2544326  17.97  0.001068954    1.066    0.062
         7  -9.3306     65.6386      7.2924   6.0681650389e+01   6.5541679555e+01    0.1091523    0.1000123 -83.58 0.0004142832    1.700    0.412
         8 -12.3480    185.2846      3.5352   3.5833786928e+01   3.8536150075e+01    0.5853218    0.3971231  27.11  0.003191127    2.088    0.521
         9 -10.9362    166.0547      1.4355   3.7356811921e+01   4.3342545259e+01     0.307229    0.1086943  70.42 0.0006612185    2.417    0.586
        10 -10.0872    104.2274    225.4240   1.0582834029e+02   1.3989080479e+01    0.2246261    0.1760482 -66.11 0.0009833515    1.408    0.290
        11  -9.6611      7.9564    250.7559   1.2641279493e+02   2.0932302319e+01    0.1279612   0.07400498  41.13 0.0006417834    1.585    0.369
        12 -11.4162     96.0435    223.5518   1.0735736055e+02   1.5573389930e+01    0.5554802    0.2702914 -44.46  0.002485586    2.840    0.648
        13 -10.5906    232.8163    223.5921   7.9350069820e+01  -5.7235012676e+00     0.162097    0.1059705  37.92 0.0009477864    1.657    0.396
        14 -10.9267    149.2600    221.4767   9.5623535858e+01   7.6279923944e+00    0.4628876    0.1945303 -40.24  0.001898696    2.950    0.661
        15  -9.8750    173.6864    221.5122   9.0494756941e+01   3.6334693017e+00    0.2249138     0.121077 -44.40  0.001094325    2.065    0.516
        16 -10.5932    211.6390    217.9854   8.2312309575e+01  -1.8066405814e+00    0.2920719    0.1893061 -49.38  0.001510051    2.089    0.521
        17 -10.7967    239.6604    215.0301   7.6605429780e+01  -5.4816579046e+00    0.3554613    0.1021184 -41.14   0.00134781    3.820    0.738
        18 -11.4171    218.4844    212.3725   8.0008059875e+01  -1.9925270800e+00    0.3406927    0.2561251  62.35  0.001808862    2.424    0.588
        19 -10.3383    232.6614    210.6958   7.7076310088e+01  -3.8566095078e+00    0.1330281   0.08423574   1.38 0.0007039718    1.673    0.402
        20 -10.0069    116.3217    210.6537   1.0124408913e+02   1.5082851847e+01    0.1422766   0.09790058  67.58 0.0007049643    1.736    0.424
        21 -11.5467     49.7910    201.6105   1.1511658433e+02   2.6433055167e+01    0.4600316    0.2473466  71.52  0.002279305    2.011    0.503
        22 -10.5843    149.4745    198.4891   9.1851972609e+01   1.1981074996e+01     0.239687    0.1394518 -62.41  0.001034353    2.328    0.571
        23 -10.3302    112.0060    197.2802   1.0027873086e+02   1.8598027021e+01    0.2844253    0.1735306  88.94  0.001174943    2.681    0.627
        24 -12.1015    160.0888    192.3651   8.8383225768e+01   1.1320040686e+01    0.7035112    0.4948237 -89.53  0.003022558    2.659    0.624
        25  -9.6371    133.3150    195.6764   9.5060663742e+01   1.5365251614e+01    0.1438791    0.1078977  70.09 0.0003708067    1.663    0.399
        26 -10.3992    183.3587    182.5502   8.1414408102e+01   9.0124187231e+00    0.3588875    0.1275703 -38.94  0.001256347    2.971    0.663
        27  -9.3322    210.6749    181.6541   7.5651110320e+01   4.3106269343e+00    0.1475216   0.09996567  -2.17 0.0007050188    1.743    0.426
        28  -9.5928    191.4927    177.9855   7.8780462043e+01   8.3889463134e+00    0.1962075    0.1268391 -64.08 0.0008106021    2.604    0.616
        29  -9.4306     28.5872    176.5293   1.1760545525e+02   3.4465021785e+01     0.125106    0.1040093 -85.23 0.0002193354    1.063    0.059
        30 -10.0214     34.3264    173.6610   1.1595676821e+02   3.4573539627e+01    0.1388111   0.08177607  68.04 0.0007051534    1.729    0.422
        31 -10.9519     44.3247    171.6490   1.1328949889e+02   3.3996206056e+01     0.223318    0.1149245 -78.07  0.001049918    1.863    0.463
        32 -11.3903     55.2962    167.8811   1.1006306530e+02   3.3638752778e+01    0.4370553    0.2537389  87.01  0.002028564    1.997    0.499
        33  -9.9533    138.4008    164.2028   8.8035633256e+01   2.1291864304e+01    0.2156874    0.1450423 -62.09  0.000951382    1.725    0.420
        34 -10.8425     51.8639    160.2218   1.0995006330e+02   3.5915403819e+01    0.2828552    0.2060265  73.35  0.001198744    1.404    0.288
        35  -9.9823     92.6446    160.3322   9.9086848902e+01   3.0263495713e+01    0.1572758    0.1085057  71.21 0.0001743873    1.789    0.441
        36 -10.9577    108.6664    159.3355   9.4656811876e+01   2.7843182767e+01     0.293618    0.1743123  48.22  0.001269137    1.747    0.427
        37 -10.5006    105.3208    158.6367   9.5406942936e+01   2.8585168272e+01    0.3396943    0.2201764  79.94  0.001370301    2.380    0.580
        38 -10.2546     22.3246    159.3241   1.1748527353e+02   3.9126896349e+01    0.2561265    0.1083762  50.24  0.001167518    2.475    0.596
        39  -9.5213    196.3236    157.6661   7.3480995405e+01   1.1338439189e+01    0.1431653    0.1192986 -80.63 0.0006941919    1.709    0.415
        40 -10.7136    167.1360    156.4993   7.9552760553e+01   1.7341219352e+01    0.3142588    0.2060172 -61.30  0.001333511    1.986    0.496
        41 -11.0554    118.2717    157.2236   9.1726751499e+01   2.6640299743e+01    0.3604254    0.2635206 -51.29 0.0009727887    1.364    0.267
        42 -10.2381    189.3541    149.8872   7.3194006428e+01   1.4225180629e+01    0.3121611    0.1311731 -48.20  0.001103096    2.604    0.616
        43 -10.5604    106.5086    145.0149   9.2375662979e+01   3.1660341187e+01    0.4114999    0.2381924  81.66  0.001204597    4.548    0.780
        44 -10.2367     55.7443    146.1364   1.0686264546e+02   3.8944574747e+01    0.2463803    0.1298964  68.72 0.0009529277    2.856    0.650
        45 -10.0705    148.1999    144.8004   8.1418113838e+01   2.3703178786e+01    0.2567531     0.173933  88.44 0.0009418776    2.783    0.641
        46 -10.1925    218.3429    155.9920   6.8809328472e+01   7.4877406009e+00    0.3267067     0.122762 -38.98  0.001226533    2.462    0.594
        47  -9.7456    181.5124    141.4877   7.2933689103e+01   1.7506914618e+01    0.1506859    0.1456354 -31.19 0.0001714596    1.058    0.055
        48 -11.7630     98.8316    128.4792   9.0941755639e+01   3.7012302731e+01    0.5611341    0.3640753  83.17  0.002099271    2.713    0.631
        49 -10.1675    244.3628    133.6788   5.9468644884e+01   6.6295485235e+00    0.1350155    0.1023958 -65.47 0.0007041314    1.779    0.438
        50 -10.1275    110.6594    132.3101   8.8432366744e+01   3.3967269842e+01    0.1583408    0.1216175  77.91 0.0007044859    1.692    0.409
        51 -10.6034     82.8107    131.4000   9.6303963375e+01   3.8923889333e+01    0.3624608     0.203896 -73.65  0.001417107    2.343    0.573
        52  -9.9227    117.3362    125.6796   8.4988144418e+01   3.4272316830e+01    0.1596657    0.1243551  82.16 0.0004275086    1.706    0.414
        53 -10.9627     43.1763    122.3138   1.0669304299e+02   4.6290645684e+01     0.572587    0.2823462 -88.40  0.002085488    3.348    0.701
        54 -10.8743     28.2756    122.8631   1.1139254497e+02   4.7545984252e+01    0.4351541    0.2077475  78.99  0.001606065    3.616    0.723
        55 -11.6331     93.5833    121.5316   9.0887458419e+01   3.9595519892e+01    0.5966181    0.2613163  42.04 7.433062e-05    2.390    0.582
        56 -11.8761    193.2595    118.1864   6.4872600992e+01   1.9614048107e+01    0.6393083    0.4512521 -70.20  0.002802947    2.003    0.501
        57 -10.2962     71.0281    120.0243   9.7491856072e+01   4.3471321570e+01    0.2953173    0.1938144 -89.26  0.001267296    2.193    0.544
        58 -10.1802     71.4270    115.7523   9.6429490098e+01   4.4463779284e+01     0.218784    0.1217316 -46.94 0.0009513406    1.683    0.406
        59 -11.2901    141.3277    114.9569   7.5802380195e+01   3.1757797786e+01    0.8431285    0.2588291 -42.07   0.00248254    3.278    0.695
        60 -10.6299    108.3303    112.5408   8.4260277568e+01   3.9068332166e+01    0.6765261    0.2865598 -61.11  0.001951298    3.952    0.747
        61 -10.8384     78.6603    112.7725   9.3437348761e+01   4.4122924194e+01    0.3874094    0.2271406 -84.36  0.001332719    3.448    0.710
        62 -11.4052    159.8869    111.7618   7.0407310080e+01   2.8328727448e+01    0.5888154    0.3157282 -51.81  0.002246408    2.079    0.519
        63 -10.4943    121.8533    112.5623   8.0386883345e+01   3.6394772544e+01    0.3014194    0.2122234 -84.97  0.001194966    2.314    0.568
        64 -10.4370     92.0774    111.9361   8.9015253938e+01   4.2150725531e+01    0.4859785    0.2415609 -63.88   0.00172864    2.685    0.628
        65 -10.8363    174.0260    110.6957   6.6947961913e+01   2.5352975834e+01    0.3870791    0.2244246 -44.14  0.001165101    1.686    0.407
        66 -11.3578     14.6450    109.8322   1.1375478693e+02   5.1743863941e+01    0.5703049    0.3196582 -87.67  0.002878846    1.907    0.476
        67 -11.9627     44.6562    100.8009   1.0205695269e+02   5.1408181485e+01    0.6647032    0.4120812  86.38  0.002927689    2.518    0.603
        68 -11.6133    127.7454    100.1180   7.5343121179e+01   3.7896691361e+01    0.5474601    0.2889712 -42.65  0.002154767    1.866    0.464
        69 -11.9576    107.7571     99.0078   8.0759344802e+01   4.2247112871e+01     0.743724    0.5224701 -81.54  0.003037303    2.346    0.574
        70 -12.2302    140.2993    103.4122   7.2941968213e+01   3.4456415651e+01    0.7082091    0.4487271 -48.99  0.003017189    1.620    0.383
        71 -10.4917     94.5560     97.0070   8.4270592348e+01   4.5171687231e+01    0.3132055    0.1980583 -65.54  0.001293661    2.104    0.525
        72 -10.7866     63.0379     96.0713   9.4544016712e+01   5.0342893076e+01    0.3665533      0.19138 -77.38  0.001150245    4.371    0.771
        73 -13.2122    169.6930     91.1011   6.2618685305e+01   3.0138810318e+01    0.6259178    0.4082158 -44.26  0.001530126    1.513    0.339
        74 -11.1810    124.2085     91.6575   7.3870934461e+01   4.0435699793e+01    0.3616452    0.2344113 -69.19  0.001385209    2.482    0.597
        75 -10.9671     87.1881     87.3310   8.3874433232e+01   4.8616106549e+01    0.3666902    0.2474828  72.93  0.001467173    2.752    0.637
        76 -11.2322     46.4809     82.8206   9.7136679679e+01   5.5424240360e+01    0.5846587    0.3646441  76.67  0.002333306    3.486    0.713
        77 -10.0502    140.6730     83.1615   6.6997956632e+01   3.8440353231e+01    0.3162421    0.1307616 -46.06  0.001081409    2.572    0.611
        78 -11.1432    104.5554     83.0151   7.6999304789e+01   4.6296996686e+01    0.4389303    0.3023773 -73.92   0.00179739    2.426    0.588
        79 -10.7056     34.0624     88.4342   1.0314200401e+02   5.5371665862e+01    0.3750008    0.1711318 -73.70  0.001463855    2.942    0.660
        80 -10.5442     23.8867     80.2197   1.0515779051e+02   5.8108908766e+01    0.3186024    0.1637355 -81.77  0.001329558    2.984    0.665
        81  -9.7148    152.0040     78.5028   6.2903292941e+01   3.6648706975e+01    0.2338803    0.1473805  48.80 0.0006195426    1.574    0.365
        82  -9.2955      1.5465     77.9741   1.1328903460e+02   5.9934306686e+01    0.1871324   0.05329118 -50.10 0.0008070377    2.430    0.589
        83 -11.0644     62.2686     71.8918   8.8009296082e+01   5.5842970904e+01    0.5343501    0.1853278 -52.29  0.001920368    2.916    0.657
        84 -11.3383     82.2244     72.8817   8.1079464997e+01   5.2515090342e+01    0.4207691    0.2613617 -67.63  0.001659051    2.872    0.652
        85  -9.8030    115.3369     72.6646   7.0499591907e+01   4.6100128425e+01    0.1516772     0.121785 -82.23 0.0006315149    1.747    0.428
        86 -10.6496     51.7422     70.9043   9.1763427980e+01   5.7438454500e+01    0.2477512     0.187577 -66.36  0.001076365    1.599    0.374
        87 -12.4441     41.9756     63.1977   9.3348816713e+01   6.0194851786e+01     0.548797    0.4945718  64.70 0.0008472232    1.524    0.344
        88 -11.7723     21.0744     51.1100   9.8746520009e+01   6.4620956138e+01    0.5299762    0.3092076 -55.78  0.002972011    1.564    0.360
        89 -12.8506     28.0509     60.5974   9.8466694601e+01   6.2095275011e+01     0.775717    0.5914323 -56.04 0.0008474946    1.280    0.219
        90 -12.0034     34.1911     57.8822   9.4995537905e+01   6.2096519744e+01    0.4835508    0.3469195  -3.31   0.00242699    1.453    0.312
        91 -10.3173    196.7447     67.1507   5.1114680297e+01   2.7836122845e+01    0.3649237    0.1906679  53.80  0.001401186    1.944    0.485
        92 -11.7969    237.6839     63.9992   4.4735916144e+01   1.9151155699e+01     0.333987    0.2118523 -64.67  0.001724057    1.685    0.407
        93 -12.4869    231.0136     59.3360   4.4453756007e+01   2.1248510712e+01    0.5743857    0.3072359 -54.59  0.002723027    1.862    0.463
        94  -9.9246    100.5067     60.9930   7.1009998979e+01   5.1332369788e+01    0.2035188    0.1241635 -59.35 0.0008104099    2.571    0.611
        95 -11.3277      9.4931     55.8745   1.0533531275e+02   6.4403194542e+01    0.3712286    0.3673613  68.63  0.002404223    1.337    0.252
        96 -10.3567     54.0275     54.2795   8.5386694736e+01   6.0506377126e+01    0.3380645    0.1686036 -60.23   0.00127927    3.513    0.715
        97 -10.6878     41.3819     53.7457   9.0532131397e+01   6.2172365492e+01    0.3042552    0.1955844  40.73  0.001488306    1.958    0.489
        98 -10.0537    161.0551     53.0243   5.3359850356e+01   3.8641841876e+01    0.2382252    0.1731306 -74.78 0.0009411622    1.701    0.412
        99 -10.9163    148.8249     52.8378   5.5752716917e+01   4.1662863602e+01     0.201841    0.1723857 -76.35  0.000349038    1.318    0.241
       100 -10.1949    154.1179     48.3310   5.3272460026e+01   4.1025412216e+01    0.2209525    0.1985627  -6.91 0.0003867442    1.232    0.188
       101 -10.9589      9.8296     43.9546   1.0187163644e+02   6.6827960234e+01    0.3860244    0.1692463  11.54   0.00153156    2.591    0.614
       102 -10.7657      4.8446     41.1560   1.0347288161e+02   6.7663793686e+01    0.2745559    0.1808282 -58.08  0.001065937    1.393    0.282
       103 -11.3858     74.0940     43.0332   7.3275658097e+01   5.9367964284e+01    0.4251169    0.2213283  51.60   0.00184822    2.497    0.600
       104 -10.5317     37.8098     40.3904   8.7290254165e+01   6.5084651903e+01    0.2443397     0.154523  19.73  0.001386115    1.616    0.381
       105  -9.4482     48.3690     34.7718   8.0267452064e+01   6.4723702319e+01    0.1800877    0.1029141 -28.94 0.0005781323    1.632    0.387
       106 -10.4361    109.1272     31.8377   5.7855062310e+01   5.3897275744e+01    0.2724761    0.1878157  66.54 0.0009052387    1.672    0.402
       107 -10.6775    104.0107     30.4149   5.8685247638e+01   5.5208176533e+01    0.4508924    0.1828362  56.92  0.001146242    2.520    0.603
       108 -10.3103     73.3638     32.3294   6.9178683840e+01   6.1116214612e+01    0.2544035    0.1673285  63.97  0.001189135    2.590    0.614
       109 -10.1502    193.4977     29.5146   4.1676169410e+01   3.3829403072e+01    0.1345465    0.1192519 -81.80 -1.991045e-05    1.017    0.016
       110 -10.2654     39.4812     14.7529   7.5240295956e+01   6.8905594841e+01    0.2605838     0.138436 -13.58  0.001003863    2.136    0.532
       111 -11.3234     42.5055     21.1232   7.6881354850e+01   6.7612337157e+01    0.4929289    0.2535253  33.56  0.002379992    1.905    0.475
       112 -11.7408    220.7118    248.2515   8.5648522762e+01  -7.3670458882e+00    0.4914598    0.2645675  41.40  0.002733053    2.032    0.508
       113 -11.1469    239.7685     20.5465   3.4915354801e+01   2.4421782953e+01    0.2385914    0.1876816 -89.93 0.0004931545    1.182    0.154
       114 -11.2579    203.1220     20.6768   3.8326228139e+01   3.2572854321e+01    0.2630617     0.112488  80.23  0.001062333    2.564    0.610
       115 -10.0106     89.6167     18.2917   5.7888897441e+01   5.9695901792e+01    0.2711515    0.1593615  65.64  0.001286565    2.193    0.544
       116 -10.3887     30.6068     18.1996   8.1285730631e+01   6.9546821959e+01    0.1722227   0.09205352 -27.73 0.0008301674    1.673    0.402
       117 -11.1146     22.2799    248.4047   1.2385339221e+02   1.9934045191e+01    0.1892192   0.09663237  31.76  0.001132746    2.138    0.532
       118 -10.4423    197.2951    247.0093   8.9823707965e+01  -3.9294457312e+00    0.1693861    0.1430928   1.79  0.001165579    1.132    0.116
       119 -10.3530     32.8059    242.2819   1.2163114647e+02   1.9964224383e+01    0.1847676    0.1020322  54.81  0.000731874    1.431    0.301
       120 -10.7622      7.9997    240.7096   1.2597103669e+02   2.2791722085e+01    0.1525375     0.110978  63.22 0.0007488887    1.081    0.075
       121 -10.7197     19.2850    236.4142   1.2375989463e+02   2.2510595068e+01    0.1910791    0.1014434  30.33  0.001137689    2.138    0.532
       122 -10.1998    108.9814    232.9285   1.0572138611e+02   1.1832621153e+01    0.1965448    0.1635664  42.61 0.0007606657    1.068    0.064
       123 -10.6897     12.8191    227.6808   1.2448088229e+02   2.4859738583e+01    0.2091741    0.1252183  83.12 0.0006234994    1.377    0.274
