#   1 NUMBER                 Running object number                                     
#   2 MAG_AUTO               Kron-like elliptical aperture magnitude                    [mag]
#   3 X_IMAGE                Object position along x                                    [pixel]
#   4 Y_IMAGE                Object position along y                                    [pixel]
#   5 X_WORLD                Barycenter position along world x axis                     [deg]
#   6 Y_WORLD                Barycenter position along world y axis                     [deg]
#   7 A_WORLD                Profile RMS along major axis (world units)                 [deg]
#   8 B_WORLD                Profile RMS along minor axis (world units)                 [deg]
#   9 THETA_WORLD            Position angle (CCW/world-x)                               [deg]
#  10 FWHM_WORLD             FWHM assuming a gaussian core                              [deg]
#  11 ELONGATION             A_IMAGE/B_IMAGE                                           
#  12 ELLIPTICITY            1 - B_IMAGE/A_IMAGE                                       
         1 -14.8936    158.1415     48.9212   8.1238852589e+01   3.9703403023e+01     1.231153     1.105198 -34.84   0.00366292    1.180    0.153
         2 -14.9509    168.9643     17.9222   7.0251638583e+01   4.0919084231e+01     1.470354     0.967516 -89.81  0.005712262    1.704    0.413
         3 -13.7275    197.4164      7.5021   6.3737450921e+01   3.5028996906e+01     1.043747    0.5366492 -67.73  0.004726107    2.348    0.574
         4 -14.3750    189.6283     14.5399   6.6454493225e+01   3.6194480730e+01     1.191419    0.6989943 -71.05  0.005712979    2.002    0.501
         5 -10.3780     45.4096    246.4851   1.4565287844e+02   1.8779653684e+01    0.1104122   0.08293278  76.25 0.0001711793    1.079    0.074
         6 -20.4180     82.2519    178.8404   1.3144553548e+02   2.7746527791e+01     16.04288     6.928877 -64.25   0.06845469    2.224    0.550
         7 -13.0227    189.7547    155.6495   1.0271054730e+02   1.2034254574e+01    0.5816046    0.5237143  44.41  0.001689592    1.104    0.094
         8 -12.6540    192.5276    164.8874   1.0415972073e+02   9.5971096922e+00    0.3687663     0.330209 -20.25 0.0007890537    1.167    0.143
         9 -12.7398    189.9436    160.9800   1.0384815277e+02   1.0923375939e+01    0.4164737    0.3548681  71.05  0.001112759    1.336    0.252
        10 -12.7517    230.4640    167.6272   9.7323336212e+01   1.3392246613e+00    0.4474199    0.2327632 -50.33  0.001860824    2.317    0.568
        11 -10.4875    143.6622    237.1797   1.2698825696e+02   5.4323604146e+00    0.2017459    0.1441245  53.36 0.0003061174    1.206    0.171
        12 -12.8067    142.7804    156.3723   1.1331749845e+02   2.1958160688e+01    0.4565367    0.2755589  50.30  0.001616868    1.661    0.398
        13 -10.7540      9.6126    237.3904   1.5078385689e+02   2.4575972068e+01    0.1063679   0.07029673  76.70 0.0001989631    1.039    0.037
        14 -11.5375     22.7795    155.6389   1.4180962990e+02   4.0351919708e+01     0.275029    0.1731301 -69.69  0.001008817    1.269    0.212
        15 -12.5594    161.2726    152.7800   1.0827926467e+02   1.8835624882e+01    0.3315385    0.2790917  44.73  0.000974661    1.182    0.154
        16 -11.1342     27.9261    231.4612   1.4747548873e+02   2.3717117817e+01    0.1622924    0.1054751 -88.11 0.0007944636    1.233    0.189
        17 -12.0017    174.1009    148.4847   1.0445104029e+02   1.6946591809e+01    0.4647867    0.3427083 -60.37  0.001599984    1.511    0.338
        18 -10.8835      8.3332    149.1046   1.4433040231e+02   4.3036672086e+01     0.169231    0.1442117 -62.37 0.0005257782    1.290    0.225
        19 -12.1412     10.9256    144.2901   1.4323271858e+02   4.3907557019e+01    0.2407972    0.1940803 -38.77 0.0005605774    1.584    0.369
        20 -13.4964    207.9606    225.2782   1.1277896429e+02  -4.0433390057e+00    0.4638559     0.312914 -36.87  0.001579159    1.640    0.390
        21  -9.7353     38.2621    249.3149   1.4700505362e+02   1.9145747953e+01    0.2258656   0.09301841  80.30  0.001119883    2.723    0.633
        22 -12.9547    160.6151    127.9940   1.0263496396e+02   2.4348452306e+01    0.5205784    0.4064985 -61.70  0.001667242    1.378    0.274
        23  -9.7029     17.6293    129.7467   1.3986829284e+02   4.6646692358e+01    0.1152721   0.07763302 -43.00 0.0004232174    1.637    0.389
        24 -10.9969     32.3533    222.1944   1.4605555760e+02   2.5028399161e+01    0.2092952    0.1378134 -63.35  0.001380378    1.704    0.413
        25 -10.2710     26.1909    221.4303   1.4706317001e+02   2.5878348851e+01    0.1574319    0.1046696 -79.21   0.00108005    1.310    0.236
        26 -10.4394     12.5816    121.8169   1.4008450190e+02   4.8806884684e+01    0.2083638    0.1405994 -25.62  0.001284451    2.009    0.502
        27 -10.7545    217.5412    218.0239   1.0969513157e+02  -4.6098328377e+00    0.1833228    0.1258835 -35.23 0.0005132549    1.559    0.359
        28 -11.1605    167.6568    112.7212   9.7171772218e+01   2.5942480745e+01      0.38721     0.291275 -82.94  0.001137289    1.746    0.427
        29 -10.8505     24.5361    214.8921   1.4687236499e+02   2.7372459134e+01    0.1482163    0.1113491  72.21 0.0001039358    1.118    0.105
        30 -10.8719    205.4497    110.1592   8.8745935628e+01   1.7490034559e+01    0.3225367     0.220011  44.22 0.0009132905    1.564    0.361
        31 -11.8702     32.4734    104.2529   1.3179299166e+02   5.1128036424e+01    0.3004414    0.2054561  -2.22  0.001529605    2.026    0.507
        32 -10.6168     20.6062    211.1268   1.4728526182e+02   2.8557684420e+01    0.1518676   0.08526957 -75.17 0.0003843906    1.491    0.329
        33 -13.5897     11.6195    205.8226   1.4848682782e+02   3.0552219301e+01    0.3697032    0.3281778  24.46  0.002495681    1.809    0.447
        34 -10.0678     23.4329    191.6227   1.4521503385e+02   3.2342397094e+01    0.2655631    0.1243937 -51.52  0.001075052    2.791    0.642
        35 -12.7450     52.4864     91.7407   1.2307006517e+02   5.1835449241e+01    0.3592452    0.3047507  -8.41  0.001101795    1.319    0.242
        36 -12.4966    128.9677    243.2813   1.3056217530e+02   6.8949787058e+00    0.2112349    0.1957308 -89.94 0.0004519762    1.216    0.178
        37 -12.8831    204.1046    174.8160   1.0391397126e+02   5.2880423004e+00    0.6066816     0.385056 -61.30  0.002074706    2.248    0.555
        38 -11.0016    142.8360     82.0859   9.4522817983e+01   3.7833389773e+01    0.2302917    0.2071854 -70.15 0.0004851793    1.212    0.175
        39 -11.5632    207.6651    171.5593   1.0252054291e+02   5.1713178143e+00    0.4170201     0.242345 -56.57  0.001544784    2.304    0.566
        40 -14.5795    147.7593     63.5387   8.7851362734e+01   3.9951424049e+01      1.16897     1.095252   6.02  0.001227923    1.125    0.111
        41 -12.6169    116.1957    247.1051   1.3337704236e+02   8.3464801739e+00     0.245443    0.2079089 -58.44   0.00102946    1.466    0.318
        42 -13.5033    162.4689     39.9084   7.7727421197e+01   3.9891439352e+01    0.4855337    0.4596372 -82.92 0.0008250336    1.085    0.078
        43 -11.3357     13.4358     59.7587   1.2830567960e+02   6.1853032139e+01    0.1813011    0.1539192 -41.65 0.0004150608    1.127    0.112
        44 -12.7329    195.8876    173.8759   1.0537764387e+02   7.1470047168e+00    0.7799669    0.4427078 -58.13  0.002906334    2.422    0.587
        45  -9.9418     32.1859    249.5860   1.4798476329e+02   1.9825260959e+01    0.1097247   0.05672878  79.71 0.0006332833    1.632    0.387
        46 -10.7418    149.2292    247.8905   1.2737404071e+02   2.6733519581e+00    0.2658536    0.1720281  18.49  0.001318663    2.507    0.601
