#   1 NUMBER                 Running object number                                     
#   2 MAG_AUTO               Kron-like elliptical aperture magnitude                    [mag]
#   3 X_IMAGE                Object position along x                                    [pixel]
#   4 Y_IMAGE                Object position along y                                    [pixel]
#   5 X_WORLD                Barycenter position along world x axis                     [deg]
#   6 Y_WORLD                Barycenter position along world y axis                     [deg]
#   7 A_WORLD                Profile RMS along major axis (world units)                 [deg]
#   8 B_WORLD                Profile RMS along minor axis (world units)                 [deg]
#   9 THETA_WORLD            Position angle (CCW/world-x)                               [deg]
#  10 FWHM_WORLD             FWHM assuming a gaussian core                              [deg]
#  11 ELONGATION             A_IMAGE/B_IMAGE                                           
#  12 ELLIPTICITY            1 - B_IMAGE/A_IMAGE                                       
         1 -12.3455    128.2280     50.6650   8.0070879303e+01   4.6403051766e+01    0.5577347    0.3405365 -15.56  0.001420124    2.053    0.513
         2 -10.9032      9.7234     15.9167   1.0984099247e+02   7.0827796568e+01    0.2733168     0.157974 -28.63  0.001061974    1.526    0.345
         3 -11.6290      3.9628     19.0319   1.1390380627e+02   7.0634209106e+01    0.4012703    0.2731253 -44.29  0.002847865    1.082    0.075
         4 -11.8835      7.9189     28.5887   1.1522036558e+02   6.8596181332e+01    0.8817571    0.2130082 -42.75  0.003488211    3.143    0.682
         5 -11.6243     60.5648     23.2080   9.0190571517e+01   6.3926860240e+01    0.5205121    0.2799304 -52.80  0.002297143    2.929    0.659
         6 -12.1895    129.2015     23.6446   6.9920013664e+01   5.0028757982e+01    0.4678666    0.3591506 -43.25 0.0007382599    1.435    0.303
         7 -11.2949     34.8327     16.9192   9.8143344132e+01   6.8353199352e+01    0.4919839    0.2778883 -39.61  0.002190609    1.494    0.331
         8 -11.6543     19.6298     16.7990   1.0527641224e+02   6.9895689606e+01    0.5814927    0.4357109 -72.90  0.003624097    2.220    0.550
         9 -11.1045     75.6423     16.5805   8.1723732984e+01   6.2360495521e+01    0.4479383    0.2613755  -5.34  0.001791518    2.107    0.525
        10 -12.2486     80.7382      7.0026   7.5573153280e+01   6.2573258594e+01    0.5227593     0.299412   9.92 0.0009162655    2.122    0.529
        11 -11.1678     74.5587      6.4648   7.7298698194e+01   6.3806056185e+01    0.5145841    0.2274128 -11.86 0.0009481361    3.057    0.673
        12 -10.0172     72.9810      2.0282   7.5628647691e+01   6.4586204053e+01    0.2130879    0.1789493  10.25 0.0004356857    1.016    0.016
        13 -10.8438     70.3422     14.6981   8.2684422415e+01   6.3550537968e+01     0.360569    0.1935604 -19.03   0.00175413    1.925    0.481
        14 -11.3463     61.7222     12.3303   8.4705616847e+01   6.5315864745e+01    0.4931275    0.3727967 -43.09   0.00206108    1.609    0.379
        15 -10.4921     55.4656     13.4584   8.7678361209e+01   6.6142319285e+01    0.1993462    0.1687929 -53.55 0.0006128781    1.703    0.413
        16 -11.0919    132.0799     13.5753   6.5462406369e+01   5.0467950667e+01    0.4980435    0.2121975  -4.55  0.001590255    4.118    0.757
        17 -10.4901     99.7583     12.9423   7.2761566052e+01   5.8017433938e+01    0.2454513    0.2270097 -10.89  0.001199998    1.136    0.120
        18 -10.3207     30.6428     13.3121   9.8427331649e+01   6.9399616305e+01    0.2188362    0.1409487 -30.60   0.00074261    1.253    0.202
        19 -10.2870     26.4281     13.7256   1.0062701219e+02   6.9774889130e+01    0.1972044    0.1388877 -18.87 0.0002081081    1.233    0.189
        20 -10.5507    114.8651     12.2770   6.8685746109e+01   5.4715224760e+01    0.3739168     0.233073  69.93 0.0007115945    1.908    0.476
        21  -9.8125    240.1725     12.0893   5.0682559480e+01   2.3240654679e+01    0.1741334      0.17314   4.30  0.000286195    1.180    0.153
        22 -10.1077    175.6787     11.9772   5.7626515858e+01   3.9475017347e+01    0.1928145     0.182644 -23.24 0.0005256695    1.121    0.108
        23  -9.9198      3.9950     12.1783   1.1130972404e+02   7.1870667427e+01    0.1763574    0.1108716 -32.75  0.001204538    1.260    0.206
        24  -9.4090    185.9754     10.9541   5.5960352752e+01   3.6893836000e+01    0.1631184     0.158516 -81.11 0.0003682841    1.043    0.041
        25 -10.2676    108.4369     10.8092   6.9611652842e+01   5.6339211992e+01    0.2306219    0.1778262  52.58 0.0003018661    1.270    0.212
        26  -9.3340     51.3820     10.8064   8.8035902047e+01   6.7121339803e+01    0.1671243   0.09893813 -21.47 0.0005107379    1.554    0.356
        27 -10.3578      2.9127      8.0339   1.1018920154e+02   7.2662253392e+01     0.195047    0.1418695  -0.18 0.0003128047    1.465    0.317
        28 -13.4906     29.8124      2.7936   9.3596104510e+01   7.1081715596e+01    0.6870065    0.3539553  11.72  0.001739849    2.624    0.619
        29 -12.5360     11.4856      2.7444   1.0307884286e+02   7.2913955480e+01    0.5676304    0.3214903 -21.88  0.002936992    1.616    0.381
        30 -11.8982     18.2661      4.1380   1.0014229020e+02   7.2096353203e+01    0.3977409    0.2674068 -15.34  0.001490064    1.308    0.236
        31 -10.4228    155.7565      6.6374   5.8748197125e+01   4.5169517659e+01    0.3161806    0.1992323  -8.29  0.001173151    1.825    0.452
        32  -9.5143    178.6464      8.7092   5.6199516166e+01   3.9024324929e+01    0.1503904   0.09634996  40.36 0.0004501474    1.678    0.404
        33 -11.3223    115.5489      5.4121   6.5693511504e+01   5.5245505897e+01    0.4640854    0.2408407 -28.30  0.001276993    1.962    0.490
        34  -9.5995    182.8388      7.4188   5.5268877483e+01   3.8057134254e+01     0.197036    0.1171156  57.50 0.0004640701    1.563    0.360
        35 -10.1474     89.9782      7.2926   7.2948156482e+01   6.0695520385e+01    0.3164785    0.1555704  59.86 0.0008195633    2.351    0.575
        36  -9.3628    129.2785      4.3186   6.2437080966e+01   5.2057522393e+01     0.144346   0.09359568  30.63 0.0002321782    1.577    0.366
        37 -10.7201    115.9855    225.7795   1.2027845754e+02   1.4643422823e+01    0.1658102    0.1135443  76.82 0.0006267288    1.637    0.389
        38 -10.5184    247.0155    249.9769   1.0113408974e+02  -8.5236715022e+00    0.2598598    0.1273281  27.43  0.001573416    1.637    0.389
        39 -10.9170    250.4041    245.0618   9.9881338526e+01  -8.5455840564e+00     0.392492    0.1639291 -23.16  0.002210609    2.761    0.638
        40 -10.1306     72.5758    250.1466   1.2983580917e+02   1.6858921627e+01    0.1528906    0.1323552  35.97  0.001248322    1.608    0.378
        41 -11.7716     27.8803    247.1265   1.3661375422e+02   2.2534485878e+01    0.3569994    0.1745934 -87.13  0.002533777    1.878    0.468
        42 -12.4443     20.8892    248.8484   1.3773405775e+02   2.2989298842e+01    0.7144766    0.1475657  42.87   0.00380802    3.076    0.675
        43 -13.2872     15.0576    240.6392   1.3825551292e+02   2.4881447130e+01    0.7363632    0.5554414 -74.47  0.006412121    1.644    0.392
        44 -10.8584    123.1086    221.4507   1.1849823945e+02   1.4243637521e+01      0.30597    0.1916141  53.01  0.001505034    1.342    0.255
        45 -10.2046     13.4239    221.8974   1.3768108567e+02   2.8173868192e+01    0.1460725    0.1014621  64.52 0.0005919959    1.102    0.093
        46 -12.1878      6.6552    244.1079   1.3963648543e+02   2.5139501697e+01    0.4604725    0.2813776 -89.95  0.002692178    1.400    0.286
        47  -9.7081    250.4868    219.1175   9.5770342888e+01  -6.0241419529e+00    0.1518902    0.1011014 -17.16 0.0005482953    1.500    0.333
        48  -9.8985    174.1936    219.6514   1.0893504103e+02   6.1848260635e+00    0.1807721    0.0935296  35.71 0.0006381423    1.709    0.415
        49  -9.8870    191.5589    217.2778   1.0546791427e+02   3.6005040587e+00    0.1931739    0.1200613 -43.44   0.00112156    1.998    0.499
        50 -10.5447    141.5143    221.1654   1.1509205846e+02   1.1360563493e+01    0.2622448    0.1729099  27.93  0.001526673    1.735    0.424
        51 -11.0062      9.9976    217.0417   1.3800872477e+02   2.9345234957e+01    0.2434044    0.1253969  61.69 0.0007397683    1.439    0.305
        52 -11.1846    235.0241    216.5244   9.7858589900e+01  -3.3862315083e+00     0.184385    0.1639827  61.50  0.001279906    1.765    0.433
        53  -9.5370     37.5449    217.4955   1.3344477913e+02   2.6456612320e+01     0.105674   0.07872295  71.61 4.550074e-05    1.041    0.039
        54  -9.7211    201.4631    215.7395   1.0347495456e+02   2.1468163323e+00    0.1504911    0.1097025 -10.21 0.0009289659    1.589    0.371
        55 -10.3411     30.9351    215.8315   1.3446830156e+02   2.7467364602e+01    0.1894002    0.1127914  54.27  0.001190119    1.337    0.252
        56  -9.7971    194.5361    215.4781   1.0466036463e+02   3.3405479927e+00    0.1233948    0.1000007  30.74 -1.139584e-05    1.006    0.006
        57  -9.5158    137.1837    215.6356   1.1518568204e+02   1.2933050560e+01     0.176629   0.09867475  35.92 0.0009414557    1.721    0.419
        58  -9.7144    170.3092    213.3132   1.0871855926e+02   7.7491779604e+00    0.1215498   0.08850812  16.22 0.0003373949    1.627    0.386
        59  -9.2723    115.0000    214.9905   1.1924759591e+02   1.6568354100e+01    0.1664865   0.06762131 -58.13 0.0005537164    2.858    0.650
        60 -11.0523     20.7078    211.7531   1.3596879786e+02   2.9249449061e+01    0.2820138    0.1215535  69.04  0.001010143    2.015    0.504
        61  -9.3607    212.9662    212.0441   1.0086636409e+02   7.0363829058e-01    0.1427468    0.1181835  20.62 0.0003871521    1.045    0.043
        62 -10.2356    208.9677    212.0724   1.0156886519e+02   1.3654732579e+00    0.1867988    0.1499937  25.79 0.0004570063    1.012    0.012
        63 -12.0222      4.7181    207.4903   1.3843678654e+02   3.1527621919e+01    0.4587257    0.2047066  79.98  0.002925503    1.841    0.457
        64  -9.5132    184.4798    208.5204   1.0538585237e+02   6.0114921112e+00     0.126506    0.1041884  31.61  0.000108595    1.034    0.033
        65 -11.1397    240.9688    211.2665   9.5992219011e+01  -3.7240148588e+00    0.1772732    0.1303915  25.40  0.001064751    1.100    0.091
        66 -10.0410    175.1643    202.7781   1.0620338015e+02   8.4775754379e+00     0.188595    0.1567689  51.93 0.0006593107    1.205    0.170
        67 -10.9735     18.7339    202.6799   1.3580138696e+02   3.1100289210e+01    0.2277079    0.1817938  83.96  0.000904827    1.197    0.164
        68 -10.1004    222.8973    200.9512   9.7260262062e+01   4.4364806956e-01    0.3332881    0.2262226 -68.34  0.001438835    4.311    0.768
        69  -9.2269    218.2714    201.6465   9.8186006295e+01   1.1366803542e+00    0.1074962   0.09983339  86.51 0.0003087739    1.636    0.389
        70  -9.4903     34.6681    201.0067   1.3285965124e+02   2.9783393553e+01    0.1473547    0.1098047  79.54 0.0004037072    1.056    0.053
        71  -9.7177    227.1334    196.8625   9.5804730190e+01   2.4804474110e-01    0.1783921    0.1254149  15.25 0.0007080103    1.343    0.255
        72  -9.6010    203.0058    195.9745   9.9918133640e+01   4.5462616022e+00    0.1554508     0.132075  24.38 0.0005436529    1.014    0.014
        73 -10.6416    215.4802    194.4904   9.7416694649e+01   2.5587923368e+00    0.2004575    0.1154761 -19.65 0.0006672159    2.085    0.520
        74  -9.9122    232.3180    191.3024   9.3905708751e+01   7.7019239187e-02    0.1303215   0.08379057  13.47 0.0002852587    1.623    0.384
        75  -9.3660    246.3197    190.3354   9.1377829383e+01  -2.1373490822e+00     0.131119   0.08091718  10.90 0.0006518533    1.703    0.413
        76  -9.2173    205.5289    190.5002   9.8489253029e+01   4.8703713955e+00    0.1301055     0.110773  24.22 0.0001297865    1.004    0.004
        77  -9.2377      1.6149    188.1999   1.3804346299e+02   3.5373163452e+01    0.1347992   0.07492736 -76.04 0.0004288851    1.557    0.358
        78  -9.4856     61.6230    184.7841   1.2632974808e+02   2.9791490687e+01    0.1668086   0.09734494 -85.37 0.0009488512    1.687    0.407
        79 -11.4719     16.0352    182.5536   1.3507352890e+02   3.5200469981e+01    0.3663694    0.1690492  79.96  0.002108111    1.972    0.493
        80 -10.2714    167.1913    183.4100   1.0452523674e+02   1.3007990123e+01    0.1938073    0.1146592  51.78  0.000946385    1.669    0.401
        81 -10.0612      1.9069    180.1828   1.3757175999e+02   3.6893210587e+01    0.1638322    0.1030707  71.34 0.0005559935    1.220    0.180
        82 -10.7399    244.5759    178.1364   8.9344557392e+01  -3.3079444138e-01    0.2491007    0.1445252 -12.14  0.001275644    1.908    0.476
        83 -10.9051    224.2930    178.2605   9.2835992102e+01   3.2120700720e+00    0.2454119    0.2227938  17.56 0.0004551671    1.134    0.118
        84  -9.2946     36.0576    178.4935   1.3088474326e+02   3.4029274543e+01    0.1481868    0.1007869  45.66 0.0005083373    1.465    0.317
        85 -10.3315    200.1708    176.8076   9.6942545617e+01   7.8753604158e+00    0.1863995    0.1448588  13.63 0.0005606505    1.318    0.241
        86  -9.6170     70.0534    177.5542   1.2382331696e+02   3.0157586833e+01    0.1656202    0.1107516  42.61 0.0005025377    1.485    0.327
        87  -9.7866     74.8517    171.1318   1.2204130780e+02   3.0830029957e+01    0.1732236    0.1490255 -34.16  0.001099906    1.639    0.390
        88 -11.1036     12.8530    170.0203   1.3485931649e+02   3.7988246642e+01    0.3038368    0.1121818  88.87  0.001456612    2.726    0.633
        89  -9.6330      4.6664    168.5136   1.3637313458e+02   3.8979959412e+01    0.1939617   0.07822388 -79.73  0.001087924    1.976    0.494
        90  -9.7080    209.8652    166.1836   9.3047957458e+01   7.6541650429e+00     0.192489    0.1475146  14.50 0.0006124243    1.321    0.243
        91  -9.7378     67.1597    165.1438   1.2297993484e+02   3.3119245645e+01    0.1787865    0.1263677  72.84 0.0007671657    1.332    0.249
        92 -10.7980     51.5027    164.3385   1.2631265918e+02   3.5236262365e+01    0.3122168    0.1671568 -45.97  0.001564812    2.646    0.622
        93 -11.4320     43.7167    162.4634   1.2780549626e+02   3.6520834837e+01    0.3550018    0.1920538  57.93  0.001999187    1.768    0.434
        94  -9.5264    200.2457    162.6324   9.4129296868e+01   1.0079706869e+01    0.1896173    0.1189806  36.31 0.0004565757    1.510    0.338
        95 -11.6037     36.8602    159.4803   1.2899563403e+02   3.7890184753e+01    0.5398547    0.2003931 -68.47            0    2.281    0.562
        96  -9.5811    115.5057    159.4081   1.1130517377e+02   2.6946688011e+01    0.1350379    0.1227793  66.01 0.0008033395    1.017    0.017
        97 -10.1408    246.4855    162.4997   8.5899922179e+01   1.3803558966e+00     0.129897     0.111987   3.42 -2.201467e-05    1.045    0.043
        98 -10.3697    247.4930    158.4921   8.4906032957e+01   1.7382913665e+00    0.1306663     0.112903   1.88 1.600254e-05    1.042    0.040
        99 -11.1947     22.6349    155.7179   1.3173196767e+02   4.0080103116e+01    0.3480378    0.2667744 -82.95  0.002498125    1.105    0.095
       100  -9.2339    147.5198    156.5048   1.0367236611e+02   2.1623761630e+01    0.1403916    0.1315424  54.63 0.0002026248    1.016    0.016
       101  -9.4749    216.9303    155.0000   8.9434771423e+01   7.9921493077e+00    0.2282524   0.07447325  46.81 0.0008068968    2.973    0.664
       102  -9.3296    151.6772    153.3324   1.0214412695e+02   2.1421925257e+01    0.1448501    0.1113546  82.88 0.0004792288    1.703    0.413
       103 -10.2513     11.5667    153.3545   1.3391419355e+02   4.1538161430e+01    0.2282415    0.1118702  22.01  0.001265998    2.956    0.662
       104  -9.9077    205.4945    152.0097   9.0909838313e+01   1.0740352717e+01    0.2111546     0.135885 -32.26 0.0007070912    1.591    0.372
       105 -10.4194    178.1223    151.4417   9.6169371120e+01   1.6428439799e+01    0.2680947    0.2406547  68.34  0.001087411    1.258    0.205
       106 -10.5420     18.0044    146.4225   1.3193145960e+02   4.2471958410e+01    0.2484167    0.1717557 -34.90 0.0009286089    2.217    0.549
       107 -10.4754    207.0001    146.0311   8.9326590446e+01   1.1401523479e+01    0.2211117    0.1995644  15.52 0.0007260714    1.025    0.025
       108 -10.7797     11.0999    146.4429   1.3346659791e+02   4.3037472308e+01    0.2373839    0.1060338  44.91  0.001359535    2.186    0.543
       109 -10.0845    236.5489    138.9269   8.2499267639e+01   6.5508215276e+00    0.2062073    0.1730107  31.89 0.0006245726    1.179    0.152
       110 -10.3471     56.6195    137.9563   1.2184755248e+02   4.0382782671e+01    0.4003641    0.2231165  83.82  0.001901918    2.255    0.557
       111 -11.1966     21.7410    136.2915   1.3010189529e+02   4.4349260393e+01    0.3154871      0.23578 -81.77   0.00183207    1.064    0.060
       112 -11.3365      3.0789    136.9168   1.3449138730e+02   4.5672131983e+01    0.3870886    0.1548383 -64.35  0.001574453    2.042    0.510
       113 -11.6012      9.3900    136.6530   1.3302566187e+02   4.5268406922e+01    0.2195744    0.1882379 -50.12 0.0001429808    1.469    0.319
       114  -9.6787    137.8533    135.3755   1.0151698443e+02   2.7752223120e+01    0.2140711    0.1338917  34.56  0.000950415    1.763    0.433
       115  -9.4817    122.6775    134.6870   1.0496010093e+02   3.0839393367e+01    0.1411685     0.115558  -6.02 0.0006978555    1.656    0.396
       116 -10.4752    106.9713    133.2097   1.0848985345e+02   3.4006891767e+01    0.2519853    0.2314097  53.80  0.001089149    1.103    0.094
       117  -9.9944    112.0867    132.5312   1.0709055284e+02   3.3249892612e+01    0.2125137    0.1855478 -64.29 0.0005571177    1.121    0.108
       118 -11.2897     36.5445    130.5605   1.2583769605e+02   4.4248774734e+01    0.3535582    0.2856581 -62.23  0.002338108    1.228    0.185
       119 -10.5478     74.4836    129.5550   1.1601966279e+02   3.9944476461e+01    0.2914481    0.1860372  43.26  0.001537385    1.632    0.387
       120  -9.3870    243.0312    128.5022   7.9084219206e+01   6.8022506214e+00    0.1889576    0.1336077  46.02 0.0004126318    1.488    0.328
       121 -10.8055      2.2090    124.9012   1.3368677592e+02   4.8319129816e+01    0.3524182    0.1303033 -65.31   0.00159033    2.066    0.516
       122  -9.9123     82.0508    125.0260   1.1323664622e+02   3.9870689429e+01    0.2007739    0.1809182 -72.73 0.0003714881    1.028    0.027
       123 -10.2965    226.1948    124.3763   8.0917611357e+01   1.0860285669e+01    0.1903256    0.1371161  60.24 0.0008938187    1.661    0.398
       124  -9.6321    219.5430    124.5244   8.2108961364e+01   1.2244957080e+01    0.1438202    0.1326678  -1.98 0.0004320498    1.003    0.003
       125 -11.5096     10.8490    122.4085   1.3132981447e+02   4.8265560451e+01    0.3153026    0.2604111 -43.01  0.001970887    1.505    0.335
       126 -11.9401     23.3845    107.1680   1.2619660732e+02   5.0699998872e+01    0.5362942    0.2731196  72.01  0.002586291    2.635    0.620
       127 -11.7998     18.2306    114.9077   1.2859949081e+02   4.9374001729e+01     0.458364    0.2216935 -59.28  0.002539255    1.731    0.422
       128 -11.9883     15.8989    109.2164   1.2852375257e+02   5.0821571451e+01    0.4397424    0.2877129  24.32  0.002073119    1.957    0.489
       129 -10.6679     20.3076    121.7444   1.2887008762e+02   4.7684599927e+01    0.1996826    0.1639841  -2.21  0.001377054    1.757    0.431
       130  -9.4377     32.8704    119.1230   1.2527608914e+02   4.7174696015e+01    0.1650588    0.1242038 -55.39  0.000593306    1.313    0.238
       131  -9.5255     51.1709    116.8342   1.2002269232e+02   4.5800375929e+01      0.16534    0.1298756 -53.78            0    1.250    0.200
       132  -9.2127    166.3160    115.6967   9.0425579048e+01   2.5623206534e+01    0.1510935    0.1216716 -83.86 0.0002414913    1.621    0.383
       133 -12.0515     35.4797    110.0123   1.2324870190e+02   4.8990933187e+01    0.5069054    0.3140113 -77.64  0.001237003    1.453    0.312
       134 -10.6713    248.8727    112.1069   7.4378196888e+01   8.0205089965e+00    0.2084015    0.1806173 -41.92 0.0005720268    1.227    0.185
       135  -8.9436    212.5303    112.4889   8.0436763108e+01   1.5725548927e+01    0.1478506    0.1371855  -0.71 0.0006344714    1.033    0.032
       136 -10.5466     44.0971    109.7464   1.2079878255e+02   4.8189578072e+01    0.3064135    0.1296478 -44.95 0.0005308064    2.725    0.633
       137 -10.3759     56.0577    109.5133   1.1739244138e+02   4.6901191513e+01    0.1746889     0.130749  33.25 0.0005250197    1.549    0.355
       138  -9.9248      9.5047    102.4884   1.2944570297e+02   5.2767237290e+01    0.1678634     0.110211  -8.88  0.001022966    2.328    0.570
       139 -11.3593      3.4587    100.3665   1.3087460733e+02   5.3615674728e+01    0.2842419     0.208723  76.91 0.0008949027    1.343    0.255
       140 -11.2273      6.8887    107.8434   1.3079268740e+02   5.1751685633e+01    0.2182768    0.2101093  -2.51  0.001105342    1.404    0.288
       141 -11.0502      2.8139    105.2277   1.3159926882e+02   5.2583424438e+01    0.3305268    0.1187156 -72.14  0.001535158    2.067    0.516
       142  -9.3529    133.4517    107.5233   9.6001462634e+01   3.4433796349e+01    0.1479175    0.1455026 -29.46 9.877384e-05    1.029    0.028
       143 -11.4199    243.6468    104.4588   7.3347556930e+01   1.0214545547e+01     0.267644    0.1620821 -26.61  0.000597435    1.551    0.355
       144 -10.2315    223.2781    103.9944   7.6463359059e+01   1.4693956908e+01    0.2319857    0.2134047  46.06 0.0005227889    1.149    0.130
       145 -10.8137    247.8485    102.1582   7.2171385607e+01   9.6746963178e+00    0.2119675    0.1860788 -46.95 0.0007685045    1.222    0.182
       146 -11.2146     70.7452    102.0295   1.1168344632e+02   4.6711041945e+01    0.3790694    0.2277267  16.64  0.001348574    2.602    0.616
       147 -10.1831     35.7695    101.7160   1.2183385854e+02   5.0846347791e+01     0.252867    0.1445794  37.74  0.001399893    1.987    0.497
       148  -9.9029    119.8004    101.4037   9.7891610803e+01   3.8509349744e+01    0.2066696    0.1409663  31.80 0.0007028694    1.686    0.407
       149 -10.3380     84.9487     99.2018   1.0693186154e+02   4.5240348323e+01    0.2784241    0.1830582 -44.93  0.001385061    1.466    0.318
       150 -11.4604     20.5860     97.6814   1.2562545275e+02   5.3053611940e+01    0.3261035    0.1994266 -82.39  0.000317116    1.507    0.336
       151  -9.4404     81.2979     99.2983   1.0800722917e+02   4.5786543081e+01    0.1358191    0.1045629 -25.93 0.0002627632    1.574    0.365
       152 -10.7611     63.5060     98.8370   1.1311293306e+02   4.8404589471e+01    0.3938717    0.1982616  27.64  0.001780893    2.522    0.603
       153 -10.0031     27.4567    101.2522   1.2417113438e+02   5.1695921654e+01    0.2284281     0.140778 -43.56  0.001059021    1.737    0.424
       154  -9.9476     94.8494     96.6544   1.0347302243e+02   4.4172228439e+01    0.1925844    0.1296425  52.14 0.0003966549    1.657    0.397
       155 -10.2869      1.4888     94.1548   1.3069462108e+02   5.5097178427e+01    0.2615367   0.06959901 -66.31  0.001068008    2.497    0.600
       156  -9.7807     66.9676     93.4436   1.1087629012e+02   4.9163199753e+01    0.1796717    0.1349577  32.60 0.0005606569    1.520    0.342
       157 -10.8635     95.0413     90.9371   1.0193045552e+02   4.5383885265e+01    0.4374142    0.2867578   7.77  0.001544382    2.678    0.627
       158 -10.7783     25.7862     91.4356   1.2307475577e+02   5.4046128924e+01    0.2368753    0.1883074 -41.84  0.001164153    1.335    0.251
       159 -12.2582     11.4255     90.9567   1.2735045626e+02   5.5204242058e+01    0.3874274    0.2119379  28.33  0.002309812    2.237    0.553
       160  -9.9835    171.3975     91.1767   8.2807865176e+01   2.9029715853e+01     0.228023    0.1395194 -46.44 0.0009514439    1.708    0.415
       161 -10.7838    103.4671     88.6691   9.8906308625e+01   4.4356772424e+01    0.2684776    0.1938413  54.72  0.001316809    1.558    0.358
       162  -9.3643     21.2938     91.3400   1.2442821549e+02   5.4421718123e+01    0.1248191   0.07284293 -46.81 0.0005269333    1.653    0.395
       163  -9.7742    157.9928     89.9879   8.5395167039e+01   3.2431793017e+01    0.1899539    0.1850802 -22.53 0.0009872925    1.015    0.015
       164 -11.8868     48.8043     85.8930   1.1479446849e+02   5.3088226497e+01      0.48745    0.3409663  63.41  0.002480717    1.828    0.453
       165  -8.9120     34.2990     89.6749   1.2013472229e+02   5.3705361937e+01    0.1228654   0.08743939  81.27 0.0007026615    1.631    0.387
       166 -10.3792     23.0778     86.5523   1.2307347615e+02   5.5355527947e+01    0.2685909    0.1340014 -48.16 0.0008894803    1.825    0.452
       167 -10.7904      3.2478     85.8603   1.2910511171e+02   5.6823579420e+01     0.312999    0.2072617  48.25  0.002074859    1.803    0.446
       168 -10.4867    112.7877     86.1332   9.5589917387e+01   4.3100794570e+01    0.3362353    0.2140521  61.90  0.001447378    2.056    0.514
       169 -10.5708     67.2705     85.0929   1.0877347972e+02   5.0981822536e+01    0.3047306    0.1806965 -37.76  0.001469364    1.803    0.445
       170 -10.8825    117.9326     82.9494   9.3259812778e+01   4.2713947595e+01    0.3660329    0.1917156 -41.70  0.001504687    1.849    0.459
       171  -9.5461     30.0070     81.9484   1.2000806321e+02   5.5816552665e+01    0.1508324    0.1215302 -62.11 0.0005974365    1.007    0.007
       172 -11.9178     22.5598     80.4452   1.2213964150e+02   5.6755198630e+01    0.5621576    0.2346451 -58.89  0.002192327    1.807    0.447
       173 -11.1243     18.6410     79.6950   1.2327784118e+02   5.7211499939e+01    0.5239574    0.1382418 -47.80  0.002074106    3.376    0.704
       174 -10.2748     74.7061     81.0792   1.0540010747e+02   5.0800082892e+01    0.2143049    0.2057224  26.43 0.0006215897    1.155    0.134
       175 -10.3895     71.1888     79.1489   1.0598897885e+02   5.1732128001e+01    0.2256186    0.2006988  38.83 0.0005613345    1.258    0.205
       176 -10.3409     39.8251     80.7013   1.1654766594e+02   5.5187544847e+01    0.2514499    0.2023786 -63.58  0.001040502    1.075    0.069
       177 -10.4641      2.2503     72.5048   1.2745082355e+02   5.9796642234e+01    0.2427679    0.1383257 -56.06 0.0006610543    1.368    0.269
       178 -10.5757     12.3357     77.6896   1.2498308931e+02   5.8081051397e+01    0.2176687    0.1283199 -84.82  0.001246051    1.738    0.425
       179 -11.6779      3.8482     78.5407   1.2786533097e+02   5.8396090975e+01    0.3701033    0.3010466  42.65  0.001945162    1.531    0.347
       180 -11.2863      7.4299     74.0529   1.2598370901e+02   5.9176417399e+01    0.3634624    0.1872832  13.13  0.002078512    2.632    0.620
       181  -9.6298     81.3077     78.9902   1.0276523581e+02   5.0236047637e+01    0.1909811    0.1601898 -43.75 0.0003382058    1.087    0.080
       182  -9.4953     54.6713     72.3018   1.0956536372e+02   5.5401779564e+01    0.2221109    0.1094808 -54.77 0.0003016538    1.754    0.430
       183 -11.5946     58.8881     75.4091   1.0897935102e+02   5.4206800649e+01    0.4781443     0.376287  83.33  0.001770908    1.661    0.398
       184 -10.5102     65.2474     73.6183   1.0639610795e+02   5.3756132352e+01    0.2418178    0.2130315   3.50 0.0003700267    1.281    0.219
       185 -11.1518     62.2055     71.8028   1.0689966962e+02   5.4553760060e+01    0.3956865    0.2194046 -38.07  0.001894279    1.824    0.452
       186 -10.7107    150.0934     77.5451   8.3548698209e+01   3.6601472988e+01    0.2830099    0.2199807 -36.41 0.0005345469    1.273    0.214
       187 -10.5256     92.4830     77.6646   9.8966921859e+01   4.8651653449e+01    0.2501285    0.1817262  12.27  0.001208212    1.829    0.453
       188  -9.1322     88.2661     83.6490   1.0194392477e+02   4.8107270448e+01    0.1398773    0.1089251 -79.91 0.0006986076    1.620    0.383
       189 -11.6246     44.7025     75.1946   1.1366265562e+02   5.5904006129e+01    0.2183961    0.2108076  36.77 0.0002447761    1.226    0.185
       190 -10.6384     16.8995     72.7119   1.2256110831e+02   5.8871198854e+01    0.2412129     0.144062 -67.10 0.0008789901    1.354    0.262
       191 -10.4377    152.1378     71.9857   8.1380292516e+01   3.7112242811e+01    0.3221412    0.2210396 -29.85  0.001076796    1.490    0.329
       192 -10.7843    108.4657     72.7571   9.2788611773e+01   4.6662602905e+01    0.2768067    0.2365658 -81.45  0.001372319    1.453    0.312
       193 -11.2211    102.6070     72.9109   9.4524806327e+01   4.7771900205e+01    0.2787002    0.2470546 -25.10 0.0004863187    1.107    0.096
       194 -10.0331    102.6632     68.0475   9.2970252222e+01   4.8722677476e+01    0.2068539    0.1805024 -32.20  0.001131305    1.083    0.077
       195 -11.2996     77.1635     71.4513   1.0189288787e+02   5.2477578068e+01    0.4981526    0.2980281  54.87  0.001386385    2.266    0.559
       196 -11.0312     38.2578     69.4240   1.1446710346e+02   5.7819115291e+01    0.4937943    0.3476542 -86.95  0.002788333    1.824    0.452
       197 -10.2445     41.0066     64.1070   1.1213665997e+02   5.8687480123e+01    0.2256832    0.1665024 -67.85  0.001291329    1.381    0.276
       198 -11.2504     27.3183     70.3367   1.1849015371e+02   5.8603991617e+01    0.2748276    0.1832172 -61.14 0.0002789152    1.219    0.180
       199 -11.1863     31.1233     66.3055   1.1622515011e+02   5.9155457037e+01    0.3295567    0.1995599 -66.07 0.0007977376    1.512    0.338
       200 -12.1361     49.5491     69.2432   1.1050022597e+02   5.6663127073e+01    0.4242052    0.3290748 -16.33  0.001786408    1.494    0.331
       201  -9.6014    144.3409     70.2962   8.2658897187e+01   3.9272037116e+01    0.1587307    0.1184212  17.06  0.000341389    1.661    0.398
       202 -10.7641     68.7261     67.8208   1.0357522845e+02   5.4495080084e+01    0.3938375     0.208843 -40.74  0.001144203    1.767    0.434
       203 -11.4576     95.8819     66.8642   9.4610924853e+01   5.0233244871e+01    0.4809527    0.3675483  23.07  0.002492662    1.483    0.326
       204 -10.6995     19.0179     61.0426   1.1937441234e+02   6.1250418889e+01    0.3850259    0.2474212  66.11  0.002171013    2.316    0.568
       205 -10.9740     16.6725     67.9397   1.2169822648e+02   5.9927444733e+01    0.2318831    0.1925972  84.12 0.0009591656    1.368    0.269
       206 -11.0537     20.4580     65.8169   1.1991464215e+02   6.0119494279e+01    0.3470061     0.229205  30.31  0.002181442    1.856    0.461
       207  -9.9348      6.3990     67.8104   1.2525166892e+02   6.0591924390e+01    0.1630676    0.1350234 -59.02 0.0005617092    1.096    0.088
       208 -11.7768      3.3776     64.0273   1.2562747015e+02   6.1569643519e+01    0.2983887     0.215368 -81.70  0.001128896    1.326    0.246
       209 -10.7426    129.7293     64.9194   8.4520695230e+01   4.3617209954e+01     0.881871     0.256605 -33.74  0.002527539    3.875    0.742
       210 -11.6276    123.4692     57.0728   8.3511051541e+01   4.6407855261e+01    0.5098091    0.3078005 -41.00  0.001337451    1.646    0.393
       211 -12.3949    226.6188    245.9247   1.0377574167e+02  -5.2399812073e+00    0.5790269    0.3281703  15.29  0.003525471    1.902    0.474
       212 -11.0659     83.0580     61.6127   9.6912130404e+01   5.3524926939e+01    0.3527308    0.2985208  59.99  0.001372879    1.453    0.312
       213 -10.3395     86.7555     59.0048   9.4855796674e+01   5.3400019267e+01    0.3454703    0.2141786 -43.48  0.001051158    1.503    0.335
       214  -9.3423     45.4607     64.9095   1.1076472623e+02   5.8045781324e+01    0.1782375    0.1068892 -78.79 0.0008070963    2.595    0.615
       215  -9.4567    174.1522     63.8303   7.4239093908e+01   3.3040509293e+01     0.209433    0.1760176  24.64 0.0003604892    1.294    0.227
       216 -12.3914     10.3252     62.2267   1.2279879809e+02   6.1568062796e+01    0.4658317    0.2665215  67.29 0.0007426214    2.742    0.635
       217 -11.5121      5.4209     52.1343   1.2250932358e+02   6.3987430017e+01    0.3620425      0.19898 -43.46  0.001761116    1.554    0.356
       218  -9.8154    168.9603     63.2460   7.5083548123e+01   3.4442085134e+01    0.2098891    0.1926609  52.53 0.0003373239    1.090    0.082
       219 -10.7852     51.7346     62.4376   1.0784144731e+02   5.7852115173e+01    0.2709891    0.1780555 -35.11 0.0006789251    1.476    0.322
       220 -11.5389     29.6449     60.8519   1.1541847365e+02   6.0453105092e+01    0.5565154    0.2402734  15.25  0.002511844    3.441    0.709
       221 -12.3688     37.9010     51.5186   1.0972076331e+02   6.1628591381e+01    0.6946806    0.4277864 -37.83  0.002619171    1.454    0.312
       222 -11.4467     64.6175     59.9557   1.0255783745e+02   5.6695135088e+01    0.3853459    0.1945932  35.90  0.001811156    2.218    0.549
       223 -10.4812     70.0161     57.9691   1.0005441740e+02   5.6312991148e+01    0.3779931    0.1823642 -42.00  0.001701441    1.864    0.464
       224 -10.7180     44.5892     57.4653   1.0897399438e+02   5.9703777651e+01    0.2638083    0.2288534  43.41 0.0006635289    1.412    0.292
       225 -10.8886     45.0073     51.2329   1.0691468235e+02   6.0929794386e+01    0.3941397    0.1716774 -42.29  0.001780103    2.000    0.500
       226 -10.9714    115.1684     56.6855   8.5604556625e+01   4.8290436478e+01    0.4401076    0.2719197  20.38 0.0006751503    2.348    0.574
       227 -10.4897    100.7597     55.8149   8.9430102110e+01   5.1402172779e+01    0.4275728    0.1885203  43.48  0.001699357    2.364    0.577
       228  -9.5996     75.4123     56.1749   9.7620415130e+01   5.5835134351e+01    0.1895673    0.1212069 -53.93 0.0004518556    1.670    0.401
       229 -10.8903     87.1768     52.7153   9.2542493128e+01   5.4510744700e+01    0.2271345    0.1833646 -46.93 0.0008562958    1.268    0.211
       230 -10.7939     12.7650     51.3017   1.1946158104e+02   6.3731046651e+01     0.294514    0.1578592 -58.14  0.001060697    1.416    0.294
       231 -11.5558    154.0113     48.8364   7.3529698701e+01   4.0455615118e+01    0.5877393     0.319607 -57.21            0    2.720    0.632
       232  -9.8038     50.0164     51.7886   1.0520462750e+02   6.0237121878e+01    0.2176894    0.1491987   1.40 0.0003898575    1.856    0.461
       233 -10.6995    114.1159     49.5845   8.3388972186e+01   4.9736807996e+01    0.4399109    0.2205563 -42.53  0.001810604    2.037    0.509
       234 -10.1823     71.1808     51.0862   9.7314320910e+01   5.7473606803e+01    0.3518786    0.2139484  50.80  0.001258523    2.142    0.533
       235 -10.7777     77.3555     49.8101   9.4743097912e+01   5.6729584425e+01    0.3505768    0.2085101 -18.58  0.001548876    2.260    0.558
       236  -9.6556    196.9555     48.2644   6.5598960361e+01   2.9550485206e+01    0.1967818    0.1875246  73.84  0.001089992    1.052    0.050
       237 -10.6765     62.4034     47.5121   9.9174048172e+01   5.9450618213e+01     0.237069    0.1906075 -23.94 0.0005611105    1.149    0.130
       238 -10.5748    142.6525     45.8515   7.4974281337e+01   4.3721499814e+01    0.3170337    0.2520015 -49.95  0.000881057    1.378    0.274
       239 -10.3441    104.5777     46.2779   8.4872785280e+01   5.2300285744e+01    0.3754449    0.2101526  26.25  0.001515301    2.443    0.591
       240  -9.9166     19.1024     47.0902   1.1585867501e+02   6.4168909745e+01    0.1767086    0.1359646  86.70  0.001129935    1.761    0.432
       241 -10.6811      4.5266     47.0260   1.2171135104e+02   6.5098498970e+01    0.2368544   0.09540821 -53.57  0.001233172    1.743    0.426
       242 -11.3919     11.6671     43.5441   1.1793632443e+02   6.5400297575e+01    0.3058258    0.2181118 -28.26    0.0011159    1.396    0.283
       243 -10.8444      7.0557     41.4854   1.1931376449e+02   6.6095370937e+01    0.3740081    0.1253089 -60.13 0.0008702091    2.202    0.546
       244 -11.7107     85.7499     44.9148   9.0153915185e+01   5.6165533395e+01    0.2490259    0.2279226 -16.65 0.0002931455    1.038    0.037
       245  -9.0476    233.2929     45.3103   5.9834291825e+01   2.0941135140e+01    0.1368691    0.1067064  22.62 0.0003887025    1.588    0.370
       246 -10.1194    122.0938     43.9784   7.9238616347e+01   4.8873025308e+01    0.3634006     0.228193 -40.91 0.0007980615    1.636    0.389
       247 -10.0980     91.7882     45.2260   8.8341468215e+01   5.4999898337e+01    0.1920934    0.1521271  -7.21 0.0004180086    1.315    0.239
       248 -10.0670    146.6098     66.0590   8.0786595971e+01   3.9477911976e+01    0.2356009     0.211739  73.60  0.001218994    1.223    0.182
       249 -10.2967     50.6766     44.3344   1.0244020233e+02   6.1615195130e+01    0.1797691    0.1606833  -2.47 0.0006698075    1.169    0.145
       250 -11.5107     53.0578     41.2469   1.0041400010e+02   6.1896207303e+01    0.3171758    0.2130673  27.05  0.001013006    1.660    0.398
       251 -10.1049    110.6058     41.9168   8.1537295428e+01   5.1739474639e+01    0.2161556    0.2014504  83.03 7.682967e-05    1.298    0.229
       252 -11.1279     97.0890     41.2367   8.5192241508e+01   5.4643282155e+01    0.3327907    0.3010361  69.69  0.001452287    1.379    0.275
       253 -11.3486     99.4248     30.1642   8.0119357883e+01   5.5871500698e+01    0.7562017    0.3931955  18.53  0.002568159    3.529    0.717
       254 -11.0765     97.0667     36.9758   8.3543148112e+01   5.5328201575e+01    0.2603922    0.2205563  22.25 0.0003986645    1.157    0.136
       255 -11.3518    101.5768     36.8965   8.2176382912e+01   5.4424340463e+01    0.2825966    0.2266224  28.92 0.0003451416    1.237    0.192
       256 -10.8944    105.1333     34.1545   8.0079896949e+01   5.4094491458e+01    0.4420086    0.2838948 -53.69   0.00167822    2.108    0.526
       257 -10.4507     28.9990     40.9805   1.0998252167e+02   6.4589363609e+01    0.2667903     0.234457 -57.62 0.0003379891    1.247    0.198
       258 -10.3023     23.6581     41.3233   1.1231187883e+02   6.4980851102e+01    0.2048665    0.1704502 -72.96 0.0008458841    1.428    0.300
       259 -11.6439     20.6704     37.8419   1.1248792023e+02   6.5908039639e+01    0.2664284    0.1964252 -37.01 0.0004773136    1.128    0.113
       260 -11.2974     24.1972     35.3750   1.1016754676e+02   6.6101230845e+01    0.2912911    0.2170795  45.66 0.0008854495    1.872    0.466
       261  -9.9801    226.2229     40.3331   5.9371887181e+01   2.3281196941e+01     0.228939    0.1865498 -18.24 0.0006497808    1.299    0.230
       262 -10.1797     89.6679     40.1542   8.7074506786e+01   5.6253377807e+01    0.2165551    0.1647494 -48.00  0.001155462    1.468    0.319
       263 -10.2136     68.1947     39.4869   9.4094916793e+01   6.0058705492e+01    0.2683439    0.1414205 -23.98  0.001165149    2.332    0.571
       264 -10.1871     43.5392     38.5782   1.0319451086e+02   6.3559773502e+01    0.3736931    0.1688997 -56.32  0.001563143    2.572    0.611
       265 -10.5647    149.4250     38.3189   7.0918011654e+01   4.3128634968e+01     0.273621    0.1485005 -22.01  0.001115483    2.022    0.505
       266 -10.2248     64.2828     42.0464   9.6492249005e+01   6.0193597331e+01    0.2645773    0.1448127 -43.02  0.001309231    1.645    0.392
       267 -11.1638     80.2672     37.0553   8.8928151250e+01   5.8475215866e+01    0.2421372    0.2039482  45.12 0.0009711225    1.357    0.263
       268  -9.6265    115.4353    244.7315   1.2231408862e+02   1.1817459590e+01    0.1236809     0.105657 -51.41 0.0007767249    1.602    0.376
       269 -10.5072      1.7777     25.3147   1.1706141835e+02   6.9574859420e+01    0.3462801    0.1112221 -49.70  0.001349136    2.060    0.515
       270  -9.9011      7.9831     21.0040   1.1262408152e+02   7.0022257652e+01    0.1768248    0.1147424 -37.98 0.0004251287    1.186    0.157
       271 -11.8986     74.3349    238.3728   1.2868874933e+02   1.8478476268e+01    0.3939525      0.26846  74.97  0.002820897    1.290    0.225
       272 -10.9977      9.5226     34.5173   1.1631801627e+02   6.7343208783e+01    0.3889259    0.2045486  -4.81  0.002179628    2.541    0.606
       273 -10.2430    109.5949    242.8473   1.2312493437e+02   1.2942450954e+01    0.2234496     0.121762  51.12 0.0008398155    1.419    0.296
       274 -10.2723    110.9955     35.0118   7.8794875269e+01   5.2705525680e+01    0.2076159    0.1991773 -13.54 0.0004494668    1.095    0.087
       275 -10.8263     77.2401     63.5007   9.9419795969e+01   5.4096849915e+01    0.3654228    0.2970628 -38.99  0.000994297    1.107    0.096
       276  -9.7870    154.9130     35.8354   6.8968267476e+01   4.2077469280e+01    0.2285728     0.189731  28.18 0.0006236705    1.254    0.203
       277 -10.1539     31.9427     33.9849   1.0634962077e+02   6.5658279913e+01    0.2177411    0.1587185  18.81 0.0009033521    1.562    0.360
       278 -10.7739     77.9602     32.7594   8.7973038076e+01   5.9577752893e+01    0.2795101    0.1881563   4.73 0.0009689277    1.813    0.448
       279 -11.4062     70.5713     26.5735   8.7952613257e+01   6.1808850940e+01    0.4102882    0.3380152  12.48  0.001626259    1.167    0.143
       280 -10.7114     18.5721     32.1681   1.1155910202e+02   6.7172562808e+01    0.2760781    0.2166119 -72.59  0.001856195    1.598    0.374
       281 -10.2160    178.9655     31.9704   6.3473288691e+01   3.6358145487e+01    0.2191526    0.2077511 -79.89 0.0003513561    1.067    0.063
       282  -9.0852    171.5366     32.5846   6.4880181323e+01   3.8214750594e+01    0.1450537    0.1400243  72.52 8.746517e-05    1.025    0.025
       283 -10.1919    118.0413     32.0752   7.5811643058e+01   5.1551032865e+01    0.2042271    0.1947561 -25.60 0.0003221499    1.116    0.104
       284  -9.7608    110.4177     29.8028   7.6907729012e+01   5.3574504278e+01    0.1890078    0.1310096 -12.40 0.0003199699    1.530    0.346
       285 -10.1931     73.5406     31.6483   8.9044962710e+01   6.0513392004e+01    0.2358736    0.1951704  40.92 0.0007264277    1.362    0.266
       286  -9.8467    213.1922     28.7882   5.7803670847e+01   2.7934014896e+01    0.1948328     0.160945  36.48 0.0005428144    1.364    0.267
       287  -9.4349    191.5218     29.0043   6.0686232108e+01   3.3455068911e+01    0.2006935    0.1424617 -26.31 8.797617e-05    1.446    0.308
       288  -9.4040    163.0043     28.9659   6.5154449422e+01   4.0879917700e+01    0.1726554    0.1644712 -17.56 0.0003223226    1.082    0.076
       289 -10.3976    154.4143     27.7547   6.6291069194e+01   4.3240285983e+01    0.2121122    0.1413303  -6.30 0.0006140741    1.780    0.438
       290  -9.8791    124.8827     27.8930   7.2530583683e+01   5.0525374362e+01    0.2107223    0.1750927  22.88 -0.0006383859    1.191    0.160
       291  -9.6819     50.2101     27.8728   9.6300035959e+01   6.4648535385e+01    0.1752082      0.12481 -17.98 0.0005008785    1.324    0.245
       292  -9.9005     21.1724     27.7931   1.0885776442e+02   6.7790860957e+01    0.2444655    0.1373566 -65.97  0.001267473    2.433    0.589
       293 -10.7316    217.9807     27.0114   5.6753940840e+01   2.6945945246e+01    0.2228623    0.1616461  27.74 0.0008890322    1.739    0.425
       294  -9.4115    203.3206     27.3074   5.8606850762e+01   3.0615574057e+01    0.1465142    0.1052559  33.57 0.0003142332    1.640    0.390
       295 -11.6460     35.4623    241.5925   1.3517707628e+02   2.2603636081e+01    0.3560619    0.1964233  45.90  0.002592352    1.528    0.346
       296  -9.6725     24.9008     26.8997   1.0683079626e+02   6.7633089630e+01    0.1821435    0.1267981 -29.09  0.000526793    1.227    0.185
       297 -10.2338     16.5276     26.5654   1.1054935619e+02   6.8389222082e+01    0.2804395   0.08951607 -46.59  0.001039458    2.260    0.558
       298 -10.3677     88.8635    241.2361   1.2648424486e+02   1.6094666259e+01    0.1693297    0.1378264 -37.00  0.001225027    2.084    0.520
       299  -9.3549     80.2995     26.6190   8.4606592319e+01   6.0106670357e+01    0.1301941    0.1037448 -59.03 0.0007022412    1.769    0.435
       300 -10.2367    112.0248     24.6799   7.4439231061e+01   5.3901976257e+01    0.1939718    0.1746359  34.83 0.0004300845    1.078    0.072
       301  -9.6784    174.2151     24.4034   6.1813100930e+01   3.8509245687e+01    0.2010911     0.137209  80.68 0.0004327288    1.594    0.373
       302 -10.8202    120.2596     21.9367   7.1309173970e+01   5.2359443136e+01    0.3871717     0.232625  -9.91  0.001663624    1.918    0.479
       303  -9.5660     93.7843     24.0794   7.9257797738e+01   5.7876537958e+01    0.1829532    0.1041602 -29.82 0.0008676369    1.690    0.408
       304  -9.1677     90.5099     26.5246   8.1286237324e+01   5.8189036388e+01    0.1362598    0.1225022  -0.87 1.173067e-05    1.028    0.027
       305  -9.9174     54.0653     23.3085   9.2783383079e+01   6.4869063701e+01    0.1682005    0.1483399  -0.54 0.0004358462    1.132    0.117
       306 -10.7851    156.4904    241.0500   1.1488349127e+02   6.1106791026e+00    0.1429227    0.1159173 -52.02  0.001035266    1.600    0.375
       307 -10.6839     26.9554     19.5162   1.0292288582e+02   6.8751009125e+01    0.3437634    0.1874624  13.78  0.001914382    2.238    0.553
       308  -9.3979     47.2463    241.3660   1.3330967435e+02   2.1315506311e+01   0.08341854   0.07335516 -72.64 0.0003829262    1.615    0.381
       309  -9.6078     99.8366     21.8516   7.6559218278e+01   5.6921076997e+01    0.1777771    0.1602654 -43.89 0.0004220337    1.301    0.231
       310 -11.4298     84.6372     20.7048   8.0621363954e+01   6.0134432491e+01    0.3343692    0.2538217  17.81  0.001039485    1.287    0.223
       311  -9.3312    227.4365     20.4370   5.3983037230e+01   2.5372015552e+01    0.1379024    0.1203306 -62.80 -7.834857e-06    1.065    0.061
       312  -9.4337     45.5164     20.5249   9.5070683904e+01   6.6473831876e+01     0.125975    0.0996729 -17.50 0.0002204152    1.050    0.047
       313  -9.0248    162.2706     19.7190   6.2176610940e+01   4.2151042601e+01    0.1403228    0.1071919 -63.01 0.0006896935    1.494    0.330
       314 -11.0836    108.1884     17.1337   7.2333462498e+01   5.5689046899e+01    0.2234005    0.2129522 -20.27 0.0003582551    1.156    0.135
       315  -9.2740     50.3078    240.3287   1.3275811415e+02   2.1127072557e+01   0.08234531   0.07971056 -81.70 0.0003645313    1.659    0.397
       316 -10.2898    195.7573    238.4082   1.0781590611e+02   2.6658161754e-01    0.2330445    0.1540281  24.37  0.001505275    1.411    0.291
       317 -10.6993      1.4360    245.0163   1.4042488435e+02   2.5484317594e+01    0.1501378   0.06939106 -81.86 0.0005806844    1.923    0.480
       318 -10.7644     31.6684    237.4949   1.3555576240e+02   2.3681752145e+01    0.2178413    0.1541773  73.56  0.001082259    1.080    0.074
       319 -10.3019    217.0660     16.6252   5.4034660774e+01   2.8348833938e+01    0.3802949    0.1244031  60.98  0.001422777    2.754    0.637
       320 -10.9078     29.1857    232.9064   1.3570888588e+02   2.4706142689e+01    0.2668439    0.1547661  57.94  0.001993258    1.263    0.208
       321  -9.9880    136.9848    247.6819   1.1896427331e+02   8.2044603224e+00    0.1607837    0.1125444  46.33 0.0003772747    1.083    0.077
       322 -10.2058      5.0697    235.9081   1.3956494876e+02   2.6610341172e+01    0.1622665    0.1367737 -69.74  0.001467877    1.767    0.434
       323  -9.8109    165.5103     15.0278   6.0093379445e+01   4.1813695355e+01    0.2116839   0.09824476 -47.42 0.0008098911    2.514    0.602
       324 -10.2375    159.9174    235.8744   1.1365491392e+02   6.2695150742e+00    0.1789438     0.134993  30.98  0.000646366    1.254    0.203
       325 -11.2438     73.8430    232.8581   1.2834391184e+02   1.9439840388e+01    0.2174615    0.1407807  56.47    0.0008395    1.177    0.151
       326 -12.3734    232.9520    246.6126   1.0285973871e+02  -6.2271888552e+00    0.4325919     0.312644  -9.31   0.00315793    1.461    0.315
       327 -10.3462    177.6104    234.8293   1.1043911774e+02   3.5846814069e+00    0.2227982    0.1523315  25.05 0.0009518308    1.460    0.315
       328  -9.9959    167.1450    233.8517   1.1213335049e+02   5.3894174607e+00    0.1730848    0.1377265  50.77  0.000832845    1.184    0.156
       329 -10.5922    153.4378    233.6615   1.1451567769e+02   7.6052748777e+00    0.2018644    0.1701248   1.96  0.001420657    1.545    0.353
       330  -9.8897     85.7497    232.9708   1.2631432553e+02   1.7835763793e+01    0.1256894   0.08765618 -75.76 0.0006957659    1.558    0.358
       331 -10.0202     79.5901    231.3766   1.2724032383e+02   1.8927005541e+01    0.1987746    0.1100026  43.84 0.0006018491    1.533    0.347
       332  -9.5739    180.7248    224.3447   1.0844062321e+02   4.4565432935e+00    0.1103164   0.08831125  67.82 0.0002635147    1.624    0.384
       333 -10.3461    181.1918    248.2435   1.1157153940e+02   1.3646950533e+00    0.2078021   0.08441319 -34.84  0.001036089    3.607    0.723
       334  -9.4403     58.4795    230.4505   1.3076395498e+02   2.1779418281e+01    0.1074921   0.07921337  65.37 0.0001747929    1.014    0.014
       335 -10.2605    190.5177    227.3122   1.0714510906e+02   2.4647191412e+00    0.3070316    0.1183842 -40.16  0.001475776    3.193    0.687
       336  -9.4058    169.6873    229.2941   1.1108327393e+02   5.5949024104e+00    0.1137053   0.08238196  61.43 0.0003368165    1.595    0.373
       337  -9.5918    249.3304    227.2891   9.7292530505e+01  -6.6902659573e+00    0.1178174   0.06796186  16.33 0.0003877348    1.622    0.383
       338 -10.1377    129.9680    226.9457   1.1789070021e+02   1.2305227936e+01    0.2903053     0.124386  57.17  0.001313381    2.742    0.635
       339 -10.1175     88.0035    227.2796   1.2541921828e+02   1.8462869163e+01    0.1643701    0.1198526  55.78  0.001159334    1.079    0.074
       340 -10.3890     66.2317    226.3541   1.2913966726e+02   2.1507888572e+01    0.2346209    0.1326638  53.16 0.0006821914    1.379    0.275
       341  -9.8479     81.1521    224.0232   1.2633766010e+02   1.9948757938e+01    0.1906411    0.1041722  75.28  0.001087822    2.035    0.509
       342 -10.6290      5.4496    226.4782   1.3913750120e+02   2.8143589915e+01     0.279677   0.04135054  55.99  0.001195282    4.395    0.772
       343  -9.6192    144.2901    226.6425   1.1527494316e+02   1.0082467549e+01    0.1174699   0.08186137  68.70 0.0007027118    1.686    0.407
       344 -10.2794     56.9904     16.6921   8.8611014614e+01   6.5448626150e+01    0.2259438    0.1562812 -27.05   0.00067325    1.267    0.211
