#   1 NUMBER                 Running object number                                     
#   2 MAG_AUTO               Kron-like elliptical aperture magnitude                    [mag]
#   3 X_IMAGE                Object position along x                                    [pixel]
#   4 Y_IMAGE                Object position along y                                    [pixel]
#   5 X_WORLD                Barycenter position along world x axis                     [deg]
#   6 Y_WORLD                Barycenter position along world y axis                     [deg]
#   7 A_WORLD                Profile RMS along major axis (world units)                 [deg]
#   8 B_WORLD                Profile RMS along minor axis (world units)                 [deg]
#   9 THETA_WORLD            Position angle (CCW/world-x)                               [deg]
#  10 FWHM_WORLD             FWHM assuming a gaussian core                              [deg]
#  11 ELONGATION             A_IMAGE/B_IMAGE                                           
#  12 ELLIPTICITY            1 - B_IMAGE/A_IMAGE                                       
         1  -8.7705     55.5357     10.0265   9.9096536875e+01   7.0185551177e+01     0.248794    0.2146843 -52.46 0.0007463366    1.500    0.333
         2  -8.2631     47.4884      9.7774   1.0356707337e+02   7.1623150468e+01    0.2451597    0.1239257 -44.00  0.001108078    2.081    0.519
         3  -7.9185     27.8748      9.8473   1.1704306321e+02   7.4291943321e+01    0.1564086    0.1534095 -46.02 0.0004770414    1.316    0.240
         4  -8.3369     90.9611      9.0257   8.3510365848e+01   6.2591571915e+01    0.2248497    0.1749293 -64.38 0.0005966021    1.706    0.414
         5  -7.9050     12.5427      8.5490   1.2876340002e+02   7.5850428699e+01    0.1216503    0.1044441 -39.97 9.561502e-05    1.079    0.073
         6  -7.4343     69.2608      7.6694   9.0908321800e+01   6.7789985370e+01     0.130506    0.1096812 -56.07 0.0002512948    1.569    0.363
         7  -8.6141     33.4563      5.3819   1.1014558715e+02   7.4461223920e+01    0.2835354    0.2164156 -81.99  0.001196082    2.699    0.630
         8  -7.3821     44.6770      3.3346   1.0108557840e+02   7.3126376131e+01    0.1209963    0.1089647 -73.67 0.0006504463    1.709    0.415
         9  -7.9318     15.6352      2.8325   1.2315050859e+02   7.6822802877e+01    0.1649165    0.1096194 -62.80 0.0004233687    1.673    0.402
        10  -8.4951    236.3477      1.7653   6.0017665081e+01   2.4994861765e+01    0.1956604    0.1741489 -76.96  0.001053648    1.116    0.104
        11  -7.4575    115.4595      2.4548   7.3777828661e+01   5.6852888330e+01    0.1459405    0.1369301  72.45 0.0001306898    1.086    0.079
        12  -8.4195     62.3378      1.6187   9.0215539909e+01   7.0036960559e+01    0.2230731    0.1619227  59.23 0.0005793253    1.618    0.382
        13  -8.5083     79.0215      3.6078   8.4537566419e+01   6.6091818610e+01    0.2738825    0.1816838 -39.47   0.00120418    1.718    0.418
        14  -8.9554      9.7232    244.7301   1.5311309766e+02   2.4563160550e+01    0.3240322   0.07878787  71.15  0.001556189    4.065    0.754
        15  -9.0424    247.9185    234.9333   1.0824640060e+02  -3.3827426308e+00    0.2174914    0.1874319 -15.31  0.001767808    1.878    0.468
        16  -8.4623    248.9984    248.8094   1.1003344331e+02  -4.6714146561e+00    0.2653139    0.1195617  -3.95  0.001552007    2.598    0.615
        17  -9.6390    248.5621    242.4615   1.0922041952e+02  -4.0992670467e+00    0.2647161    0.1810691 -24.37  0.001117027    1.864    0.464
        18  -9.2941    211.2351    247.2837   1.1595877061e+02  -1.0557350005e-02    0.2843342    0.2315922 -58.55  0.001678747    3.056    0.673
        19  -8.1462    191.5331    249.6872   1.1966382214e+02   2.2690795471e+00    0.1797055    0.0995996  41.69 0.0007098102    1.782    0.439
        20  -8.3661     93.9746    249.3868   1.3774392014e+02   1.4999893996e+01    0.1914327    0.1106042  55.93 0.0008168765    1.651    0.394
        21  -7.8957     25.4713    250.5041   1.5047047722e+02   2.2271097325e+01    0.1010963   0.06701455  49.75 0.0002949632    1.004    0.004
        22  -8.7014     78.1555    243.6631   1.4037638869e+02   1.7733846714e+01    0.3342036   0.09235694  52.19  0.001423587    3.666    0.727
        23  -7.9283     67.5495    245.0185   1.4248883548e+02   1.8755746762e+01    0.1317853   0.09778025  85.86  0.001020318    1.576    0.365
        24  -8.5982    201.9786    243.4755   1.1705482680e+02   1.5493046610e+00    0.1585395    0.1490325 -10.04 0.0007426515    1.714    0.417
        25  -8.6295    169.1816    243.4336   1.2293637147e+02   5.9134230059e+00    0.1894642    0.1577365  45.50 0.0007963007    1.519    0.342
        26  -9.5643    160.4876    240.8406   1.2425295881e+02   7.4028950636e+00    0.2948109    0.2237983  82.22  0.001870405    2.772    0.639
        27  -9.3195    183.1731    240.2472   1.1998736430e+02   4.3860064123e+00    0.3291749    0.2069057  51.43   0.00199103    2.356    0.575
        28  -7.9791    153.1861    242.1795   1.2578021675e+02   8.2338283552e+00    0.1509267    0.1067533  43.72 0.0005663454    1.369    0.270
        29  -8.0420     88.2008    242.2038   1.3833346152e+02   1.6745021602e+01    0.1477803   0.09756783  56.23 0.0006629392    1.385    0.278
        30  -8.8012    241.5525    238.4261   1.0975516589e+02  -2.9294987545e+00    0.4390609    0.1818226  -7.39  0.002071381    3.869    0.742
        31  -8.4530    146.4149    239.9615   1.2682446056e+02   9.4370686562e+00    0.2268805    0.1573435  58.98 0.0009504169    1.963    0.491
        32  -8.7198    194.0932    239.8430   1.1797191724e+02   2.9652144600e+00    0.1630307    0.1162415  32.05 0.0004245165    1.265    0.210
        33  -8.8306    135.8926    239.2561   1.2877668350e+02   1.0963887483e+01     0.190812    0.1318596  54.80  0.001279035    1.653    0.395
        34  -8.6651    209.0209    238.7572   1.1520884378e+02   1.1109238916e+00    0.1538752    0.1364946 -13.59 0.0008944935    1.629    0.386
        35  -8.1480    129.2029    238.7722   1.3002789193e+02   1.1935550233e+01    0.1807137   0.09333196  56.82 0.0007705322    2.683    0.627
        36  -9.1759    231.1957    236.8078   1.1120146370e+02  -1.5219972957e+00    0.2838741    0.1780174 -21.72  0.001258764    1.738    0.425
        37  -8.1928     25.7460    237.2663   1.5002833834e+02   2.4302677149e+01    0.2146116   0.04695732  54.93  0.001022434    3.131    0.681
        38  -9.1551    216.6843    235.3583   1.1342704775e+02   4.5602375274e-01    0.2236499     0.166372  36.87  0.001193979    1.624    0.384
        39  -9.2382    213.7801    231.9430   1.1344751286e+02   1.1786467531e+00    0.2176126    0.1882027  40.35  0.001157555    1.816    0.449
        40  -8.8386    203.2487    235.0164   1.1570954427e+02   2.2565557480e+00      0.20683    0.1885455 -54.00   0.00119177    2.109    0.526
        41  -9.7739    175.8854    233.4915   1.2047566207e+02   6.1627871480e+00    0.3279701    0.2257925 -56.29  0.002094017    2.610    0.617
        42  -8.2738    170.1437    235.8774   1.2184849938e+02   6.6745106459e+00    0.1685591    0.1241249  38.01 0.0005293374    1.293    0.227
        43  -9.1391    108.9485    234.5679   1.3362509495e+02   1.5239004434e+01     0.382846    0.1527839  45.40  0.001205992    2.000    0.500
        44  -8.2879     99.7071    234.3795   1.3545436254e+02   1.6470748900e+01    0.2281688    0.1358282  75.51  0.001161777    2.461    0.594
        45  -8.7448     78.9909    234.6576   1.3960855019e+02   1.9010232484e+01     0.224646    0.1362692  59.72   0.00107522    1.563    0.360
        46  -8.4170    144.9887    233.4756   1.2638236720e+02   1.0482983081e+01    0.2668313    0.1338525  57.87    0.0011575    3.978    0.749
        47  -8.5214    140.3521    230.3102   1.2693831171e+02   1.1560656534e+01    0.2278888    0.1179052  44.42 0.0007861228    1.660    0.398
        48  -8.2272    122.8364    234.0432   1.3080955708e+02   1.3457233165e+01    0.1749273     0.111603  62.23  0.001064206    2.029    0.507
        49  -8.9546     68.3547    232.4390   1.4157791391e+02   2.0617003407e+01    0.3840747    0.1199347  53.68  0.001757137    3.070    0.674
        50  -8.2610    194.6682    233.0787   1.1697589219e+02   3.6217350340e+00    0.1476145     0.131511  28.34 0.0008039969    1.504    0.335
        51  -9.2045    186.4908    230.7728   1.1815556739e+02   5.0066147921e+00    0.2138999    0.1992133  82.86  0.001090451    1.957    0.489
        52  -8.0152    157.5333    231.9570   1.2377019304e+02   8.9234739112e+00    0.1355145    0.1164667 -32.95 0.0005044482    1.547    0.354
        53  -7.9015    132.5016    232.5383   1.2873680486e+02   1.2345576540e+01    0.1193925    0.0857037  37.90  0.000227209    1.077    0.071
        54  -8.3986     92.5980    231.8002   1.3666908638e+02   1.7773014109e+01    0.2162489    0.1111152  68.20  0.001129169    2.806    0.644
        55  -9.4113    246.8391    228.5778   1.0748339899e+02  -2.6924102631e+00     0.394013    0.1720309 -19.52   0.00234096    2.355    0.575
        56  -9.1321    236.1029    230.7123   1.0952311339e+02  -1.5667754052e+00    0.1885121    0.1234724  -3.66 0.0004243152    1.336    0.252
        57  -8.7854      1.7772    230.9812   1.5428827016e+02   2.7408260001e+01     0.190462   0.08535898  60.95  0.001034421    1.608    0.378
        58  -9.0361    151.4754    228.9830   1.2459265545e+02   1.0169397300e+01    0.2281195    0.1790995  67.03  0.001195202    1.906    0.475
        59  -9.2490    148.6444    224.4906   1.2461272503e+02   1.1182984757e+01    0.2706815    0.2063474  65.70  0.001317238    1.915    0.478
        60  -8.2389    229.8063    229.0646   1.1031879451e+02  -6.1623317111e-01    0.1541821     0.120017  18.41 0.0005542988    1.305    0.234
        61  -8.7863    162.6165    227.8892   1.2228882182e+02   8.7262678617e+00    0.3224277    0.1557494  46.75  0.001464934    2.189    0.543
        62  -8.8222    128.0714    227.4831   1.2908467031e+02   1.3680259007e+01    0.2686422    0.1465228  50.37  0.001195234    1.833    0.455
        63  -8.3833    120.2396    228.0562   1.3072940472e+02   1.4681087416e+01    0.2252816    0.1117486  51.20 0.0008510866    2.053    0.513
        64  -8.7440      8.2294    228.2425   1.5305169792e+02   2.7328046354e+01     0.152135   0.05688681  75.21 0.0008858698    2.438    0.590
        65  -8.0281    223.4708    226.9662   1.1107515918e+02   4.0871376651e-01    0.1850291   0.09656828 -21.49 0.0007439091    2.056    0.514
        66  -9.0724    225.5039    221.7251   1.0995371241e+02   6.6943802169e-01    0.2126251    0.1714324  19.28  0.001009639    1.341    0.254
        67  -8.7767    206.0839    225.6832   1.1390648258e+02   2.8714258387e+00    0.2652525    0.1501583 -36.47  0.001082849    2.275    0.560
        68  -8.5270     39.1360    226.3057   1.4705457116e+02   2.4799026732e+01    0.2428246    0.1042518  74.90  0.001357504    2.532    0.605
        69  -8.3138    200.1652    226.2038   1.1503869401e+02   3.6283721992e+00    0.1453238    0.1160652  31.48 0.0005012227    1.373    0.272
        70  -8.5913     94.6549    224.7255   1.3565944417e+02   1.8621196372e+01    0.4519188    0.1375364  50.60   0.00181426    3.541    0.718
        71  -8.8922    216.5464    223.7620   1.1179180859e+02   1.6556296566e+00    0.2082429    0.1963825 -24.10  0.001073325    1.832    0.454
        72  -8.9032    180.5224    224.5019   1.1842388127e+02   6.5908072890e+00    0.1971969    0.1670061  35.57 0.0006602295    1.376    0.273
        73  -8.7890    104.8776    223.8906   1.3346948492e+02   1.7404205994e+01    0.2624261    0.1586062  60.89  0.001556103    1.883    0.469
        74  -8.6274    173.0937    223.3274   1.1967884825e+02   7.8036583993e+00    0.1775035    0.1674054   9.02 0.0005190813    1.396    0.284
        75  -7.7835    114.0011    224.2302   1.3161840900e+02   1.6113793255e+01    0.1598474    0.1103685  60.72  0.000652867    1.625    0.385
        76  -8.2937    140.4631    222.9366   1.2606913456e+02   1.2578343261e+01    0.1385169    0.1225055 -58.35  0.001006038    1.567    0.362
        77  -7.7187     59.3645    223.6610   1.4285083360e+02   2.3085015411e+01    0.1260613   0.05738262  54.29 0.0007031778    1.836    0.455
        78  -9.1239    239.1298    221.3645   1.0763509917e+02  -1.0652253179e+00    0.2296141     0.154523 -14.68 0.0009131114    1.454    0.312
        79  -9.3171    192.3990    221.2472   1.1575277184e+02   5.2851844314e+00    0.2301688    0.2140188  46.91  0.001083401    1.675    0.403
        80  -9.0709    159.7803    220.9420   1.2195809678e+02   1.0050019594e+01    0.3629613    0.1647291  47.90   0.00145856    2.493    0.599
        81  -8.9489      6.9834    222.1591   1.5315918062e+02   2.8451391638e+01    0.1923839    0.0562005  49.07  0.001089468    2.074    0.518
        82  -9.1490    120.5215    219.4764   1.2977347214e+02   1.5937721231e+01    0.3648642    0.1889538  56.14  0.001805649    2.388    0.581
        83  -8.6636     82.7925    220.6745   1.3779131401e+02   2.0795999369e+01    0.2181764    0.1173036  63.97  0.000996089    2.101    0.524
        84  -7.7502     27.5083    221.5425   1.4916291349e+02   2.6743428732e+01    0.1069433   0.07781052  51.94 0.0001879289    1.030    0.029
        85  -8.1430    202.6268    220.3685   1.1375694390e+02   3.9395644716e+00    0.1484212    0.1192642  38.40 0.0006931053    1.540    0.351
        86  -7.7653     72.7008    220.3395   1.3987635747e+02   2.2092450916e+01    0.1214647   0.06514905  55.96 0.0007034926    1.664    0.399
        87  -9.4473    248.3663    216.4310   1.0538792624e+02  -1.7645754654e+00    0.4190154     0.274968 -30.58   0.00292919    1.973    0.493
        88  -8.3810    210.0475    219.0619   1.1223577879e+02   3.0488066927e+00    0.1517995    0.1291989  37.61 0.0005292325    1.630    0.386
        89  -9.0960    132.8774    216.2001   1.2683009409e+02   1.4666035843e+01    0.4002096     0.227114  62.12  0.001944231    2.897    0.655
        90  -8.2466     61.8801    217.3855   1.4193825741e+02   2.3869717292e+01    0.2143454    0.1096987  62.74 0.0008209418    1.919    0.479
        91  -8.7842     51.6559    217.5576   1.4408168698e+02   2.4982680380e+01    0.1874413    0.1018289  64.35 0.0007984891    1.709    0.415
        92  -8.5308    169.2161    216.1673   1.1946102830e+02   9.2979979988e+00    0.1785317    0.1639407  71.90 0.0006277364    1.671    0.402
        93  -8.7094    143.0536    216.6191   1.2477870168e+02   1.3113016383e+01    0.2264613    0.1662219  60.91  0.001127233    1.783    0.439
        94  -7.9139    111.8558    217.2656   1.3135688117e+02   1.7498878159e+01    0.1990356   0.09701698  57.87 0.0009348666    2.714    0.631
        95  -8.8087    232.4236    214.7286   1.0771759624e+02   4.6196321080e-01    0.2024121    0.1842348  -6.76 0.0009725492    1.688    0.408
        96  -8.4990    185.6271    214.5172   1.1605426072e+02   7.0822069326e+00    0.1871424    0.1460205 -31.06 0.0007501693    1.599    0.374
        97  -7.8767    154.3768    215.2179   1.2229258773e+02   1.1636270837e+01    0.1352444    0.1194651 -68.54 0.0006171122    1.683    0.406
        98  -8.8049     93.4919    214.2116   1.3496808950e+02   2.0497549599e+01      0.35217    0.1329208  52.58  0.001157662    2.841    0.648
        99  -9.4537    214.0443    212.0131   1.1045599317e+02   3.2703574310e+00    0.3015095    0.2788038  10.97  0.001767473    1.558    0.358
       100  -9.3970     73.0234    211.9849   1.3918573224e+02   2.3490682168e+01    0.5568303    0.1563887  52.37  0.002135605    3.794    0.736
       101  -8.5597    224.7435    212.4065   1.0865384798e+02   1.7396178259e+00    0.1829668    0.1387344 -33.86  0.001056447    1.870    0.465
       102  -8.7236    161.8765    212.4508   1.2040858422e+02   1.0900099481e+01    0.1889854     0.171538  68.44 0.0009580039    1.589    0.371
       103  -8.8697    204.3792    211.1380   1.1205635592e+02   4.7510353736e+00    0.1980392    0.1894083   1.56 0.0008385172    1.591    0.372
       104  -9.5887    175.5521    210.3105   1.1738952524e+02   9.1271881546e+00    0.3170348    0.2388534  62.49  0.001442804    2.213    0.548
       105  -9.1876      5.9997    208.2935   1.5305166429e+02   3.0950383586e+01    0.2612287   0.07021938  66.71  0.001236218    3.170    0.685
       106  -8.2638    192.4552    210.4753   1.1416372300e+02   6.5760923672e+00    0.1631014    0.1156301 -46.17  0.000806627    2.123    0.529
       107  -8.8505    148.0416    210.5545   1.2297568367e+02   1.3259389815e+01    0.2314362    0.1735286  62.30  0.001101965    1.816    0.449
       108  -8.8159    116.4630    210.6153   1.2965998212e+02   1.7919053088e+01    0.3003452    0.1590678  54.30  0.001118203    2.083    0.520
       109  -8.6516     85.7516    209.7166   1.3623626388e+02   2.2283280005e+01     0.281405    0.1243113  54.19  0.001196936    2.267    0.559
       110  -8.0756     32.3157    210.6381   1.4775590785e+02   2.8200039962e+01    0.1234141   0.05530109  56.31 0.0007041843    1.761    0.432
       111  -9.2367    236.6497    207.8927   1.0593035358e+02   5.9553249813e-01    0.2647997    0.1963794 -34.19  0.001532102    1.951    0.488
       112  -7.9171     46.3053    209.6431   1.4476231043e+02   2.6960413331e+01    0.1243162   0.06050331  56.89 0.0007040469    1.721    0.419
       113  -9.4667    246.3808    207.2661   1.0424416140e+02  -6.2814631094e-01    0.2316548    0.1589931  -5.28  0.000601716    1.229    0.186
       114  -8.0057    156.4148    208.1600   1.2092674921e+02   1.2337362532e+01    0.1376299    0.1226988 -72.11 0.0005663804    1.666    0.400
       115  -8.3337    139.2057    208.1222   1.2450638886e+02   1.4959805590e+01    0.2296839    0.1315474  52.41 0.0007855533    1.976    0.494
       116  -8.0787    126.4639    208.5411   1.2727119541e+02   1.6797284164e+01    0.1266943   0.09709673  39.65 0.0008072146    1.068    0.063
       117  -9.1570     99.4584    205.9852   1.3286982429e+02   2.1094595749e+01    0.3325807    0.1930309  68.87  0.001643816    2.348    0.574
       118  -8.7283     56.8005    205.7619   1.4226158374e+02   2.6516997146e+01    0.3530178    0.1113079  54.60  0.001432906    3.069    0.674
       119  -8.1268     25.1698    205.5125   1.4903814072e+02   2.9807051702e+01    0.2064883   0.08299669  65.05 0.0008255463    2.216    0.549
       120  -9.3475    194.9045    203.5210   1.1263084636e+02   7.0774146930e+00    0.3373806    0.2891585 -34.40  0.001450103    1.596    0.373
       121  -9.1786    192.4654    197.5672   1.1214683901e+02   8.2151317882e+00    0.2442744    0.2358358   7.00  0.001034785    1.468    0.319
       122  -9.0886    183.9266    204.1113   1.1482808289e+02   8.6735531755e+00    0.2798612    0.2072804  54.66  0.001081975    1.953    0.488
       123  -8.5672    131.2730    203.9845   1.2567182468e+02   1.6809438465e+01    0.2826701     0.179257  65.23  0.001180318    2.371    0.578
       124  -8.4249    109.2328    205.1998   1.3063086652e+02   1.9855507496e+01    0.2334987    0.1217351  52.13 0.0007473801    1.912    0.477
       125  -8.4899    227.6473    202.8542   1.0662585846e+02   2.3651020719e+00    0.2397667    0.1206185 -16.36  0.001312974    2.156    0.536
       126  -9.6034    163.8459    203.0444   1.1867651419e+02   1.1928933296e+01    0.3578395    0.2280198  49.48  0.001243244    1.768    0.435
       127  -9.4885    250.0886    201.8373   1.0276285805e+02  -5.7517738633e-01     0.317661      0.14321 -24.16  0.001603166    2.132    0.531
       128  -9.4527    243.0704    200.6636   1.0369284651e+02   4.7470661396e-01    0.2856303      0.15894 -25.22 0.0009517188    1.792    0.442
       129  -8.3628    210.9482    201.9911   1.0942067765e+02   4.8670731667e+00    0.1568673    0.1426311  40.61 0.0004950936    1.660    0.397
       130  -9.0646    140.6339    201.1082   1.2327525151e+02   1.5835749182e+01    0.3262997    0.2084674  60.42  0.001228141    2.184    0.542
       131  -8.6190     80.0489    201.5044   1.3676690366e+02   2.4485396835e+01    0.2848909    0.1342163  59.61  0.001373952    2.383    0.580
       132  -8.4097     48.3268    202.1831   1.4389177744e+02   2.8113612465e+01    0.2470029    0.0915277  50.38  0.001234838    2.130    0.531
       133  -8.1238    221.6612    201.1852   1.0738630251e+02   3.4008486004e+00    0.1570882   0.09419277 -14.62 0.0007019218    1.675    0.403
       134  -9.2177    237.0756    198.3889   1.0429643104e+02   1.5312271416e+00    0.3502472    0.1536326 -27.52  0.001905292    2.298    0.565
       135  -9.4832    149.6948    198.7933   1.2101438383e+02   1.4782674761e+01    0.3540813    0.2531954  70.57  0.001311613    2.339    0.572
       136  -8.8969    123.9720    199.2179   1.2666421699e+02   1.8697989122e+01    0.2588216     0.193567  85.25   0.00121765    1.930    0.482
       137  -9.3115    112.8111    198.6614   1.2908504314e+02   2.0459717390e+01    0.3735686    0.2161467  62.86  0.001496773    2.318    0.569
       138  -9.0445     88.8008    198.7416   1.3452635894e+02   2.3836969751e+01    0.3323736    0.1840371  66.13  0.001284724    2.240    0.554
       139  -8.7304    177.1484    198.7833   1.1534191721e+02   1.0447407723e+01    0.1811604    0.1689138 -24.95 0.0005376624    1.407    0.289
       140  -8.5038    202.3476    197.6912   1.1029754384e+02   6.6784774409e+00    0.2047986     0.183268 -11.72 0.0009352691    1.391    0.281
       141  -9.1241     61.6818    197.1182   1.4055955914e+02   2.7564325753e+01    0.4018746    0.1652524  56.69  0.001657849    2.393    0.582
       142  -8.3666     12.6565    197.6507   1.5140456862e+02   3.2362298275e+01    0.2238145   0.08030033  66.51  0.001160184    2.407    0.585
       143  -8.6824    215.9219    195.5772   1.0746828643e+02   4.8891031431e+00    0.1907426    0.1635529 -31.36 0.0007805671    1.637    0.389
       144  -9.4423    184.3514    195.4151   1.1337851014e+02   9.7746161322e+00    0.3644417    0.1980986  25.18  0.001181376    1.666    0.400
       145  -8.2400    132.9727    195.9807   1.2424901324e+02   1.7856638511e+01    0.1965962    0.1384778  59.58 0.0006525115    1.709    0.415
       146  -7.7681     53.3361    196.6530   1.4241841540e+02   2.8607718573e+01    0.1319671   0.06548644  56.78 0.0007048231    1.776    0.437
       147  -7.8842     35.9679    196.4626   1.4629921563e+02   3.0471826613e+01    0.1676685   0.05444057  48.56 0.0004890636    2.266    0.559
       148  -8.7860    224.2788    194.0621   1.0573878318e+02   3.8319448303e+00    0.2362512    0.1704189 -37.04 0.0009348795    1.891    0.471
       149  -8.7492    161.0676    194.4170   1.1796261760e+02   1.3641335687e+01    0.2243461    0.1857509  57.86 0.0008150716    1.558    0.358
       150  -8.7892     43.9775    193.5870   1.4434066934e+02   3.0209074581e+01    0.3811846    0.1371859  56.73  0.001775494    2.561    0.610
       151  -9.6699    245.6078    192.7608   1.0194557169e+02   9.5005253919e-01    0.3043023    0.1812517 -16.75  0.001051356    1.530    0.346
       152  -8.7242     77.0920    193.9435   1.3675441957e+02   2.6271559191e+01    0.2196188    0.1568734  58.90 0.0005850206    1.272    0.214
       153  -8.6253    172.4234    192.0318   1.1523356886e+02   1.2162235508e+01    0.2145702    0.1976621 -88.33  0.001020993    1.674    0.403
       154  -8.3090    230.9319    194.1732   1.0461449845e+02   2.8557778768e+00    0.1683502    0.1409378   9.93 0.0007250857    1.277    0.217
       155  -8.1083    199.0029    191.9556   1.0997467973e+02   7.9260120724e+00    0.1680249    0.1490853  52.58 0.0005678645    1.679    0.404
       156  -8.1874    179.2849    191.8491   1.1381064411e+02   1.1079929296e+01    0.1635827    0.1631964 -16.72 0.0005313361    1.455    0.313
       157  -9.1185    139.5586    190.6548   1.2204476097e+02   1.7700433181e+01    0.3254274    0.2310047  67.10  0.001088598    2.032    0.508
       158  -8.6999     21.2896    191.0901   1.4930603839e+02   3.2879128032e+01     0.319515   0.08819424  55.90  0.001440314    2.884    0.653
       159  -8.2723      6.7870    191.3826   1.5247877133e+02   3.4022045816e+01    0.2520783   0.04960415  62.45 0.0009650471    4.283    0.766
       160  -7.5459    205.2923    191.6887   1.0874924791e+02   6.9799574292e+00    0.1062791   0.09526057  43.70 0.0002936255    1.589    0.371
       161 -10.4199     91.9878    188.6281   1.3272989393e+02   2.5281043187e+01    0.8845517    0.2087471  45.29  0.003033564    3.691    0.729
       162  -8.9589    129.3539    188.7526   1.2406323018e+02   1.9650724039e+01     0.282438    0.1939001  64.21 0.0009923445    1.913    0.477
       163  -8.4134    237.0928    188.3200   1.0256810850e+02   2.6220069970e+00    0.1994817    0.1306928  -6.58 0.0005760192    1.345    0.257
       164  -8.9193    216.6241    188.0582   1.0605693073e+02   5.6858664579e+00    0.2303044    0.2012978 -33.10 0.0008118446    1.632    0.387
       165  -9.4231    155.9832    187.4521   1.1796535887e+02   1.5547856502e+01     0.311513    0.2168759 -56.38 0.0008066724    2.010    0.502
       166  -9.8468    121.0159    186.9681   1.2572702372e+02   2.1277098998e+01    0.4677176    0.2867498 -84.59  0.002130222    3.072    0.674
       167  -8.8658     34.2692    188.2231   1.4624676898e+02   3.2239479125e+01    0.3055976    0.1342751  67.25  0.001027965    2.217    0.549
       168  -8.9098    242.6358    188.2462   1.0164367066e+02   1.8428204208e+00    0.1542282   0.09104807 -12.59   0.00068102    1.553    0.356
       169  -8.8986    191.3768    187.3584   1.1066461487e+02   9.7525739252e+00    0.2390556    0.2164791 -47.70  0.001002352    1.629    0.386
       170  -9.0183     54.7139    187.0600   1.4141308765e+02   3.0319027135e+01     0.358337    0.1509103  58.25  0.001571841    2.355    0.575
       171  -8.1753    230.5198    187.0679   1.0345467307e+02   3.7178714879e+00     0.168066    0.1053247 -23.63  0.001026318    1.581    0.367
       172  -8.7654    164.7768    186.7490   1.1597505360e+02   1.4205003865e+01    0.2113737    0.1868777 -58.43 0.0008403109    1.579    0.367
       173  -9.2035    109.6025    186.2018   1.2828734322e+02   2.3171156563e+01    0.3445091    0.2055883  59.46  0.001219169    1.962    0.490
       174  -8.7923    249.2950    185.4038   1.0007445880e+02   1.2167932129e+00    0.2009205    0.1566323 -14.16  0.000665637    1.338    0.252
       175  -8.8885    182.9930    184.9885   1.1192311336e+02   1.1453000993e+01    0.2510935     0.185572 -42.92 0.0006877949    1.736    0.424
       176  -8.7936    210.2801    184.3260   1.0655417639e+02   7.1334226783e+00    0.2326237    0.1517911 -18.98 0.0005001456    1.549    0.354
       177  -8.7337    202.8355    184.6128   1.0799043899e+02   8.2776888812e+00    0.2001426    0.1638213 -45.36 0.0006207724    1.796    0.443
       178  -9.0988     66.5907    184.4229   1.3836785149e+02   2.9443006166e+01    0.3660167     0.182055  56.51  0.001176243    1.931    0.482
       179  -9.0164    224.2785    183.1917   1.0384469688e+02   5.1054019079e+00    0.2708287    0.1453447 -26.11  0.001135244    1.873    0.466
       180  -8.1522    197.0279    183.7668   1.0894901162e+02   9.3258849334e+00     0.193503    0.1661471 -43.12 0.0007502532    1.647    0.393
       181  -9.0328    174.1880    183.4109   1.1345319903e+02   1.3145900228e+01     0.261278    0.2275341 -74.80 0.0009839603    1.839    0.456
       182  -8.1472      1.8191    183.7999   1.5336843846e+02   3.5862265474e+01    0.1610827   0.08913042  52.59   0.00103944    1.353    0.261
       183  -9.0872     44.2286    182.3430   1.4356359562e+02   3.2409063406e+01    0.2971261    0.1542529  66.78 0.0009825765    1.871    0.466
       184  -8.4849    148.3000    189.5273   1.1995364004e+02   1.6473319959e+01    0.1963603    0.1616687 -64.90 0.0008279204    1.686    0.407
       185  -9.0710     26.8552    180.7862   1.4757961443e+02   3.4424909490e+01      0.38006    0.1224335  58.96  0.001613842    2.831    0.647
       186  -8.3383     23.7080    176.3231   1.4810428947e+02   3.5616026425e+01    0.2085131    0.1304622  69.78  0.001058429    1.367    0.269
       187  -8.2442    240.4933    180.5282   1.0062225438e+02   2.9983029050e+00    0.1863922    0.1004977 -36.16  0.001025972    2.215    0.548
       188  -9.0457    147.5008    180.6055   1.1874476351e+02   1.8079107823e+01    0.2915021    0.2088956  57.82  0.001185232    1.717    0.418
       189  -8.6740    137.7316    179.5177   1.2078773192e+02   1.9899294302e+01    0.3019575    0.1974137  62.99  0.001294672    2.169    0.539
       190  -9.4241    191.4874    178.4417   1.0908826967e+02   1.0974489142e+01    0.2842627    0.2091306  46.34 0.0005344884    1.556    0.357
       191  -8.2042    169.4854    178.5720   1.1361363696e+02   1.4678575072e+01    0.1943168    0.1306068 -54.04 0.0007499945    2.141    0.533
       192  -9.0455     36.0483    176.9270   1.4517902683e+02   3.4346894193e+01    0.4524559    0.1609456  69.58  0.001831411    3.472    0.712
       193  -9.4934    248.4192    176.4715   9.8608585425e+01   2.3026138998e+00    0.3483233    0.2194871 -34.97  0.001948913    1.931    0.482
       194  -8.4852    250.5117    172.9028   9.7623388471e+01   2.3935853193e+00    0.2053504    0.1398576 -19.23 0.0006395192    1.347    0.257
       195  -8.4006    217.6381    177.4444   1.0398191801e+02   6.8409950248e+00    0.1999075    0.1829945 -39.97 0.0007094698    1.667    0.400
       196  -8.6261    205.1498    177.6519   1.0631357930e+02   8.8238752497e+00    0.2170831    0.2023531 -57.45 0.0009951193    1.724    0.420
       197  -8.6645    128.9447    176.9697   1.2243822838e+02   2.1809387367e+01    0.2664196    0.1973046 -80.45 0.0008904332    1.964    0.491
       198  -8.7488     89.0468    177.0133   1.3211546398e+02   2.7958039663e+01    0.2793661    0.1810005  69.73  0.001011025    1.800    0.444
       199  -8.4551    231.1161    176.7250   1.0149559557e+02   4.8334913332e+00    0.1976383    0.1465964 -25.00 0.0006575853    1.446    0.309
       200  -9.2952    183.0382    176.0640   1.1035708311e+02   1.2745512302e+01    0.2724817    0.2550805 -60.26 0.0005179325    1.557    0.358
       201  -9.4351    104.6996    175.0744   1.2800652504e+02   2.6033790115e+01    0.5272096    0.2443147  57.60  0.002061763    3.026    0.670
       202  -7.9196     97.5666    177.5376   1.3007989755e+02   2.6622645920e+01    0.1309312     0.112535  41.48 0.0002133259    1.043    0.042
       203  -9.9411     57.1999    173.1182   1.3967569649e+02   3.2877224264e+01    0.7535529    0.2899538  70.54  0.002568446    4.677    0.786
       204  -8.8559     13.0427    176.8618   1.5063162854e+02   3.6395153523e+01    0.2695117   0.09447458  56.64  0.001346333    2.270    0.559
       205  -7.6415    211.5089    176.5327   1.0492764114e+02   7.9379629513e+00    0.1291601     0.101797  13.90 0.0002379572    1.009    0.009
       206  -9.2162    158.7036    174.9883   1.1532656176e+02   1.7105348836e+01    0.3364128    0.2513101  69.90  0.001137512    2.130    0.530
       207 -10.7398     75.8526    170.0497   1.3463608965e+02   3.1196646949e+01     1.110614      0.45664 -82.73  0.003960987    4.319    0.768
       208  -9.7277     81.4225    154.7531   1.3129627572e+02   3.3709648556e+01    0.4847721    0.4250223 -84.00  0.002197459    1.195    0.163
       209  -8.4093    224.4520    174.0542   1.0215115917e+02   6.1876972560e+00    0.1767247    0.1108141 -25.51 0.0007064053    1.582    0.368
       210  -9.6405    175.6793    172.2062   1.1118485547e+02   1.4599194184e+01    0.3176444    0.2340135 -32.29 0.0007956243    1.509    0.337
       211  -8.2823    142.9835    172.9825   1.1853186138e+02   2.0159874422e+01    0.2065645    0.1549443  60.77 0.0005895048    1.646    0.393
       212  -8.5296    134.8408    172.0626   1.2028007100e+02   2.1715746234e+01    0.2080711    0.1710208  57.50 0.0008593649    1.338    0.253
       213  -9.5304    121.5764    170.6281   1.2323158815e+02   2.4206096690e+01    0.3664607    0.2589787  74.26  0.001134993    1.992    0.498
       214  -9.2615     45.0807    170.6472   1.4252257499e+02   3.4741685661e+01    0.4154042    0.1918292  84.71  0.001440789    2.506    0.601
       215  -8.5705    205.8548    170.3155   1.0482521774e+02   9.6945890826e+00    0.2532095    0.1759704 -44.83  0.001085576    1.977    0.494
       216  -8.2281    237.1534    169.6413   9.9165052024e+01   4.7482564480e+00    0.1913957    0.1479948 -20.10 0.0006785711    1.331    0.249
       217  -8.9165    230.1151    169.4751   1.0031586108e+02   5.8591299913e+00    0.3440061     0.180703 -36.68  0.001804473    2.166    0.538
       218  -8.6016    198.2614    170.1634   1.0624747698e+02   1.0999613775e+01    0.2248258    0.1774375  38.87 0.0007460951    1.330    0.248
       219  -9.2120    167.3213    168.8417   1.1235835010e+02   1.6602670300e+01    0.3141096     0.227262  57.65  0.001006337    1.817    0.450
       220  -8.6341    149.8088    169.8434   1.1643476523e+02   1.9525186730e+01    0.2254172    0.1927049  86.36 0.0008937031    1.653    0.395
       221  -8.3521    244.3738    169.2107   9.7907843277e+01   3.7067072646e+00    0.1556377   0.09943698 -30.52 0.0004064171    1.659    0.397
       222  -8.4132    218.9672    168.5174   1.0207972065e+02   7.7630466412e+00    0.1993456    0.1710189 -30.20 0.0006357339    1.480    0.324
       223  -8.1378     88.4731    168.5404   1.3122584940e+02   2.9763510285e+01    0.2160083    0.1260345 -84.29  0.001008984    2.327    0.570
       224  -7.9849    211.4230    168.2494   1.0339726757e+02   9.0420731485e+00    0.1601253    0.1174358 -36.00 0.0005785809    1.621    0.383
       225  -8.7797    111.7161    167.6179   1.2520771558e+02   2.6399258936e+01    0.3329162    0.1851032  62.02  0.001090084    2.546    0.607
       226  -8.6727    191.9309    166.6860   1.0683523276e+02   1.2592537193e+01    0.2228914     0.186142 -31.18 0.0005324542    1.385    0.278
       227  -8.7133    184.9454    166.6445   1.0823702030e+02   1.3825798409e+01    0.2279226    0.1906549 -34.27 0.0005799066    1.402    0.286
       228 -10.1286     95.0604    162.9704   1.2878712650e+02   2.9949277621e+01    0.8434741    0.4213372  68.06  0.002998948    3.832    0.739
       229  -9.2828     20.6790    166.3156   1.4835410143e+02   3.7964736922e+01    0.3673451    0.1251056  55.36  0.001204783    2.486    0.598
       230  -8.7333     12.8326    167.0666   1.5031123370e+02   3.8433974695e+01    0.2065146   0.08710229  62.76  0.001071828    2.023    0.506
       231 -10.0336    136.9324    164.6305   1.1854582200e+02   2.2720012177e+01    0.6178793     0.274134  51.57  0.002343542    2.792    0.642
       232  -8.1952    233.9752    164.9973   9.8810431499e+01   5.7966628759e+00    0.1632633    0.1471732 -32.02 0.0005133999    1.583    0.368
       233  -8.6774    159.6980    164.5366   1.1325257591e+02   1.8680796423e+01     0.241904    0.2065775  83.28 0.0008263746    1.717    0.418
       234  -9.4137     33.4334    163.3757   1.4496823786e+02   3.7463396447e+01    0.5274808    0.1396759  50.62  0.002076789    3.214    0.689
       235  -9.1245    245.9140    161.8309   9.6257396990e+01   4.3235237780e+00    0.4528908     0.170132 -35.86  0.002063503    2.836    0.647
       236  -7.9524    242.0327    160.0377   9.6529089020e+01   5.1306443326e+00    0.1768322    0.1176929   2.33 0.0003570899    1.347    0.258
       237  -8.2798    239.8684    164.1530   9.7675101550e+01   4.9788044233e+00    0.1729925    0.1494334  -7.25 0.0006036218    1.286    0.222
       238  -8.7272    212.9247    163.6805   1.0224304255e+02   9.4016018619e+00    0.2226377    0.1766485 -25.39 0.0006130415    1.353    0.261
       239  -8.7318    205.0031    162.8829   1.0356318932e+02   1.0864150523e+01    0.2464564    0.1864016 -37.43 0.0005071412    1.580    0.367
       240  -8.6806     58.1459    163.7196   1.3856872563e+02   3.4769307430e+01    0.3226082    0.1513772  20.13  0.001393889    2.719    0.632
       241  -8.7626     60.5306    160.1541   1.3758248044e+02   3.5262447341e+01    0.3225814    0.1960293  81.11  0.001037889    1.820    0.451
       242  -9.3955      3.5349    162.4053   1.5240693839e+02   4.0086118013e+01    0.3890216    0.1236526  47.70  0.001939637    2.308    0.567
       243  -9.2042    177.4980    160.7256   1.0865515107e+02   1.6081457034e+01    0.2931317    0.2691538 -42.97  0.001002972    1.378    0.275
       244  -8.6477    151.6537    161.2445   1.1447840222e+02   2.0707288214e+01    0.2637009    0.2132754  68.02 0.0008600527    1.647    0.393
       245  -8.6385    227.4540    159.1554   9.8778580766e+01   7.5705268025e+00    0.2512118    0.1875902 -44.97 0.0009293899    1.931    0.482
       246  -8.6732    128.2087    159.3344   1.1976024199e+02   2.5253150544e+01    0.2630298    0.1891102  59.54 0.0006388508    1.604    0.377
       247  -9.7098    106.0537    158.1638   1.2521274365e+02   2.9228820792e+01    0.5154418    0.3086624  63.77  0.001742547    2.204    0.546
       248  -9.6642    250.2297    157.7934   9.4800457441e+01   4.1336453388e+00     0.288362    0.1447901 -26.50 0.0009093086    1.808    0.447
       249  -8.6233    237.0338    159.0098   9.7140789367e+01   6.0398833258e+00    0.1707239    0.1547299 -44.17  0.001126899    1.712    0.416
       250  -8.7623    196.4939    158.0335   1.0424971433e+02   1.3057662690e+01    0.2492131    0.2167237 -69.29  0.000899694    1.864    0.464
       251  -8.1687    188.0134    157.9846   1.0593584496e+02   1.4596254697e+01    0.1843968    0.1714475  81.14 0.0005077802    1.582    0.368
       252  -9.2241    167.6782    157.2390   1.1009881618e+02   1.8457476535e+01    0.3218055    0.2604588  73.00  0.001101918    1.859    0.462
       253  -8.4559    218.0118    156.5280   9.9911037008e+01   9.4957808888e+00    0.2328422    0.1682034 -39.45  0.000942631    1.701    0.412
       254  -9.0588    157.5630    155.9186   1.1211548101e+02   2.0564012010e+01    0.2802578    0.2352801 -57.24  0.001163634    1.519    0.341
       255  -9.3546    119.6047    155.4590   1.2126431149e+02   2.7515629654e+01    0.3783602    0.2675894  77.19  0.001310721    2.033    0.508
       256  -8.8083     23.0851    156.2675   1.4721142211e+02   3.9933981533e+01    0.2511415    0.1479994 -34.63  0.001296462    2.693    0.629
       257  -7.8978    204.8244    155.7795   1.0219007182e+02   1.1897975524e+01    0.1620297    0.1550341  18.03 0.0004681869    1.331    0.248
       258  -8.6817    144.8222    155.0505   1.1493357483e+02   2.3081047207e+01    0.2965289     0.207117 -62.21 0.0009869948    1.951    0.488
       259  -9.3740     49.5756    155.3128   1.4006108027e+02   3.7594537903e+01    0.3910466    0.1784711  57.37  0.001527636    2.206    0.547
       260  -9.0863    241.6140    154.4161   9.5490972424e+01   5.8680879436e+00    0.2658708    0.2212826  72.14  0.001576929    2.348    0.574
       261  -9.6570    132.7455    152.9029   1.1748552420e+02   2.5697638215e+01     0.457146    0.3145952  66.75  0.001303968    2.030    0.507
       262  -9.4981    133.5554    148.2636   1.1641357210e+02   2.6458982564e+01    0.3548772    0.2445923 -40.85  0.001769079    1.626    0.385
       263  -9.5595     67.9808    153.7492   1.3485355454e+02   3.5751180600e+01    0.4294646    0.2225094  60.18  0.001528657    2.139    0.533
       264  -8.8503    151.7171    152.4229   1.1279453305e+02   2.2282462141e+01    0.2314015      0.17557 -54.83 0.0007312543    1.634    0.388
       265  -8.7525     20.1598    152.6826   1.4778017027e+02   4.0963556273e+01    0.1945833    0.1129209  50.52 0.0005567863    1.461    0.316
       266  -8.2713    182.7699    151.7102   1.0575456275e+02   1.6546262069e+01    0.2285788    0.1845745 -68.85  0.001131492    2.005    0.501
       267  -9.7167     29.2424    150.4719   1.4520539573e+02   4.0693778969e+01     0.498352    0.1809514  63.30  0.002043146    3.003    0.667
       268  -9.5072    248.7486    149.3943   9.3369580249e+01   5.3403886282e+00     0.276521    0.1672183 -23.80 0.0008147472    1.477    0.323
       269  -8.4769    243.2244    149.9479   9.4341353551e+01   6.1503646888e+00    0.2450249    0.1451465 -34.29 0.0009054529    1.773    0.436
       270  -8.7797    189.5881    150.4438   1.0409133759e+02   1.5469152341e+01    0.2471871    0.2301742 -67.32 0.0007915359    1.527    0.345
       271  -8.2233    162.4045    150.3656   1.0991736603e+02   2.0628769395e+01    0.3015589    0.1742916 -35.03  0.001285811    1.922    0.480
       272  -8.7230     98.2027    150.7074   1.2613405705e+02   3.2065883539e+01    0.2825328    0.1994739  74.89 0.0008705664    1.751    0.429
       273  -8.2406    213.1330    150.1465   9.9496102085e+01   1.1215540301e+01    0.1638807    0.1560966  -1.78 0.0004240541    1.319    0.242
       274 -10.1239     39.9226    147.6307   1.4203553773e+02   4.0337413681e+01    0.6071631    0.2934839  70.35  0.002537065    2.262    0.558
       275  -8.6543    198.8201    148.7552   1.0190592011e+02   1.4010256540e+01    0.2450063    0.1810856 -42.26 0.0006057319    1.634    0.388
       276  -9.0825    233.4767    147.6973   9.5458430118e+01   8.0268656897e+00     0.251034    0.1759194  -5.20 0.0007258464    1.291    0.225
       277 -10.2780    106.7455    144.2456   1.2272683466e+02   3.2057934523e+01    0.7691262     0.464651  77.56  0.002325709    3.004    0.667
       278 -11.0098     54.9304    143.5865   1.3736087565e+02   3.9657536606e+01    0.9550279    0.5362618  85.64  0.003153931    2.038    0.509
       279  -8.1682    223.4702    146.9520   9.6997296639e+01   9.8330658195e+00    0.1951146    0.1554914  23.18 0.0003012606    1.142    0.125
       280  -8.3516    206.6863    146.3778   9.9904611274e+01   1.2911802752e+01    0.2204966    0.1547846 -36.35 0.0006268671    1.563    0.360
       281 -10.2584    149.0238    145.0752   1.1197329862e+02   2.4152202814e+01    0.5237525    0.3898462 -86.59  0.001600399    2.293    0.564
       282  -8.7821    150.6828    136.4165   1.0975848294e+02   2.5459821762e+01    0.4555123    0.2627774  15.19  0.001664659    2.928    0.658
       283 -10.2295    132.7095    131.7310   1.1328333646e+02   2.9942672315e+01    0.7230518    0.4721432  80.12  0.002185315    3.128    0.680
       284 -10.1173    138.9486    144.9126   1.1440926989e+02   2.6107295381e+01    0.4858016    0.3330871 -75.44  0.001701707    2.420    0.587
       285  -9.6030    133.3125    125.5174   1.1175777626e+02   3.1097745453e+01    0.4936139    0.2270127  28.01  0.001620554    3.119    0.679
       286  -8.7633     77.9778    147.1168   1.3120926019e+02   3.5893315689e+01     0.222715    0.1620052  61.82  0.000694547    1.370    0.270
       287  -9.5904     13.3921    146.1920   1.4925126700e+02   4.2921616299e+01    0.4269947     0.160256  54.62  0.001638654    2.300    0.565
       288  -8.3516    175.7656    146.2072   1.0610355881e+02   1.8777150741e+01    0.1999059    0.1851064  37.17 0.0005469884    1.194    0.163
       289  -9.1821    241.0003    144.6549   9.3616778195e+01   7.1581539641e+00    0.3148651    0.1732203  19.20  0.001573916    2.012    0.503
       290  -9.9156    124.9964    142.3674   1.1748104686e+02   2.9224041996e+01    0.6230225    0.3836318 -66.33  0.002152602    2.256    0.557
       291  -8.9657    247.0873    143.9997   9.2533258194e+01   6.2472544261e+00    0.1925952     0.147184  -3.78 0.0005206959    1.065    0.061
       292 -10.0282     89.1723    146.2047   1.2792391108e+02   3.4458195801e+01    0.6691282    0.3683253  77.04  0.002414635    3.240    0.691
       293  -8.7852    165.5576    143.9509   1.0788385643e+02   2.1145700954e+01    0.2467927    0.2173258  69.01 0.0008104792    1.466    0.318
       294 -10.9503     68.5871    139.2847   1.3283608295e+02   3.8966236117e+01    0.9412058    0.5083354 -82.22  0.003592987    2.244    0.554
       295  -9.2979      2.6187    141.7107   1.5196537908e+02   4.4631343634e+01    0.3758137    0.1360109  65.79  0.001503737    2.457    0.593
       296  -8.4495    182.0036    141.5527   1.0378487261e+02   1.8335774510e+01    0.2510109    0.1973126 -50.20 0.0007012969    1.616    0.381
       297  -8.4064    250.4901    140.9561   9.1393679724e+01   6.0651624274e+00    0.1803942    0.1051136 -23.70 0.0004316675    1.509    0.338
       298  -9.8173     23.5182    138.4313   1.4597597315e+02   4.3922618998e+01    0.5225011    0.1935232  58.21  0.001986922    2.675    0.626
       299  -8.8223    172.3191    138.3803   1.0518189652e+02   2.0779744236e+01    0.2828345    0.2193582 -61.44 0.0008761093    1.828    0.453
       300  -7.5715    235.2561    138.6743   9.3290292759e+01   8.8766404025e+00    0.1151613   0.09671485 -40.95 0.0004300295    1.551    0.355
       301  -8.1321    218.5442    138.5029   9.6071898204e+01   1.1859044426e+01    0.1340132    0.1152478   3.66 4.069012e-05    1.049    0.046
       302  -8.3585    207.3643    137.9919   9.7984206798e+01   1.4005105750e+01    0.2090903    0.1977864  79.19 0.0006940231    1.511    0.338
       303  -8.7568    197.5144    137.4704   9.9748312780e+01   1.5964935550e+01    0.2611559    0.2107511 -52.32 0.0007453418    1.670    0.401
       304 -10.4609     83.1874    133.3053   1.2759435757e+02   3.8294484430e+01    0.6274047    0.3869775 -63.57  0.001464732    1.700    0.412
       305  -8.6961    162.6977    136.3856   1.0691229885e+02   2.3057897851e+01    0.2353217    0.1838909 -54.76 0.0007045924    1.598    0.374
       306  -9.4300     39.2397    136.5142   1.4122270873e+02   4.2980239645e+01    0.2869288    0.1609839  58.74 0.0008974316    1.722    0.419
       307  -8.9449    248.4633    135.4075   9.0547864046e+01   7.0619757250e+00    0.2345186    0.1843924 -25.42 0.0008774204    1.284    0.221
       308  -8.1674    187.6352    135.8093   1.0135880013e+02   1.8160771040e+01    0.1871891    0.1303465 -41.78 0.0003691445    1.617    0.382
       309  -8.3105    237.5015    133.5108   9.1833796605e+01   9.1505759958e+00     0.220272    0.1045192 -38.11  0.001020841    2.238    0.553
       310  -7.9529    231.4958    133.9601   9.2895626590e+01   1.0144399696e+01    0.1862789    0.1160459 -25.26  0.000421968    1.479    0.324
       311  -8.7080    179.5777    133.8314   1.0260192072e+02   2.0097138820e+01    0.2544846    0.2167274 -64.42 0.0009511615    1.622    0.384
       312  -9.2361    112.8743    133.1098   1.1895009919e+02   3.3396948223e+01    0.3649832    0.2818471  88.52  0.001235016    1.679    0.404
       313  -9.1799    192.9619    131.8001   9.9384474084e+01   1.7741669320e+01     0.419181      0.19589 -36.10 0.0009236375    2.185    0.542
       314  -9.2997    143.0247    131.7169   1.1062709866e+02   2.7899548539e+01    0.3457443    0.2686765 -78.31 0.0008658849    1.862    0.463
       315 -10.4665     98.2667    130.4437   1.2261906904e+02   3.6544508902e+01    0.6816365    0.3077334 -61.21  0.001677097    2.543    0.607
       316  -8.9397     98.8281    120.7880   1.2054599656e+02   3.8651432259e+01    0.5382861    0.3194569   6.51  0.001832293    3.591    0.722
       317  -8.8105    250.7345    130.2320   8.9122815626e+01   7.3145541627e+00    0.3582141    0.1000301 -26.29  0.001298879    3.525    0.716
       318  -8.5126    246.8829    130.3669   8.9720586538e+01   7.9418101181e+00    0.2062917    0.1493406 -27.22 0.0005271451    1.311    0.237
       319  -9.7151    152.8658    128.2370   1.0741301950e+02   2.6569760396e+01    0.6266134    0.3058739 -43.45  0.001984051    2.208    0.547
       320  -9.8811     73.2546    129.2436   1.2994793704e+02   4.0688494261e+01    0.4806273    0.3065753  82.19  0.001545819    1.966    0.491
       321  -9.6235     70.9109    119.6909   1.2911498891e+02   4.3298964691e+01    0.6738953    0.3600198  71.41  0.002314562    2.992    0.666
       322  -9.9607     12.9373    129.3942   1.4848716752e+02   4.6794534900e+01    0.4762626    0.1918691  59.99  0.002028537    2.351    0.575
       323  -8.1149    220.7362    130.0330   9.3840034334e+01   1.2630578008e+01    0.1685486    0.1078046 -27.20 0.0006965695    1.480    0.324
       324  -8.4027    211.7265    129.3816   9.5280146627e+01   1.4428890458e+01    0.2342381    0.1587728 -40.27 0.0007272852    1.646    0.393
       325  -8.1829    204.7537    130.5480   9.6823397190e+01   1.5607432682e+01    0.1757228    0.1321713  53.02 0.0005173162    1.570    0.363
       326  -9.6296    168.5178    129.3952   1.0401894621e+02   2.3121444229e+01    0.3374792    0.2829489 -81.38  0.001110379    1.741    0.426
       327 -10.7429     45.0029    123.7160   1.3807019352e+02   4.5460712973e+01     1.148712    0.4689938  67.35  0.003935758    3.881    0.742
       328  -7.6255      1.6747    130.3316   1.5180632571e+02   4.7255078390e+01    0.1306384   0.06626789  58.39 0.0004752701    1.707    0.414
       329 -10.0599    117.8982    125.3313   1.1592998818e+02   3.4154180477e+01    0.5803864    0.3757726  70.18  0.001575725    2.390    0.582
       330 -10.3636     59.9447    125.0852   1.3348310065e+02   4.3434859915e+01    0.7626397    0.3733009  66.10  0.002567253    2.879    0.653
       331  -8.8647     59.0089    115.5570   1.3234843299e+02   4.5867723831e+01    0.3545505    0.2109978 -27.86  0.001502442    2.611    0.617
       332 -10.4611    238.9069    124.9847   8.9767584143e+01   9.9977645603e+00     0.251157    0.2106956  11.96 0.0004741781    1.095    0.086
       333  -9.1325    179.1200    124.7956   1.0062551659e+02   2.1716209797e+01    0.2868134    0.2520069  59.61 0.0007775449    1.354    0.262
       334 -10.2883     28.2849    122.1333   1.4324009647e+02   4.7390694923e+01    0.8094906    0.2957437  65.96  0.002934895    3.629    0.724
       335  -8.3630     27.0132    114.0000   1.4288550719e+02   4.9467630220e+01    0.1811906    0.1458808 -38.36  0.001093094    1.457    0.313
       336  -8.5748    228.3307    125.4572   9.1549869613e+01   1.1848278251e+01     0.215971    0.1453826 -42.30 0.0009129388    1.742    0.426
       337  -8.2771    188.5208    123.9935   9.8480447211e+01   1.9894999885e+01    0.2089943    0.1387931 -32.76  0.000505725    1.526    0.345
       338  -8.8908     85.0862    122.7393   1.2515850839e+02   4.0472234238e+01    0.4624545    0.2670101  10.70  0.001730277    3.019    0.669
       339  -9.4249    158.8376    121.8741   1.0449578811e+02   2.6517350089e+01    0.3430202    0.2827753  87.85  0.001013761    1.728    0.421
       340  -8.0065    203.2353    122.3061   9.5218569041e+01   1.7151620554e+01    0.2092849    0.1036481 -42.73 0.0004635753    2.297    0.565
       341  -7.9781    194.9922    122.0180   9.6726612497e+01   1.8876210858e+01    0.2109127    0.1770589 -65.98 0.0006027787    1.693    0.409
       342  -8.9389    172.0086    121.7851   1.0145760057e+02   2.3734001789e+01    0.2462341    0.2092066 -30.16 0.0004657572    1.220    0.180
       343 -10.3225    141.5537    117.9509   1.0783367243e+02   3.0939592264e+01    0.6741232    0.3461504 -48.43  0.001469261    2.163    0.538
       344 -10.0651    130.6542    118.2705   1.1080054121e+02   3.3139254720e+01     0.564545    0.4187115 -81.82  0.002095661    2.010    0.502
       345  -9.9920    133.5659    109.1607   1.0777853658e+02   3.4425793827e+01    0.6573764    0.3650825 -46.76  0.002091367    1.919    0.479
       346  -9.7310      2.9432    117.4704   1.5088232596e+02   5.0172310702e+01    0.5220335    0.1940795  63.47  0.002351627    2.558    0.609
       347  -7.9625    231.4952    117.4742   8.9246293704e+01   1.2332046736e+01    0.1324385    0.1164167  -9.30 0.0002847566    1.083    0.077
       348  -8.9914    185.7076    116.0984   9.7164031388e+01   2.1781177250e+01    0.2224711    0.1750915 -47.19 0.0005722115    1.476    0.323
       349  -9.1658    167.2701    115.0851   1.0088764315e+02   2.5945145700e+01    0.3235165    0.2419415 -38.97  0.001228829    1.405    0.288
       350  -9.9471    109.1101    114.0339   1.1596774268e+02   3.8317792991e+01    0.5453358    0.3698976 -83.68    0.0013314    2.284    0.562
       351  -8.8819    109.5001    107.5100   1.1430759718e+02   3.9708803166e+01    0.3151663    0.2175222   5.58  0.001143679    2.214    0.548
       352  -8.2323    250.0657    115.4400   8.6027068710e+01   9.2378633493e+00    0.1769761    0.1196428  41.78  0.001020085    1.579    0.367
       353  -8.1064    192.9156    115.1456   9.5488116939e+01   2.0401835234e+01    0.2111584     0.190738 -47.90 0.0005124951    1.311    0.237
       354 -10.1140     92.7510    112.5092   1.2068739524e+02   4.1622472017e+01    0.5173326    0.3452304 -79.14   0.00130241    1.972    0.493
       355 -10.0228     78.8742    112.5914   1.2520662640e+02   4.3850606734e+01    0.5720707    0.3680495  78.52  0.001754478    2.164    0.538
       356  -8.6884     78.8755    105.1847   1.2369008782e+02   4.5637721826e+01    0.3652866     0.258905  -2.43  0.001145908    2.047    0.511
       357  -8.6390    174.9325    112.2944   9.8492208968e+01   2.4761404386e+01    0.2804001    0.2036775 -51.11 0.0008004872    1.655    0.396
       358 -10.1757    121.7344    112.2465   1.1184587222e+02   3.6235989017e+01    0.3955738    0.2942743 -59.83  0.001020215    1.538    0.350
       359  -9.2903    159.3489    111.4826   1.0181903771e+02   2.8343122245e+01    0.4294769    0.2660954 -30.56  0.001544235    1.757    0.431
       360 -10.1594     66.2427    110.0910   1.2897524099e+02   4.6275153221e+01    0.5500283    0.3066046 -68.29   0.00195735    1.836    0.455
       361  -9.6812     13.9010    110.9950   1.4698716669e+02   5.1110196206e+01    0.3927965    0.1827227  66.26  0.001684213    2.164    0.538
       362  -9.2046     43.0872    109.7395   1.3691271656e+02   4.9085417279e+01     0.349295    0.1751994   7.12  0.001406177    3.073    0.675
       363 -10.2475    248.6839    108.7488   8.4734455439e+01   1.0310361828e+01    0.3557577    0.2436825 -24.47  0.001599137    1.266    0.210
       364  -8.1632    189.4461    107.9897   9.4400555203e+01   2.2300881083e+01    0.2175779    0.1398648 -33.99 0.0004935951    1.551    0.355
       365  -9.4877    139.9287    104.3579   1.0483057809e+02   3.4023979135e+01    0.4853486    0.3324932 -50.91  0.001491573    1.629    0.386
       366 -10.5047     45.4095    102.2266   1.3499051006e+02   5.0718850244e+01    0.7926134    0.3861799  68.75  0.003046139    2.983    0.665
       367  -8.8005     46.0261     92.6921   1.3317848729e+02   5.3043155418e+01    0.3377669    0.1919851   7.94  0.001486929    2.395    0.582
       368 -10.6400     22.8646    102.7428   1.4318632870e+02   5.2545416430e+01    0.7607695    0.3163493  64.44  0.002967828    2.896    0.655
       369  -8.7629    166.5651    104.4137   9.8322924966e+01   2.8021052334e+01     0.258958    0.2478498  18.39 0.0006231474    1.042    0.040
       370  -9.5220    150.6059    103.1095   1.0176327936e+02   3.1882180501e+01     0.474093    0.3007122 -61.60  0.001327748    2.338    0.572
       371  -8.8120     92.9415    105.0628   1.1895877025e+02   4.3337393365e+01    0.2370453    0.1836836 -13.19 0.0005542668    1.689    0.408
       372 -10.8345    109.1269     98.8998   1.1224933221e+02   4.1713817231e+01    0.9185252     0.508071  64.66   0.00168309    3.270    0.694
       373  -9.1300    108.4412     92.2903   1.1068609340e+02   4.3327052669e+01    0.5309601    0.3152363  22.81  0.002015312    2.340    0.573
       374  -9.2648      6.7313    103.2914   1.4886829743e+02   5.3369169228e+01    0.2648583     0.153898  61.28 0.0009062886    1.633    0.388
       375  -9.7223    128.5531    102.1520   1.0734752942e+02   3.6962254504e+01    0.3721439    0.3061972 -89.95 0.0007365923    1.580    0.367
       376  -8.1879    175.4397    102.2543   9.5803629862e+01   2.6385147378e+01    0.2047303    0.1411711 -45.71  0.000537903    1.601    0.375
       377  -8.4684    159.7571    100.9300   9.8966888573e+01   3.0207826351e+01    0.2717735    0.2077227 -56.00 0.0006435741    1.575    0.365
       378  -9.0526     82.1582    100.0042   1.2141678576e+02   4.6364684245e+01    0.3441813    0.2440032  86.30 0.0008681489    1.874    0.466
       379  -8.6817     67.5606     86.7038   1.2360849785e+02   5.1844056123e+01    0.5341012    0.2657676   6.63  0.001423682    5.980    0.833
       380  -8.3250    130.0208     97.4758   1.0567329774e+02   3.7618502305e+01    0.2305473    0.1326976  23.74 0.0008100869    2.567    0.610
       381  -8.5722    151.0147     95.7725   9.9663444305e+01   3.3191337446e+01    0.2689222    0.1747497  21.14  0.001073585    2.044    0.511
       382  -8.4221    176.6292     93.4378   9.3187902559e+01   2.7615219246e+01    0.2918683    0.2185668 -59.47 0.0008052212    1.711    0.416
       383  -8.3146    164.8006     94.1127   9.5941949226e+01   3.0273109000e+01    0.2309795    0.2086493 -66.52 0.0005704474    1.301    0.232
       384  -9.4296    139.0883     91.9366   1.0163974584e+02   3.6697265830e+01    0.4980384    0.3343744 -54.04  0.001528267    1.749    0.428
       385 -10.6552    123.7838     91.6499   1.0582750236e+02   4.0209886427e+01    0.6453362    0.5558214   2.87  0.001767341    1.303    0.232
       386  -9.3972     95.0558     97.0226   1.1630852735e+02   4.4839487193e+01    0.3616149    0.2622939 -62.15 0.0006847772    1.491    0.329
       387  -9.4260      5.1135     92.1023   1.4868861992e+02   5.6165255675e+01    0.3662157    0.1620162  48.66  0.001193181    2.279    0.561
       388  -8.3016    157.8216     91.5686   9.6839015895e+01   3.2379010491e+01     0.249723    0.1827248 -40.09 0.0006108087    1.413    0.292
       389  -9.4983     34.7799     89.8256   1.3708047314e+02   5.4844102822e+01    0.4850218    0.2481668  82.10  0.001709859    2.502    0.600
       390  -8.9637     23.1785     90.1899   1.4166529115e+02   5.5647957413e+01     0.274302    0.2209844  19.47  0.001235769    1.406    0.289
       391 -10.1148     63.6946     95.4993   1.2703945947e+02   5.0217484884e+01    0.6400192    0.3913163  84.40  0.001922457    2.346    0.574
       392  -8.6129    150.8515     88.9559   9.7769165006e+01   3.4515895873e+01    0.2836149    0.2106563 -41.60 0.0007441699    1.400    0.286
       393  -9.9141     86.1922     86.4540   1.1660852541e+02   4.8908353274e+01    0.5097378    0.3667906 -87.12  0.001227922    1.941    0.485
       394  -8.5142     87.2024     80.6278   1.1461295918e+02   5.0087820456e+01    0.2834238    0.1496401  25.83  0.000968084    2.432    0.589
       395  -7.7954    188.4196     87.5061   8.9220018508e+01   2.5825435162e+01    0.1491517     0.139406   1.14 0.0001079705    1.020    0.020
       396  -7.9046    164.3268     87.2054   9.4100532604e+01   3.1609297076e+01    0.2200832    0.1375616 -43.57 0.0004211911    1.692    0.409
       397  -9.8852     48.3829     84.3641   1.3066735058e+02   5.4876859619e+01     0.557546    0.3177352  72.29  0.001947036    2.544    0.607
       398  -9.8716    104.8827     83.3246   1.0926764115e+02   4.6043237531e+01    0.4773052    0.3522284 -84.40  0.001086719    1.992    0.498
       399  -8.4510    157.8853     84.1135   9.4671941551e+01   3.3714139619e+01    0.2319666    0.2131404 -68.87 0.0004139518    1.241    0.194
       400  -9.3616    140.9937     82.5124   9.8360054576e+01   3.8088049438e+01    0.4404032    0.2383092 -40.39  0.000890785    1.900    0.474
       401  -9.6779     24.5739     80.3470   1.3979473947e+02   5.8019693159e+01    0.4779233    0.2378219  81.93  0.001405862    2.422    0.587
       402  -9.2777      9.8946     81.0985   1.4592949307e+02   5.8664523337e+01    0.3779203    0.1616294  50.99  0.001586554    2.545    0.607
       403  -8.4390    150.1732     80.4466   9.5414090808e+01   3.6255799046e+01    0.3106384    0.1982149 -54.04 0.0008439361    1.926    0.481
       404  -8.9057    119.4394     80.3292   1.0375502687e+02   4.3544433495e+01    0.3589868    0.2496515 -72.58 0.0008440161    2.183    0.542
       405  -8.9398     74.4290     80.3042   1.1932299399e+02   5.2348490900e+01     0.362615     0.240964 -78.41  0.001137849    2.012    0.503
       406  -8.5981    166.9080     79.7607   9.1366123042e+01   3.2269273321e+01    0.2673395    0.2195126 -27.79 0.0006694069    1.232    0.189
       407  -9.0712     65.3910     78.1776   1.2232634210e+02   5.4238277352e+01    0.2984442    0.2499395 -84.47 0.0009098952    1.320    0.242
       408  -9.9974     63.3966     73.6377   1.2193138038e+02   5.5625247663e+01    0.5905421    0.3022892 -70.38  0.001556073    2.557    0.609
       409  -8.0273    184.4142     78.4896   8.7462990951e+01   2.8200631905e+01    0.1498054    0.1422493  -0.75 0.0001637851    1.019    0.018
       410  -8.8119    105.4329     77.0268   1.0716203715e+02   4.7304581070e+01     0.306676     0.215441  25.89 0.0007667235    1.627    0.386
       411  -8.0553    157.2821     76.6433   9.2572221611e+01   3.5185943173e+01    0.1592135    0.1232286 -67.96 0.0005708949    1.666    0.400
       412  -9.1458    140.4723     74.8444   9.6117673436e+01   3.9664762761e+01    0.4060268    0.2687219 -37.19  0.001200233    1.550    0.355
       413  -9.3702    127.9275     75.2266   9.9652328759e+01   4.2615911764e+01     0.382588     0.295679 -67.02 0.0007391686    1.646    0.392
       414  -7.9081     86.3203     63.6875   1.0960095915e+02   5.4081177041e+01     0.220465    0.1293155  38.78  0.000837194    1.713    0.416
       415  -9.7305     82.4250     72.8617   1.1408389244e+02   5.2742278046e+01    0.4724463    0.3426536 -85.15  0.001118862    2.001    0.500
       416  -8.2247    163.3322     73.4438   9.0242821264e+01   3.4225642351e+01    0.2640544    0.1764822 -51.81 0.0007722852    1.740    0.425
       417  -8.1207    175.5069     72.9094   8.7559861687e+01   3.1270052485e+01    0.2272091    0.1493383 -32.06 0.0005112771    1.516    0.340
       418  -8.7812    115.6061     72.6271   1.0247616097e+02   4.5998090212e+01    0.3389761    0.1945378 -42.42  0.001129197    1.785    0.440
       419  -9.3885    105.8355     71.9482   1.0539744269e+02   4.8305023096e+01    0.3200432    0.2127029 -53.38 0.0006130718    1.661    0.398
       420  -8.2136     42.6523     73.2946   1.3074254271e+02   5.8253210171e+01    0.2156184    0.1510978  68.70 0.0005855614    1.718    0.418
       421  -9.2877     95.0983     71.0527   1.0881085842e+02   5.0738667531e+01    0.4275058    0.2722017 -65.76 0.0009023569    2.173    0.540
       422  -8.7101    151.1962     73.2267   9.2937951051e+01   3.7303332376e+01    0.2147968    0.1880986 -71.81 0.0006980484    1.336    0.251
       423  -9.5724     51.3216     69.4204   1.2599349786e+02   5.8245287712e+01     0.454507    0.2498236 -77.41   0.00144993    2.373    0.579
       424  -8.5295     28.2045     71.0100   1.3671331506e+02   6.0101405545e+01    0.2198605    0.1553464 -44.45  0.000834422    1.384    0.277
       425  -8.4498     31.8349     68.3687   1.3456319758e+02   6.0477528547e+01     0.279992    0.1793497 -22.19  0.001221632    1.886    0.470
       426  -8.9788     16.7875     70.3932   1.4173902329e+02   6.0987777529e+01     0.284884    0.1670694 -89.85  0.001009002    1.687    0.407
       427  -9.0384    147.2781     68.3757   9.2331697389e+01   3.9143366448e+01    0.3567841    0.2553858 -51.88 0.0009570806    1.585    0.369
       428  -9.2792    138.8598     66.1556   9.3706970121e+01   4.1657538132e+01    0.4037883    0.2134121 -44.17  0.001284881    2.017    0.504
       429  -8.9076    121.6013     66.1235   9.8472418635e+01   4.5895939581e+01    0.3290415    0.2555605 -68.49 0.0006981986    1.657    0.396
       430  -9.1791    110.1637     63.3397   1.0104444133e+02   4.9114606832e+01    0.4966783    0.2518621 -42.39  0.001137479    2.015    0.504
       431  -8.8042     95.2570     64.8236   1.0666366421e+02   5.2053441458e+01    0.3762133    0.2115162  25.24  0.001385846    2.466    0.595
       432  -9.5075     97.6384     60.6832   1.0434927458e+02   5.2423038675e+01    0.3763422    0.3564703 -14.81  0.001512431    1.050    0.048
       433  -8.7965     37.2879     64.1975   1.3112308543e+02   6.1035916638e+01    0.2992379    0.2149699  82.05  0.000902486    1.657    0.396
       434  -8.7339     64.7354     63.3397   1.1834732772e+02   5.7881333995e+01    0.3780391    0.2300767 -12.84  0.001459132    2.778    0.640
       435  -8.3020    192.6727     63.0965   8.1572667491e+01   2.8488921361e+01    0.2040182    0.1778206 -22.63 0.0003731751    1.127    0.113
       436  -8.2440    158.1253     62.1338   8.7812587454e+01   3.7424060389e+01     0.209937     0.184211 -66.50 0.0003494463    1.281    0.219
       437  -8.4086     19.0251     62.4702   1.3948498924e+02   6.2836004092e+01    0.1861657   0.08956493 -26.92   0.00080989    2.590    0.614
       438  -9.6088     73.3176     59.5039   1.1339916638e+02   5.7377032320e+01     0.419489    0.2564756 -59.51   0.00101105    1.848    0.459
       439  -7.6812    164.4948     60.4169   8.5918756277e+01   3.6048740795e+01    0.1531691    0.1493209  50.02 6.687676e-05    1.024    0.024
       440  -7.9030     88.8724     59.7749   1.0725007436e+02   5.4425438692e+01    0.2015499    0.1827445  84.31 0.0005274959    1.305    0.234
       441  -8.6101    147.2355     59.2196   8.9306419309e+01   4.0723039577e+01    0.2173986    0.1840685 -63.47 0.0005339275    1.350    0.259
       442  -9.9225     23.5276     56.6076   1.3617189766e+02   6.4009751831e+01    0.5012072    0.2635628  75.44  0.002133872    2.762    0.638
       443  -8.6308    130.8135     58.0771   9.3050321995e+01   4.5124571622e+01    0.2409207    0.2140269 -66.81 0.0005476153    1.280    0.219
       444  -9.4468      7.3339     57.2417   1.4437616603e+02   6.4663692093e+01    0.3119355    0.1825246  75.27  0.001087379    1.846    0.458
       445  -8.7399    140.0495     56.1637   8.9987126203e+01   4.3094521483e+01    0.3234557    0.2151211 -45.36 0.0007956735    1.614    0.380
       446  -9.3303    119.1226     55.4174   9.5398347618e+01   4.8508747689e+01    0.5511986    0.2584143 -44.16  0.001482519    2.286    0.563
       447  -9.4867     54.3931     55.7303   1.2062730619e+02   6.1140913843e+01    0.3729151    0.2617522 -76.86  0.001111189    1.799    0.444
       448  -7.5730    158.0000     55.9912   8.5823603291e+01   3.8435466427e+01    0.2473028   0.08938342 -30.98 0.0003674861    2.825    0.646
       449  -8.7817     44.0844     55.3910   1.2552600950e+02   6.2487143605e+01    0.2928008    0.1841284 -71.16 0.0008472002    1.739    0.425
       450  -8.5575    105.7778     53.2388   9.8775650855e+01   5.2092145559e+01    0.2638448    0.2052071 -50.60 0.0006838418    1.410    0.291
       451  -8.1649    133.0381     51.9761   9.0266303343e+01   4.5608863943e+01    0.2299508    0.2115159 -73.08 0.0003200893    1.211    0.174
       452  -8.4224    130.0856     49.1423   8.9993167571e+01   4.6843180975e+01    0.2437629    0.2206942 -81.24 0.0006159191    1.251    0.201
       453  -9.4774     92.3529     50.7618   1.0254632636e+02   5.5559652709e+01     0.415439    0.2621536 -53.72   0.00110934    1.869    0.465
       454  -8.4076     75.0897     51.7086   1.0982375579e+02   5.8776662831e+01    0.3215281    0.1885587  12.09  0.001162961    2.963    0.662
       455  -7.8764    127.2652     51.6310   9.1675158771e+01   4.7146278690e+01    0.1602456    0.1223715 -65.32 0.0006987946    1.657    0.397
       456  -9.5838    247.4671     49.5116   7.0925114612e+01   1.7712682953e+01    0.2383194    0.2160679 -27.62 0.0005172493    1.045    0.043
       457  -8.0627    144.8490     49.1625   8.6369836597e+01   4.2973495495e+01    0.2167626    0.1821711  13.04 0.0004903597    1.317    0.241
       458  -8.0568    163.6209     48.1906   8.2093703095e+01   3.8122306859e+01     0.216246     0.149085 -12.16  0.000690544    1.693    0.409
       459  -7.4822    149.7085     48.6754   8.5109687593e+01   4.1758479764e+01    0.1619413     0.118634  22.98 0.0002791938    1.615    0.381
       460  -8.6911    120.8923     47.3903   9.1849224826e+01   4.9484410750e+01    0.2803233    0.2258936 -22.06 0.0006089032    1.311    0.237
       461  -8.3250    112.1988     46.9088   9.4246677648e+01   5.1725547920e+01    0.2330348    0.2089716 -67.81 0.0005559669    1.292    0.226
       462  -8.9275     82.1732     46.6089   1.0485464899e+02   5.8488781826e+01    0.2905225     0.257433 -59.88  0.000820908    1.287    0.223
       463  -8.5609     45.0492     44.6149   1.2157609920e+02   6.4905585687e+01    0.2542893    0.1855914 -72.35 0.0006904171    1.607    0.378
       464  -9.1608     16.4471     44.4872   1.3737411544e+02   6.7389737423e+01    0.3323318    0.1955115 -85.04  0.001429222    1.817    0.450
       465  -8.7488    133.0450     43.5661   8.7136860604e+01   4.6968345826e+01    0.2901811    0.2147448 -50.83 0.0007292946    1.515    0.340
       466  -8.5097     32.4906     44.4906   1.2836302400e+02   6.6251610928e+01    0.2351763    0.1263209   0.54  0.001034513    2.480    0.597
       467  -8.4645     92.8018     42.9848   9.9215208744e+01   5.6955161176e+01    0.2551343    0.1740085  -4.77 0.0008607295    2.034    0.508
       468  -9.4327     69.6590     41.1799   1.0799834133e+02   6.1958111793e+01    0.5615604    0.3012154 -51.04  0.001839312    2.012    0.503
       469  -8.8970     57.9723     42.2437   1.1402281942e+02   6.3674222631e+01    0.3404132    0.1998984 -61.50  0.001139814    2.099    0.524
       470  -9.5611      5.2046     42.1163   1.4329068752e+02   6.8415213518e+01    0.3464736    0.1836485  82.05  0.001619823    2.120    0.528
       471  -8.6329    105.8084     41.1754   9.3942457958e+01   5.4270797104e+01    0.3047296    0.2029795 -46.36 0.0006871854    1.656    0.396
       472  -8.5010     36.7799     40.8915   1.2480905608e+02   6.6682318566e+01    0.2364928     0.182913 -80.42 0.0007207364    1.548    0.354
       473  -8.9254     95.4389     37.9646   9.6101201616e+01   5.7265983979e+01    0.3266245    0.2433678 -61.03 0.0007609299    1.761    0.432
       474  -8.1131     80.5739     36.7503   1.0129273527e+02   6.0721344328e+01    0.1989462     0.139564 -48.86 0.0004080487    1.578    0.366
       475  -9.4825     26.0850     35.5317   1.2930683080e+02   6.8892924070e+01    0.3421094    0.2405439 -79.71 0.0009219325    1.638    0.389
       476  -8.2648    125.9821     35.5157   8.5774349445e+01   5.0055196384e+01    0.2332882    0.1474103  55.47  0.000363252    1.498    0.333
       477  -8.8043    111.8486     34.5013   8.9245976410e+01   5.3869114093e+01    0.3400628    0.2161681 -36.22 0.0007894119    1.625    0.385
       478  -7.5194    153.6723     34.3458   7.9200733245e+01   4.2728084653e+01    0.1652675    0.1144986 -63.87 0.0007050265    1.750    0.429
       479  -8.0988    140.4504     41.5315   8.4602188458e+01   4.5308897973e+01    0.1555428    0.1499298  47.44 4.732699e-05    1.008    0.008
       480  -8.1646     88.4871     34.5345   9.7137672822e+01   5.9431446576e+01    0.1483462    0.1429219  15.37 0.0001139692    1.058    0.055
       481  -8.9496     48.3846     33.3163   1.1535086624e+02   6.6977694848e+01    0.2650403    0.2230033 -55.95 0.0006665284    1.280    0.219
       482  -8.4053    119.1834     33.2078   8.6618333101e+01   5.2180842740e+01    0.2096211    0.1824079 -64.43 0.0004276533    1.325    0.245
       483  -8.8046     60.6235     32.6041   1.0853785597e+02   6.5253372384e+01     0.243511    0.2394971 -51.25 0.0005471657    1.198    0.165
       484  -8.5704     72.0735     31.4405   1.0251511837e+02   6.3402864136e+01    0.2601025    0.2014638 -54.81 0.0006357329    1.551    0.355
       485  -9.0812     13.0678     30.5162   1.3604543576e+02   7.0886136216e+01    0.2819968    0.1796785  82.33  0.001052235    1.999    0.500
       486  -8.1283     41.9430     30.2607   1.1772045144e+02   6.8471664028e+01    0.1859505    0.1675243 -13.42 0.0004113443    1.059    0.055
       487 -10.1993    142.8614     28.0773   7.8991387108e+01   4.6507586700e+01    0.3053018    0.2718233  23.49 0.0003286713    1.175    0.149
       488  -8.9747     81.4457     27.5762   9.6621049403e+01   6.2160621603e+01    0.2919607    0.2415127 -62.99 0.0008099386    1.574    0.365
       489  -8.7262      3.4567     27.7530   1.4172212349e+02   7.1880279661e+01    0.2335848    0.1487282  81.78 0.0009765237    1.788    0.441
       490  -8.9997     91.6314     26.3356   9.2126305141e+01   6.0068613528e+01    0.3244452    0.2382607 -49.38  0.001016526    1.605    0.377
       491  -8.2645    101.4271     29.2806   9.0168480613e+01   5.7269252329e+01    0.2057677    0.1412307 -41.87 0.0006928429    1.575    0.365
       492  -8.2570     34.6644     23.2975   1.1912615654e+02   7.0808107269e+01    0.1951183    0.1584015  69.13  0.001091074    1.812    0.448
       493  -7.9195    112.0000     21.9170   8.3652840393e+01   5.5633711245e+01    0.2373518   0.08739679 -26.84 0.0004495234    2.856    0.650
       494  -7.7478    104.4165     22.5355   8.6108465066e+01   5.7503866539e+01    0.1504474    0.1405591  29.35 0.0001288194    1.012    0.012
       495  -8.9705     63.5435     21.1739   1.0136453407e+02   6.6864594275e+01     0.320973    0.2366817 -56.89 0.0009186469    1.815    0.449
       496  -8.8773     48.2552     21.6834   1.0990303801e+02   6.9355220668e+01    0.2359725    0.2077033 -61.58 0.0006719073    1.430    0.301
       497  -7.9381     19.6134     21.7519   1.2875791480e+02   7.2511551540e+01     0.171222    0.1142009 -71.11 0.0004877466    1.617    0.381
       498  -8.9455     74.0186     19.7316   9.5718841888e+01   6.5019192800e+01    0.2975238    0.2023327 -43.54 0.0007796038    1.636    0.389
       499  -8.2073     87.9653     17.9582   8.9255952438e+01   6.2167427933e+01    0.2163225    0.1777309 -63.47  0.000473611    1.587    0.370
       500  -7.8788     38.7959     18.6207   1.1414423793e+02   7.1270876273e+01    0.1693077    0.1210632  36.17 0.0002792757    1.556    0.357
       501  -7.9991    112.8416     16.8690   8.1119853544e+01   5.6046673484e+01    0.1976288    0.1755639 -58.04 0.0003456092    1.276    0.216
       502  -8.1461     29.9847     16.0555   1.1881530109e+02   7.2821778994e+01    0.1863708    0.1603664  74.85 0.0006931117    1.700    0.412
       503  -8.1238      7.7871     15.7979   1.3545284403e+02   7.4495856745e+01    0.1536517    0.1397894  76.36 0.0005633967    1.352    0.260
       504  -7.8621     17.1923     14.1991   1.2749137054e+02   7.4337192612e+01    0.1565346    0.1463852  73.23 0.0005599207    1.383    0.277
       505  -8.8510    232.8084    247.4422   1.1240743239e+02  -2.6735182730e+00    0.1940858    0.1382526 -28.24  0.001054087    1.967    0.492
       506  -7.6386     76.3456     10.6707   8.9701281135e+01   6.5835744001e+01    0.1402524    0.1142576 -69.91 0.0007050242    1.754    0.430
       507  -8.0840    234.3489    243.3252   1.1159711313e+02  -2.4964795246e+00     0.200784    0.0719722  27.47  0.001090392    2.157    0.536
       508  -8.5108    218.6563    247.5868   1.1474994106e+02  -9.6573891528e-01     0.243293    0.1185341 -33.82  0.001410475    2.633    0.620
       509  -9.1180    175.8435    247.8035   1.2223336402e+02   4.5265373518e+00    0.2601241    0.1981037  54.60  0.001385119    1.976    0.494
       510  -8.0684    113.3620    249.0890   1.3403303093e+02   1.2614262169e+01    0.1292979   0.09594144  78.80 0.0009336646    1.870    0.465
       511  -7.6120    101.0094      8.0000   7.9980730471e+01   6.0161380956e+01    0.2362233   0.07915179  61.78 0.0004316814    2.791    0.642
       512  -9.1272    103.9056    247.0319   1.3566942680e+02   1.4098162171e+01    0.3242868    0.1828454  77.30  0.001837059    3.077    0.675
       513  -8.9131    243.0112    247.1560   1.1074162738e+02  -3.8494400075e+00    0.2518466    0.1266088 -17.69   0.00172275    2.030    0.507
       514 -10.0457    224.0624    244.1516   1.1339292695e+02  -1.3167002885e+00    0.4164747    0.2072322 -34.46  0.002567711    2.637    0.621
       515  -8.4822    156.1500    247.8280   1.2584530277e+02   7.1472901136e+00    0.1556383    0.1422886  48.22 0.0007531247    1.486    0.327
       516  -8.2770    132.0949    247.7491   1.3035271303e+02   1.0356406465e+01    0.1601056    0.1323998  54.62 0.0005831353    1.413    0.292
       517  -9.0643    147.1414    246.0612   1.2733968725e+02   8.5681690249e+00    0.2635084    0.1628826  58.85  0.001414614    2.436    0.589
       518  -8.7195    120.2266    245.4801   1.3240487854e+02   1.2215661711e+01    0.2480088    0.1471594  58.90  0.001315618    2.060    0.515
