#   1 NUMBER                 Running object number                                     
#   2 MAG_AUTO               Kron-like elliptical aperture magnitude                    [mag]
#   3 X_IMAGE                Object position along x                                    [pixel]
#   4 Y_IMAGE                Object position along y                                    [pixel]
#   5 X_WORLD                Barycenter position along world x axis                     [deg]
#   6 Y_WORLD                Barycenter position along world y axis                     [deg]
#   7 A_WORLD                Profile RMS along major axis (world units)                 [deg]
#   8 B_WORLD                Profile RMS along minor axis (world units)                 [deg]
#   9 THETA_WORLD            Position angle (CCW/world-x)                               [deg]
#  10 FWHM_WORLD             FWHM assuming a gaussian core                              [deg]
#  11 ELONGATION             A_IMAGE/B_IMAGE                                           
#  12 ELLIPTICITY            1 - B_IMAGE/A_IMAGE                                       
         1 -14.8573      3.1478    132.1202   1.4774919042e+02   4.5930571275e+01     5.560352    0.7644593 -80.20   0.01607616    6.115    0.836
         2 -13.5705    198.2308     26.7036   6.8485752755e+01   3.2196271375e+01     1.723768      1.32045   4.14  0.007131826    1.491    0.329
         3 -13.4996    213.7043      7.7818   6.1680226024e+01   3.0434800887e+01    0.9207804    0.8360624  53.41  0.004518827    1.216    0.178
         4  -9.5123     99.8428    148.8648   1.2289498104e+02   3.1686616061e+01    0.2247751    0.1893211  30.69 0.0003757219    1.156    0.135
         5 -10.9363    248.6658    249.6851   1.0891232775e+02  -4.1377487765e+00     0.293883    0.1796713  22.66  0.002283989    1.263    0.208
         6 -11.2975    244.4927    247.2939   1.0921985073e+02  -3.4769035928e+00    0.2657514    0.1294024 -17.89   0.00178733    1.991    0.498
         7 -11.4703    138.9953    249.8506   1.2752738051e+02   8.9855705480e+00    0.3276174    0.1525899  31.30  0.001959301    1.629    0.386
         8 -10.9086    139.3908    245.2182   1.2697491343e+02   9.5298552771e+00    0.1800674    0.1572228  79.45 0.0007489244    1.680    0.405
         9 -10.6355    122.0891    249.8432   1.3061953870e+02   1.1065151170e+01    0.2137964    0.0936134  38.95  0.001256136    1.695    0.410
        10 -10.6107     98.5340    249.8364   1.3495200940e+02   1.3875212152e+01    0.2030095    0.1474034  16.58  0.001489075    1.515    0.340
        11 -13.3648      8.5694    244.1717   1.5080635136e+02   2.3773160924e+01     1.258372    0.9217699  25.43   0.01060921    1.559    0.359
        12 -13.0911     47.0949    216.4251   1.4249784820e+02   2.4860862049e+01    0.8530713    0.7184932 -68.51  0.005975548    1.432    0.302
        13 -14.0489     36.5967    228.2310   1.4518276951e+02   2.3870426888e+01    0.6845449    0.4641424  48.96  0.002409014    1.110    0.099
        14 -11.0071    171.3018    248.0667   1.2151656371e+02   5.1646891272e+00     0.188975    0.1470068  22.81   0.00111945    1.113    0.101
        15 -10.9047    198.8369    247.2626   1.1663172540e+02   1.8443475199e+00     0.161469    0.1399236  -5.24  0.001341995    1.448    0.310
        16 -10.6677    187.1609    241.1823   1.1786614399e+02   3.9521305273e+00     0.147278       0.1103  33.49 0.0009312652    1.354    0.262
        17 -11.6964    152.7195    249.5641   1.2500984634e+02   7.3125697197e+00    0.3776924    0.1541926  38.05  0.002138044    1.875    0.467
        18 -12.2426     93.4032    227.9895   1.3410053409e+02   1.7737909098e+01     1.295871          nan  38.83  0.003587931    7.114    0.859
        19 -12.5292    121.0517    232.6118   1.2912680805e+02   1.3589083981e+01    0.7206016    0.1841498  33.35  0.002982036    3.140    0.682
        20 -11.5738    110.8329    231.5956   1.3101100788e+02   1.5032909202e+01    0.4233223    0.1501886  39.67  0.002131125    2.139    0.533
        21  -9.8620     54.2727    229.4314   1.4186868396e+02   2.1913323850e+01      0.21943    0.1162738  59.54  0.001135921    1.742    0.426
        22 -12.9585     33.0879    246.8724   1.4663791886e+02   2.1215312303e+01     1.296238    0.8698604 -26.64  0.008637754    3.051    0.672
        23  -9.9498    173.4010    222.4936   1.1787437585e+02   8.0116314436e+00    0.2343813    0.1482923  43.85  0.001443547    1.701    0.412
        24  -8.6259     92.4521    214.5765   1.3305573062e+02   2.0043031295e+01    0.1166952   0.09245964  43.69 0.0001258503    1.043    0.041
        25 -13.0491     31.9181    234.5676   1.4634205407e+02   2.3266340424e+01    0.2559779    0.2262248  61.83 0.0007836511    1.228    0.186
        26  -8.7296    152.5028    213.0039   1.2060378990e+02   1.2214178838e+01    0.1425013    0.1179076 -35.21 -0.0001381436    1.441    0.306
        27 -12.3438      9.8887    206.9534   1.4946670867e+02   2.9936395655e+01     0.603627    0.3448628  21.76  0.002779226    1.976    0.494
        28 -10.8162     59.7671    208.2588   1.3934483014e+02   2.4982226228e+01    0.3018914    0.1261711  52.20  0.001556054    2.192    0.544
        29 -11.8506     59.0337    200.3222   1.3889272509e+02   2.6521769584e+01    0.2260548      0.21771  79.11 0.0005125572    1.211    0.174
        30 -10.5914     11.9954    195.6331   1.4862604026e+02   3.1874816216e+01     0.383746    0.1284698  42.76  0.002081197    2.169    0.539
        31  -9.2720    191.9940    193.4687   1.0994725986e+02   9.2193903375e+00    0.2333779    0.1447251 -63.57 0.0008096499    6.675    0.850
        32 -11.1348     32.4974    191.0061   1.4402865897e+02   3.1002832518e+01    0.5861965    0.1491394  60.06  0.001866075    6.088    0.836
        33 -12.0459     65.6006    191.6986   1.3671471597e+02   2.7423544530e+01    0.2280347    0.2222462  50.55 0.0005287934    1.186    0.157
        34 -13.6778     10.0538    156.9444   1.4730675976e+02   3.9919342542e+01     2.086182     0.739741  75.86   0.00901795    3.073    0.675
        35 -11.4865    237.9341    247.7383   1.1030126794e+02  -2.7881566253e+00    0.2931793    0.1809974  -9.79  0.002228815    1.447    0.309
        36 -12.0552     85.2485    152.2433   1.2727178605e+02   3.3086940114e+01    0.2886089    0.2394507 -39.22 0.0008254513    1.353    0.261
        37 -12.0295     67.4891    143.5606   1.3082272870e+02   3.7377647883e+01    0.6695318    0.3900679  55.57  0.003150122    1.858    0.462
        38  -9.5532     97.4173    174.5016   1.2736936344e+02   2.6744354038e+01    0.2433892    0.1773595  53.34 0.0007377358    1.361    0.265
        39 -10.2069    108.9736    137.6704   1.1845672252e+02   3.2641570210e+01    0.4456704    0.2893878 -15.34  0.001666604    2.451    0.592
        40 -10.7644     29.2113    130.4297   1.4018593955e+02   4.4476623954e+01    0.3053061    0.1826214  51.95 0.0009025512    1.646    0.393
        41 -11.8639     20.9218    125.9303   1.4220008920e+02   4.6204214912e+01    0.6430978    0.1739667  42.01  0.002538374    3.321    0.699
        42 -10.5702     95.8645    135.2034   1.2155856188e+02   3.5286935872e+01    0.2318648    0.2141721 -19.91 0.0002726479    1.166    0.142
        43  -8.9488    106.2677    124.1178   1.1644769347e+02   3.6053636605e+01    0.1833524    0.1785379 -59.44 0.0003125028    1.060    0.057
        44  -8.9060     41.4369     96.4596   1.3166406386e+02   5.1653573155e+01    0.2373444    0.1053947  39.42  0.000714467    2.357    0.576
        45 -10.5396    158.0979     76.3671   9.0310044415e+01   3.4991043390e+01    0.2610362     0.209235 -16.26 0.0005560336    1.269    0.212
        46 -12.1211     84.1989    168.9185   1.2984752829e+02   2.9685535128e+01    0.7127017    0.6142825  -1.23  0.004440931    1.390    0.281
        47 -13.1564     62.6715    176.7417   1.3597913273e+02   3.0743284739e+01    0.4645852    0.2620306 -44.28  0.001592239    2.318    0.569
        48 -11.5164      5.4536     51.0896   1.3855399630e+02   6.5424250447e+01    0.5176779    0.1704632  29.89  0.001957791    3.373    0.704
        49 -10.2343    225.7661    249.6175   1.1248797806e+02  -1.5796032665e+00    0.1430488   0.07462185  33.95  0.000953372    1.676    0.403
        50 -11.4025     48.6085    248.0671   1.4393414229e+02   1.9544651057e+01    0.3794821     0.247162  18.36  0.002709302    1.872    0.466
        51 -10.9230     76.3279    178.4266   1.3289495722e+02   2.8758358560e+01    0.2199105    0.1999129  50.98 0.0003131022    1.038    0.037
        52 -10.5568     96.6389    153.2941   1.2445498950e+02   3.1222130962e+01     0.322403    0.2922081 -19.81 0.0009843943    1.234    0.190
