#   1 NUMBER                 Running object number                                     
#   2 MAG_AUTO               Kron-like elliptical aperture magnitude                    [mag]
#   3 X_IMAGE                Object position along x                                    [pixel]
#   4 Y_IMAGE                Object position along y                                    [pixel]
#   5 X_WORLD                Barycenter position along world x axis                     [deg]
#   6 Y_WORLD                Barycenter position along world y axis                     [deg]
#   7 A_WORLD                Profile RMS along major axis (world units)                 [deg]
#   8 B_WORLD                Profile RMS along minor axis (world units)                 [deg]
#   9 THETA_WORLD            Position angle (CCW/world-x)                               [deg]
#  10 FWHM_WORLD             FWHM assuming a gaussian core                              [deg]
#  11 ELONGATION             A_IMAGE/B_IMAGE                                           
#  12 ELLIPTICITY            1 - B_IMAGE/A_IMAGE                                       
         1 -14.8881     68.4045    144.4012   1.0426468426e+02   3.7196017929e+01     4.848787     2.553711  77.15  0.005686611    4.306    0.768
         2 -13.9046    225.5606     17.9057   3.6849055099e+01   2.7654764825e+01    0.9708807    0.8489456  35.06  0.002628032    1.466    0.318
         3 -12.6993    216.4358     27.2396   3.9937287034e+01   2.8619857820e+01    0.5760828     0.449329  40.34  0.001146047    1.579    0.367
         4 -13.6216    200.1460     40.4584   4.5192485378e+01   3.0739553054e+01     1.273563     1.025165  15.49  0.003937026    1.593    0.372
         5 -13.8030    208.5940     34.7871   4.2679217284e+01   2.9495972591e+01     1.350148     1.118126 -23.31  0.006509114    1.317    0.241
         6  -9.3267    130.9704      9.4874   4.6189096707e+01   5.0660581040e+01    0.1809059    0.1091423 -82.83 0.0008093558    2.468    0.595
         7 -11.1013    247.5989      1.7066   3.1671931450e+01   2.4727511509e+01    0.4499736    0.1491232  77.22  0.002047006    3.027    0.670
         8  -9.9227      2.4724      2.4791   8.8069548794e+01   7.3871466416e+01    0.1132137    0.0793057 -18.17 8.703154e-05    1.003    0.003
         9  -9.5847    110.1356    194.1957   1.0210748801e+02   1.9407531060e+01    0.1862971     0.152686  79.89 0.0005323472    1.340    0.254
        10 -15.2250      3.5839    179.2837   1.2414179524e+02   3.5490875933e+01     8.705705     0.189331 -75.02  0.001561202   14.479    0.931
        11 -13.4261     20.1337    221.0200   1.2367919738e+02   2.5173368779e+01    0.6850903    0.4573785  74.59  0.001991777    1.205    0.170
        12 -13.3913     33.6576    206.4553   1.2005430730e+02   2.6808842994e+01    0.5981091    0.4764494 -42.24  0.001076485    1.739    0.425
        13 -16.1071     39.4793    193.2300   1.1769907310e+02   2.9063632124e+01     7.376766     3.108814  65.41   0.03101107    3.073    0.675
        14  -9.4464     99.3465    180.9395   1.0253155417e+02   2.4016410302e+01    0.1929747    0.1698234 -61.09  0.000539708    1.126    0.112
        15 -12.0918     61.4215    178.8701   1.1120145402e+02   2.9797415043e+01    0.4466795    0.2837685 -36.69  0.002217615    2.183    0.542
        16 -11.9381     66.5666    173.4944   1.0926781939e+02   3.0404494722e+01    0.3151281    0.2523794 -41.91  0.001482543    1.442    0.307
        17 -15.8172      8.7136    239.7285   1.2670083936e+02   2.2663016701e+01     2.191115     2.088362  84.02   0.01917191    1.493    0.330
        18 -14.7440      9.3343    207.4208   1.2483970133e+02   2.8952128862e+01     1.160596     1.001013 -11.34  0.007942816    1.868    0.465
        19 -10.7144    119.6412    174.2495   9.6551949899e+01   2.2228455269e+01    0.2820174    0.1698812  48.40  0.001276846    1.737    0.424
        20 -13.5453     63.7524    159.7583   1.0798863189e+02   3.4045128407e+01    0.6330246    0.4074556 -40.53  0.001716492    1.823    0.451
        21 -11.7548     76.4766    163.7804   1.0538794169e+02   3.1389397518e+01    0.3183069     0.302607  -1.99 0.0004307795    1.244    0.196
        22 -13.2402     82.9001    157.5445   1.0271614134e+02   3.1976742270e+01     1.143639     1.043598 -74.25  0.001155634    1.016    0.016
        23 -11.1918    139.2673    247.8957   1.0350844005e+02   4.8452870234e+00    0.3537511    0.1582265 -46.61  0.001771476    2.638    0.621
        24  -9.8860    158.4307    161.5737   8.4885676818e+01   1.7934150060e+01    0.3393539    0.2505403 -82.91   0.00148216    2.189    0.543
        25 -11.2272    193.2825    195.2034   8.4274109923e+01   5.1172482427e+00    0.8211297    0.4253857 -61.14  0.002433586    6.114    0.836
        26 -11.3958     32.2467    144.4004   1.1398131232e+02   4.1253404184e+01    0.3451199    0.3124556  79.21  0.002230158    1.154    0.133
        27 -11.0710     97.8499    143.1678   9.6040839528e+01   3.3143353700e+01    0.3236886    0.3015371 -28.70 0.0008754494    1.127    0.113
        28 -10.0899    100.7167    140.0180   9.4605318274e+01   3.3427558885e+01    0.3315011    0.2419843 -20.47  0.001532609    1.771    0.435
        29 -12.3605     86.0384    141.5404   9.8913346023e+01   3.5398120035e+01    0.3135334    0.2532066 -47.51 0.0003834386    1.184    0.156
        30  -9.8469    159.1400    135.3108   7.8668094943e+01   2.3373916273e+01    0.2851586    0.2157082 -52.08 0.0006176176    1.386    0.278
        31 -11.0409     25.9334    134.7124   1.1438387740e+02   4.4177967429e+01    0.2700194    0.1979151  55.64  0.001198116    1.521    0.343
        32 -11.0770    107.4720    131.2588   9.0811751031e+01   3.4358753785e+01    0.5486569    0.3786667  37.61  0.002564504    1.539    0.350
        33 -15.5977     64.5107    248.1605   1.1755885410e+02   1.5058068634e+01     9.024707     2.553181  28.69  0.008621098   10.151    0.901
        34 -12.3792     67.1288    127.4207   1.0143124320e+02   4.1550511100e+01     0.626235    0.3350728 -69.05  0.002654123    2.026    0.506
        35  -9.5174    175.0115    149.4587   7.8457759840e+01   1.7198041230e+01    0.2257527    0.1490478  41.59 0.0004980036    1.570    0.363
        36 -10.9125     96.6356    127.5498   9.2962836396e+01   3.7105124601e+01    0.3112897    0.2521798 -13.77 0.0007604798    1.464    0.317
        37 -10.7324    133.8171    144.7476   8.7031246779e+01   2.6351030425e+01     1.130839    0.2516676 -53.42  0.002236072    7.925    0.874
        38  -9.0140    125.6996    127.3377   8.4974366634e+01   3.1887817651e+01     0.155586    0.1244951 -85.91 0.0003199172    1.663    0.399
        39 -10.6088    116.0347    125.6312   8.7131137548e+01   3.4123667267e+01    0.3106484    0.2232531 -39.93  0.001275885    1.345    0.257
        40  -9.8489    106.4023    120.0140   8.8396170708e+01   3.7201331437e+01      0.22568    0.2047034   3.09 0.0005609781    1.187    0.157
        41 -10.0474     81.9181    116.4082   9.4636127342e+01   4.2136212403e+01    0.3862511    0.2269704  63.72  0.001461692    2.953    0.661
        42  -9.4200    168.0765    113.0668   7.0930965872e+01   2.6086400772e+01    0.2528188    0.1954024 -75.71  0.001130531    1.792    0.442
        43 -10.0096    205.4037    110.3601   6.2732926914e+01   1.8456026141e+01    0.2846042    0.2313927  43.49 0.0008914693    1.338    0.253
        44 -10.4752    138.1789    170.7214   9.1482209182e+01   1.9751359583e+01    0.2794777    0.1789051  43.02  0.001290291    1.572    0.364
        45  -9.1697     58.6678     94.2718   9.6556065272e+01   5.0633428518e+01     0.131308    0.1090878  77.23 0.0001672595    1.592    0.372
        46 -10.9408     53.2743     90.7153   9.7477184594e+01   5.2118173779e+01    0.3212277    0.1810884 -57.56  0.001514102    1.621    0.383
        47  -9.6731     41.6457     92.0412   1.0181474501e+02   5.3087869833e+01    0.1948539    0.1461368 -50.95 0.0005014904    1.102    0.092
        48  -9.5569    250.2813     87.6684   5.0359310521e+01   1.3063336627e+01    0.1376756   0.08998364 -55.94 0.0002947875    1.609    0.378
        49 -14.5365     85.7804    228.9666   1.1175880031e+02   1.5878933849e+01     2.209875     1.371938  43.49  0.008821975    1.424    0.298
        50  -9.5273     72.0238     83.2322   8.8965268819e+01   5.1298438543e+01    0.2151733    0.1636488  66.76  0.000894435    1.991    0.498
        51  -9.0963    160.3136     82.3054   6.3991757648e+01   3.3759039164e+01     0.155689    0.1191135  11.26 0.0004935184    1.620    0.383
        52  -9.1388     89.5870     64.8304   7.7123251300e+01   5.2133959250e+01     0.198024    0.1301339 -48.45  0.000474247    1.657    0.397
        53  -9.0532     58.2448     61.2241   8.6838580578e+01   5.7858057648e+01     0.195736    0.1028755  43.33 0.0008728377    2.418    0.586
        54  -9.1699     46.4528     61.5400   9.1482882682e+01   5.9297054758e+01    0.1345761    0.1118775 -31.07 0.0001366948    1.029    0.028
        55 -10.2665     13.4053     60.2132   1.0449956753e+02   6.2581260228e+01     0.218309    0.1727417 -52.33 0.0004736308    1.129    0.114
        56 -10.7948    170.1003    231.3372   9.5180775382e+01   2.8294794360e+00    0.2657371    0.1665048 -44.79  0.001329802    1.814    0.449
        57 -14.1071     31.6513    247.9800   1.2329786388e+02   1.8856509258e+01     1.558028    0.9915407  16.23  0.009373812    2.839    0.648
        58 -12.1574    183.6183    215.5780   8.9926742341e+01   3.2579502628e+00    0.4021292    0.2775424 -34.31  0.002257708    1.505    0.336
        59  -9.9349    113.1387    207.5621   1.0342095570e+02   1.6147438931e+01    0.2177651    0.1739843 -77.99 0.0005585516    1.385    0.278
        60  -9.4106     50.2826     45.6526   8.4262843372e+01   6.1862664868e+01    0.2297356    0.1911054 -50.51  0.001190292    1.494    0.331
        61 -11.4799     46.5003     42.1742   8.4451608781e+01   6.2972302159e+01    0.5098916     0.321573 -14.10  0.002022176    1.649    0.393
        62 -11.0481     43.2739     38.1437   8.4188635047e+01   6.4080299656e+01    0.3162285    0.2565771 -41.23  0.001177025    1.377    0.274
        63 -10.4003    136.6715     43.0096   5.6669760719e+01   4.5605374054e+01     0.247049    0.2008034 -82.81 0.0007053393    1.562    0.360
        64  -9.7830    138.8253     37.0026   5.4178979659e+01   4.5884101980e+01    0.2288739    0.1955204  64.37 0.0004829201    1.200    0.166
        65 -10.1707    189.8064     15.1734   3.9702240865e+01   3.6082322185e+01    0.1979302    0.1644329 -68.47 0.0007071861    1.159    0.137
        66  -9.9351    209.8661    199.8599   8.1910208996e+01   1.5849858211e+00    0.1647307    0.1583947   9.58 0.0003444036    1.306    0.234
        67 -10.3742     61.0690    199.1127   1.1366181819e+02   2.5267919438e+01    0.2175307    0.1623839  84.29 0.0004989543    1.255    0.203
