#   1 NUMBER                 Running object number                                     
#   2 MAG_AUTO               Kron-like elliptical aperture magnitude                    [mag]
#   3 X_IMAGE                Object position along x                                    [pixel]
#   4 Y_IMAGE                Object position along y                                    [pixel]
#   5 X_WORLD                Barycenter position along world x axis                     [deg]
#   6 Y_WORLD                Barycenter position along world y axis                     [deg]
#   7 A_WORLD                Profile RMS along major axis (world units)                 [deg]
#   8 B_WORLD                Profile RMS along minor axis (world units)                 [deg]
#   9 THETA_WORLD            Position angle (CCW/world-x)                               [deg]
#  10 FWHM_WORLD             FWHM assuming a gaussian core                              [deg]
#  11 ELONGATION             A_IMAGE/B_IMAGE                                           
#  12 ELLIPTICITY            1 - B_IMAGE/A_IMAGE                                       
         1 -14.1929     70.5307    147.6026   4.7841986307e+01   3.6075338591e+01      3.94103     1.964703  87.09  0.002439158    4.683    0.786
         2 -13.5212    227.3717     47.4068   3.5244142874e+02   2.5900917616e+01    0.7973484    0.7727325 -43.49  0.003226606    1.388    0.280
         3  -9.6144    227.3282      9.6358   3.4462801396e+02   3.0246151656e+01    0.1924919    0.1527878 -54.82 0.0006971773    1.147    0.128
         4 -10.3320      2.3186      4.4026   3.9444278907e+01   7.9110127726e+01    0.4810368    0.1062702 -51.61  0.001677715    4.726    0.788
         5 -10.2752    188.8923      2.4629   3.4495953283e+02   3.8368355200e+01     0.392241    0.1083261 -58.81  0.001589835    3.326    0.699
         6  -8.4066    198.2382    240.9705   3.2398841653e+01   6.3317711597e-01    0.1315698   0.07861813 -35.05 0.0003729183    1.558    0.358
         7  -9.6091     74.9980    248.7538   5.8664630811e+01   1.2344122948e+01    0.3004823    0.1447907 -50.22  0.001504484    2.445    0.591
         8 -10.8433     27.6534    249.6489   6.9511170895e+01   1.6803056864e+01    0.2409624    0.1972997   5.42 0.0007061904    1.394    0.283
         9 -13.0329     37.8837    152.0994   5.9349036168e+01   3.8958655961e+01     2.340261    0.8100696  16.81  0.002783889    3.565    0.720
        10 -12.5421     53.6726    218.2975   6.1275285692e+01   2.0763023281e+01     1.287003    0.8918773 -63.47  0.001029524    1.599    0.375
        11 -15.1576     38.7507    172.6960   6.1313679656e+01   3.3358331392e+01     12.48491     5.415842  76.81    0.0420831    3.462    0.711
        12 -14.8116     10.0815    206.4143   7.1820512892e+01   2.7576429752e+01     1.341809    0.9141646  37.93   0.00526663    1.262    0.208
        13 -10.9268    103.5708    238.6345   5.1193881401e+01   1.1099982498e+01    0.2785546    0.2349289 -47.73  0.001049201    1.367    0.268
        14  -9.6801    163.8733    237.3422   3.8234387484e+01   4.6204482379e+00    0.1705996     0.149941 -23.71 0.0005281104    1.284    0.221
        15 -10.0175     58.9556    231.9841   6.1071280029e+01   1.7298782016e+01    0.5663665     0.180136 -62.85  0.002358461    3.286    0.696
        16  -9.4449     54.1081    237.8662   6.2680097106e+01   1.6605495026e+01    0.1873737    0.1571727  35.48  0.001231662    1.011    0.011
        17 -11.5052     54.7954    231.5343   6.2045670710e+01   1.7824744714e+01     0.352171    0.2279544 -80.04 0.0007514294    1.804    0.446
        18 -12.6177    107.4069    229.4740   4.9290615218e+01   1.2362672695e+01    0.8897107    0.4002531  24.73  0.004174178    1.974    0.493
        19 -13.3798    129.4339    230.0924   4.4413643397e+01   9.6749320246e+00     1.298797    0.6040859  27.63  0.006457995    1.869    0.465
        20 -11.9146     96.7914    225.8289   5.1358033122e+01   1.4310665905e+01    0.6874191    0.4763294  28.85  0.003967721    1.247    0.198
        21 -10.3817    164.1517    221.9928   3.6034954191e+01   7.0366547724e+00    0.4888423    0.1586244 -53.21  0.001830946    4.440    0.775
        22 -10.0856     72.8071    233.1041   5.7827620829e+01   1.5587507355e+01    0.2368821    0.2106628  80.68 0.0007461128    1.289    0.224
        23  -9.0532     72.6100    225.0909   5.7135432703e+01   1.7241672010e+01    0.2124621    0.1517883  36.40 0.0004599345    1.211    0.174
        24 -10.0451    174.9984    223.0301   3.4071741434e+01   5.6485435308e+00    0.1865064    0.1480923  -8.33 0.0006293307    1.029    0.028
        25 -12.0387     84.1889    222.2659   5.4009065131e+01   1.6503316458e+01     1.347686     0.277732  34.16  0.004604197    3.434    0.709
        26  -9.0088     32.4288    222.0608   6.6920828226e+01   2.2065028935e+01    0.2044438    0.1615588  18.00 0.0006423406    1.282    0.220
        27  -9.9554     47.1197    229.2723   6.3752635416e+01   1.9079900987e+01    0.2137913    0.1666855  69.13 0.0008787333    1.323    0.244
        28  -9.4171     95.4663    209.0457   4.9696025479e+01   1.7904793991e+01    0.3271035    0.1978106  88.55  0.001425221    2.820    0.645
        29 -10.5879     73.0106    207.2069   5.5222567852e+01   2.1052770423e+01    0.4144668    0.2557097 -53.11  0.001689676    1.756    0.431
        30  -8.1041    225.6571    207.7307   2.2972713362e+01   2.5723794887e+00    0.1120716   0.06719137 -10.01 0.0004042938    1.609    0.379
        31  -9.6397    210.7698    198.7756   2.3921498108e+01   5.4302156081e+00    0.2121183    0.1602209 -16.61 0.0005421673    1.050    0.048
        32 -11.3723    112.6415    195.9823   4.3646693737e+01   1.8441607697e+01    0.4743868     0.247184   6.00  0.001762303    3.202    0.688
        33 -10.2806     69.2411    194.0283   5.4758131378e+01   2.4540013047e+01    0.4233938    0.2830224  48.16  0.001998264    1.461    0.316
        34 -11.0415     66.2270    187.8226   5.4870833744e+01   2.6395458071e+01     0.331345    0.2419146 -88.29 0.0006061696    1.548    0.354
        35 -10.8124    119.4948    188.8412   4.0872006336e+01   1.9015149020e+01    0.2378589    0.1866486   0.14  0.001291822    1.349    0.259
        36  -8.5540    236.1574    185.7985   1.7886828908e+01   4.5873758670e+00    0.1525296   0.09970193 -18.92  0.000383598    1.297    0.229
        37 -10.0572    129.3401    185.8277   3.8009596047e+01   1.8252727729e+01    0.3091215    0.1608516   7.66  0.001102008    3.451    0.710
        38  -8.8585     78.4464    184.8959   5.1075908948e+01   2.5554268563e+01    0.2103326     0.141914 -67.24  0.001024666    1.593    0.372
        39 -11.3578    116.7051    180.9793   4.0301187504e+01   2.1116614389e+01    0.5270621    0.2794468 -21.59  0.001861091    3.473    0.712
        40 -11.1785    179.6340    167.3531   2.3950159135e+01   1.4567026072e+01    0.5684353     0.355496 -27.46  0.002333069    1.588    0.370
        41 -10.1342     99.9963    170.0429   4.2875823715e+01   2.6084698732e+01    0.2379652    0.1734837  63.81 0.0009917115    1.694    0.410
        42 -11.5479     79.9674    144.4944   4.4278162914e+01   3.5483535596e+01    0.7673908    0.5431818   6.55  0.003214309    1.796    0.443
        43 -10.8629    125.1602    246.3115   4.7297806707e+01   7.3652496901e+00    0.5068731    0.1673437 -56.04  0.002187725    3.693    0.729
        44 -11.4800     56.0915    160.5615   5.4456439221e+01   3.4579327429e+01     0.448956     0.324638 -16.34  0.002100896    1.766    0.434
        45 -11.4077     61.4438    156.7090   5.2206080627e+01   3.4916626406e+01    0.4747163    0.3818162   8.75 0.0009750302    1.388    0.280
        46  -9.1390    110.7580    167.1250   3.9479460593e+01   2.5133027641e+01    0.2088124    0.1955353  74.89 0.0004925613    1.185    0.156
        47 -14.5840     15.3127    163.1092   6.7844630090e+01   3.8062135910e+01     4.318562     1.594907  78.04   0.01441282    3.452    0.710
        48 -10.1778    134.0348    146.3780   2.9563516933e+01   2.6002596528e+01    0.9764624    0.2901745 -56.30  0.002548596    5.240    0.809
        49 -10.2892    109.0110    145.3516   3.5835868921e+01   3.0536876830e+01    0.2757282    0.2651832  39.58 0.0006036726    1.053    0.050
        50 -12.0249     34.4481    139.8720   5.9032832001e+01   4.2685448886e+01    0.7336476    0.3372072  59.36  0.001578918    2.715    0.632
        51 -15.1282     25.2242    179.4073   6.6000392190e+01   3.2934112739e+01     6.172273     3.060947  72.56   0.01595446    2.240    0.554
        52 -10.4754     36.2562    124.9819   5.6260770897e+01   4.6638643341e+01    0.3003339    0.2364012  35.62 0.0003953107    1.278    0.218
        53 -12.2408     44.6801    134.3291   5.4544522866e+01   4.3085041360e+01     0.817852    0.5632603 -62.81   0.00228355    1.400    0.286
        54 -10.9503     34.2758    129.1378   5.7638100929e+01   4.5691410892e+01    0.9217011    0.3212263  58.22  0.002288739    5.665    0.823
        55 -10.7543     74.2837    136.0129   4.4516317107e+01   3.8568687518e+01    0.4908917    0.3754328  62.54  0.001969554    1.445    0.308
        56 -13.4010     13.0118    244.6994   7.2617670649e+01   1.9041366510e+01     1.549328    0.5179007 -53.54  0.006373444    4.317    0.768
        57 -10.3782     96.3127    133.8894   3.7115149553e+01   3.5503348061e+01    0.5398382    0.3932599 -16.58  0.002390544    1.849    0.459
        58  -8.2737    152.4158    133.5880   2.2622071811e+01   2.5475664661e+01    0.1407336    0.1288591 -30.77 4.493642e-05    1.046    0.044
        59  -9.7491    105.6839    130.4698   3.3612976316e+01   3.4685061327e+01    0.4018515     0.284502 -52.36  0.001170184    1.386    0.278
        60  -9.3455    107.8701    126.0907   3.1996753977e+01   3.5333612987e+01    0.3016259    0.2476453   7.18 0.0008646157    1.474    0.321
        61  -9.5020     73.8662    130.0605   4.3482742690e+01   4.0197619551e+01    0.2437704    0.2048657  76.70 0.0006098264    1.297    0.229
        62 -14.6941      5.7389    230.8503   7.3824607665e+01   2.2477463560e+01     1.907021     1.097424  85.81   0.01095751    1.768    0.434
        63  -8.1132    219.3025    126.6665   9.5964277973e+00   1.5693145375e+01    0.1204056   0.08388817 -58.64 0.0006085623    1.658    0.397
        64 -11.4472     83.2109    131.7319   4.0741923210e+01   3.8260568360e+01    0.3037821    0.2877778 -53.51 0.0004040042    1.055    0.052
        65 -15.1194      5.0933    214.9655   7.3437350323e+01   2.6002599800e+01     3.031142     1.081182  18.96   0.01288021    2.742    0.635
        66 -10.0206     48.9713    122.9916   5.1050539512e+01   4.5678964740e+01    0.2289068     0.224312 -69.68 0.0003421062    1.034    0.033
        67 -10.5656     94.2981    121.0900   3.4876694170e+01   3.9026808952e+01    0.3496565    0.2884859 -25.81 0.0007322523    1.388    0.280
        68  -9.1688    114.8391    121.2009   2.8905827486e+01   3.5172547890e+01    0.2124423    0.1824099 -13.21  0.001067819    1.360    0.265
        69 -11.9811     27.7121    118.8553   5.8717783667e+01   4.9224820693e+01    0.6402279    0.3871163  22.76  0.001948929    1.715    0.417
        70  -8.6878     76.3063    120.6742   4.0665153543e+01   4.2255618080e+01     0.161346    0.1192788  71.98 0.0005063601    1.649    0.394
        71 -11.1533    244.0756    114.6490   4.2358172265e+00   1.3994176145e+01    0.3071797    0.1591829 -50.16  0.001700734    1.798    0.444
        72  -9.4812    105.0610    115.9623   3.0402412809e+01   3.8261887535e+01    0.2211171    0.2170828 -62.19 0.0003006839    1.015    0.015
        73  -9.9353     32.6798    108.5399   5.4991615120e+01   5.1591429354e+01    0.4163187   0.09280338 -61.33  0.001225965    3.464    0.711
        74  -9.3542     33.1708    100.6562   5.3307197546e+01   5.3702447406e+01    0.2968677     0.111861 -69.85  0.001001958    2.721    0.633
        75 -11.4001     53.6879     89.2938   4.1661215344e+01   5.3995131483e+01    0.6025558    0.2544301 -65.83  0.002018455    2.908    0.656
        76  -9.4634    242.3453     94.3155   5.4367824947e-01   1.7148310736e+01    0.1073862   0.08188191 -12.10 0.0006610348    1.717    0.418
        77  -8.3470     85.8374     94.5661   3.0827433574e+01   4.7042040376e+01    0.2060558    0.1436775  53.78 0.0003121904    1.527    0.345
        78 -13.0512     58.4704    144.3256   5.1283548298e+01   3.8616371412e+01    0.9916696     0.701245  -7.79 0.0008330819    1.857    0.461
        79  -9.7444     46.8395     80.4065   4.2238656959e+01   5.7263630214e+01    0.2621153    0.1727194 -52.29  0.001206752    1.474    0.321
        80  -9.0573     60.5540     79.5142   3.5931475144e+01   5.5282761406e+01    0.1490716    0.1450381  81.95 -6.848342e-06    1.052    0.049
        81  -9.3605     91.2062     66.8433   2.0395798767e+01   5.1970944562e+01    0.2482153    0.1978526  65.83 0.0005334307    1.315    0.239
        82 -10.4214     87.3608     62.8927   2.0260976092e+01   5.3586267551e+01    0.4022196    0.2739202 -88.67  0.001172193    2.283    0.562
        83 -10.5168      2.0056     56.9868   6.0839343082e+01   6.7763246265e+01    0.4308132    0.2448828 -74.08  0.001979928    1.740    0.425
        84 -12.1685      8.5506     60.7370   5.7548046445e+01   6.6429322813e+01     1.115613    0.6523786  70.40  0.004876551    2.394    0.582
        85 -10.5187     13.3362     60.0260   5.4425329396e+01   6.6246461532e+01    0.2811223    0.2344171 -58.99  0.000600288    1.151    0.131
        86 -11.9607    203.4369     62.5139   3.5790984933e+02   2.8224974717e+01     0.419343    0.3471322  86.56 0.0008533386    1.301    0.231
        87 -13.2228    213.8029     56.0359   3.5543146439e+02   2.7195105275e+01    0.8958749    0.8236105 -42.21  0.003626419    1.272    0.214
        88  -9.7322    101.5741    246.8047   5.2495872095e+01   9.8525449540e+00    0.1964692    0.1134344 -51.93 0.0009582018    1.983    0.496
        89  -9.8864     68.0059     60.5083   2.6407426787e+01   5.8122146263e+01    0.2276095    0.1417166  43.40  0.001026175    1.570    0.363
        90 -11.4572     17.1197     64.9952   5.3451812991e+01   6.4685262564e+01     2.289665          nan  25.37  0.004328902   10.910    0.908
        91  -9.6075     30.2864     50.9599   4.1243854060e+01   6.6563489816e+01    0.2468822    0.1899607  36.52 0.0003210258    1.324    0.245
        92  -8.4995     44.5205     50.5126   3.3200123425e+01   6.4514152884e+01    0.1392287    0.1347984  20.12 0.0002017945    1.038    0.037
        93  -9.6565      7.9405     41.6450   5.2633570650e+01   7.1060502519e+01    0.1806367    0.1605007   3.93 0.0004713446    1.116    0.104
        94 -10.5232      3.9333     39.3529   5.4873752506e+01   7.1878032448e+01    0.2707211    0.1740107 -51.19  0.001465144    1.403    0.287
        95  -9.7776     18.4547     36.4881   4.3078098654e+01   7.1176906758e+01    0.2384154     0.124758  11.32  0.001035256    2.310    0.567
        96  -8.6178     93.4415     34.7834   7.7914437187e+00   5.6929905498e+01    0.1811178      0.13919 -15.01 0.0009371903    1.632    0.387
        97  -9.4967    246.9752     32.8189   3.4822825769e+02   2.4366026238e+01    0.1865746   0.08526762 -63.41  0.001092317    2.034    0.508
        98  -9.6999      3.1512     31.6601   5.2849349873e+01   7.3658491130e+01    0.2604015   0.09406765  26.37 0.0009104861    2.616    0.618
        99  -9.4186    250.6176     24.9273   3.4653175068e+02   2.4667384500e+01    0.2649979    0.0343495 -40.29  0.001137171    3.263    0.694
       100  -9.7587      2.1868     22.6624   5.0016415326e+01   7.5650105765e+01    0.2052252    0.1701164 -67.82 0.0006448738    1.403    0.287
       101  -9.4177     60.7589     21.2666   1.2000436875e+01   6.6347644925e+01    0.2202306    0.1951881  80.21 0.0005950251    1.229    0.187
       102  -9.3808     32.7761     15.2032   2.2042088624e+01   7.2878197796e+01    0.1980247    0.1013238 -25.58 0.0008796405    2.503    0.600
       103 -10.8918     42.9387    244.8096   6.5759669215e+01   1.6330296811e+01    0.1924666      0.16353  50.93 0.0003395358    1.109    0.099
       104  -8.2257     36.6533    243.0419   6.7116068360e+01   1.7276726357e+01    0.1853898   0.06242108 -49.30 0.0007041447    4.335    0.769
