#   1 NUMBER                 Running object number                                     
#   2 MAG_AUTO               Kron-like elliptical aperture magnitude                    [mag]
#   3 X_IMAGE                Object position along x                                    [pixel]
#   4 Y_IMAGE                Object position along y                                    [pixel]
#   5 X_WORLD                Barycenter position along world x axis                     [deg]
#   6 Y_WORLD                Barycenter position along world y axis                     [deg]
#   7 A_WORLD                Profile RMS along major axis (world units)                 [deg]
#   8 B_WORLD                Profile RMS along minor axis (world units)                 [deg]
#   9 THETA_WORLD            Position angle (CCW/world-x)                               [deg]
#  10 FWHM_WORLD             FWHM assuming a gaussian core                              [deg]
#  11 ELONGATION             A_IMAGE/B_IMAGE                                           
#  12 ELLIPTICITY            1 - B_IMAGE/A_IMAGE                                       
         1 -15.9777    239.0110     90.6390   1.8825191439e+01   1.5556383552e+01     3.215026      1.46372 -32.53   0.01611605    1.769    0.435
         2 -11.7062    168.9625     37.8331   1.3765498999e+01   3.7642823401e+01    0.4446672    0.1755084 -39.16  0.001750715    2.215    0.549
         3 -11.2690    156.1103     16.7037   8.5901374301e+00   4.3439330851e+01    0.3681741    0.1961337 -35.47  0.001291694    1.751    0.429
         4 -11.1560    148.1486     14.9184   8.9192100857e+00   4.5706395117e+01    0.3104576    0.2438521 -36.54 0.0009893702    1.269    0.212
         5 -10.3896    135.2966     14.8459   1.0575407201e+01   4.9120894333e+01    0.2752184    0.1018697 -34.18 0.0008974791    2.475    0.596
         6 -10.6730    142.8020     11.7045   8.4332392162e+00   4.7447355665e+01    0.2819775    0.1699334 -42.22 0.0009716517    1.585    0.369
         7 -10.4123    126.3829     12.2598   1.0879611322e+01   5.1776610688e+01    0.2070803    0.1202874 -39.08 0.0009465368    1.697    0.411
         8 -12.2697     90.0245     11.2341   1.7522898885e+01   6.1555621163e+01    0.3705921    0.1966838 -44.07  0.001595154    2.055    0.513
         9 -10.3319    118.3293     10.6803   1.1504518851e+01   5.4100465177e+01     0.233964    0.1461275 -62.37 0.0007286188    1.750    0.428
        10 -10.5995    160.8345      9.2859   5.6560410817e+00   4.2980897468e+01    0.2406579    0.1620904 -41.05 0.0009103144    1.381    0.276
        11 -10.5487    155.4151      9.6983   6.3266862679e+00   4.4337899279e+01     0.241209    0.1210235 -31.28 0.0007532293    1.895    0.472
        12 -10.4604    133.4199      9.7693   8.9122047435e+00   5.0137547207e+01    0.2570288    0.1220947 -32.08 0.0007898276    2.038    0.509
        13 -11.6778     76.8085      9.7942   2.0420659478e+01   6.5074016970e+01    0.1973897    0.1656063 -73.03 0.0008494938    1.366    0.268
        14 -10.6769    167.2931      8.9223   4.9469674946e+00   4.1373574708e+01    0.2348377    0.1418572 -34.38 0.0008340496    1.551    0.355
        15 -11.2423    148.4920      8.3488   6.5922363474e+00   4.6275309610e+01    0.3175939    0.2080044 -52.10 0.0009834117    1.445    0.308
        16 -10.8071    138.6252      7.7288   7.4907069841e+00   4.8943694769e+01    0.2946227    0.1846807 -46.57  0.001104105    1.540    0.351
        17 -10.6404    110.7069      7.3918   1.1369580470e+01   5.6467375979e+01     0.255637    0.1602436 -39.90 0.0009514604    1.629    0.386
        18 -12.1771    104.8526      7.0929   1.2285588508e+01   5.8063142772e+01    0.2975421    0.2218274 -49.47  0.001213777    1.401    0.286
        19 -10.4961    171.2136      5.7850   3.6458299937e+00   4.0690542349e+01    0.2295384   0.08965246 -55.96  0.000551511    2.518    0.603
        20 -10.4323    175.7242      4.5371   2.9212945911e+00   3.9689260183e+01    0.2224459    0.1079086 -27.20 0.0006019055    1.984    0.496
        21 -10.6038    143.7251      4.3215   5.6797549972e+00   4.7904185618e+01    0.2591145    0.1400969 -39.06 0.0008754656    1.748    0.428
        22 -11.5351    126.6082      5.1469   8.0159821719e+00   5.2397015702e+01    0.3416328    0.1516851 -85.20  0.001246104    2.800    0.643
        23 -10.6067     60.3110      5.6518   2.3629020243e+01   6.9515805712e+01    0.1378155    0.1045302 -64.22 0.0004782802    1.713    0.416
        24 -10.5421    182.5224      3.2604   2.0655562216e+00   3.8150767735e+01    0.2732929    0.1110254 -40.48 0.0007071223    2.019    0.505
        25  -9.8924    153.6957      4.3709   4.7063116295e+00   4.5286647487e+01    0.1548551   0.08475366 -56.57 0.0007032831    1.754    0.430
        26 -10.8962    133.8114      3.9726   6.6565735935e+00   5.0570653873e+01    0.2756411    0.1650894 -48.03  0.001097611    1.631    0.387
        27 -11.7736    116.7118      2.3343   8.2231660620e+00   5.5304327797e+01    0.3033322    0.2232707  75.36  0.001603529    1.237    0.192
        28 -10.6653    108.8620      2.7509   9.6037398239e+00   5.7379386911e+01    0.2766014    0.1484618 -50.95  0.001075305    2.013    0.503
        29 -11.4593     89.9389      3.1155   1.3357916542e+01   6.2375086494e+01    0.2235745    0.1809983 -68.51  0.001123986    1.335    0.251
        30 -10.8558     63.5046      2.9984   2.0703300897e+01   6.9045113167e+01    0.1927656    0.1002447 -48.15 0.0008096841    2.467    0.595
        31 -10.0501    168.5806      1.8562   2.6405676367e+00   4.1710100669e+01    0.1881935    0.1044561 -41.21 0.0005431926    1.603    0.376
        32 -10.5797    159.2358      2.2360   3.5060626633e+00   4.4047556405e+01     0.198678    0.1331143 -58.39 0.0007093447    1.363    0.266
        33 -11.8900     98.0806      2.5802   1.1419823000e+01   6.0274312307e+01    0.3861935    0.2198696 -65.87  0.001677745    2.153    0.535
        34 -16.4154    243.1394     38.2668   6.7300226782e+00   2.1378362136e+01      4.63484     1.735192 -36.21   0.02277184    1.941    0.485
        35  -9.8746    147.6414      1.3257   4.2317087233e+00   4.7135879936e+01    0.1557119   0.08578896 -60.21 0.0007043832    1.779    0.438
        36 -10.1740    137.8219      1.5676   5.3034588839e+00   4.9709354313e+01     0.197284    0.1178412 -82.28   0.00080636    1.658    0.397
        37 -11.0577    128.2817      1.5602   6.3830403238e+00   5.2258830798e+01    0.2727607    0.1286134  83.27  0.001028352    2.083    0.520
        38 -12.9752     80.3160      3.9462   1.6125537574e+01   6.4788023794e+01    0.5707572    0.3421859 -48.47   0.00267837    1.920    0.479
        39 -11.1094    227.1047    220.6503   4.4993468124e+01   2.8232055070e-01    0.1709169    0.1302662 -20.65  0.001216806    1.379    0.275
        40 -12.0270    249.2857    245.0638   4.5125417387e+01  -4.4620655257e+00    0.2797695    0.1923861  -7.35  0.002349535    1.177    0.150
        41 -11.2730    248.5153    239.6812   4.4491398203e+01  -3.8799387838e+00    0.2169458    0.1222692 -21.53 0.0008780821    1.516    0.340
        42 -11.2869    192.9846    248.6559   5.4575583982e+01   8.8523375625e-01    0.2590807    0.1752982 -45.51  0.001821244    2.270    0.559
        43 -11.2384     27.2386    248.9089   8.7327201830e+01   1.9621126409e+01    0.2115064    0.1183787  67.55  0.001390155    1.686    0.407
        44 -12.1356      2.7340    213.0369   9.1472581347e+01   2.8430743059e+01    0.3484195    0.2007642  63.31  0.001492955    1.401    0.286
        45 -11.6935      1.8650    205.7143   9.1496479588e+01   2.9981850378e+01      0.33657    0.1406476 -79.75  0.001689931    2.447    0.591
        46 -12.4060     11.6685    248.1407   9.0429302968e+01   2.1171580188e+01    0.5164335    0.1706706  53.29  0.002844383    2.132    0.531
        47 -13.0598      3.7697    245.6243   9.1943596906e+01   2.2282010494e+01    0.7440342    0.3277149  78.04   0.00451611    2.219    0.549
        48 -13.7861      8.1117    220.6946   9.0472118251e+01   2.6480239312e+01     1.003791    0.2580098  63.79  0.004175325    3.536    0.717
        49 -13.3388     18.3255    242.0293   8.8916892620e+01   2.1637711226e+01    0.5180314    0.1923615  48.55  0.002911331    1.854    0.461
        50 -12.7269     12.0262    233.0846   8.9966850596e+01   2.3807455906e+01    0.3518179     0.175002  80.56  0.001990161    2.008    0.502
        51 -12.3991      2.0625    221.5437   9.1810846712e+01   2.6819577696e+01    0.4772184    0.2049701  81.90  0.002539173    2.253    0.556
        52 -13.1139      8.1108    237.6188   9.0896646774e+01   2.3324525746e+01    0.7349522     0.176368  47.13   0.00362505    2.411    0.585
        53 -12.5672      5.5584    229.6011   9.1242107575e+01   2.5006393698e+01    0.4213945    0.2367934  74.14  0.002000257    1.625    0.385
        54 -12.8301     13.7470    217.3928   8.9124579303e+01   2.6636700439e+01     0.341839    0.1665647  71.45  0.001929165    1.900    0.474
        55  -9.9750    211.0000    217.9660   4.7221881691e+01   2.4284717753e+00    0.1621175   0.05643883 -36.44 0.0006767915    2.900    0.655
        56 -11.1528     24.6191    217.7995   8.6686259026e+01   2.5562062514e+01    0.1609138    0.0922635  74.06 0.0008778592    1.681    0.405
        57 -10.9192    227.2585    214.6969   4.4065474102e+01   9.4126410665e-01     0.267289    0.1420721 -46.00  0.001452361    3.249    0.692
        58 -11.1790    232.9234    210.9927   4.2602925747e+01   7.2929638346e-01     0.264747    0.1562616  -7.86  0.001683665    1.507    0.336
        59 -11.1528    216.9040    210.8403   4.5145758859e+01   2.5939105481e+00    0.2295986      0.14092 -32.24  0.001510411    1.645    0.392
        60 -11.6739     22.4885    210.9699   8.6886867182e+01   2.7125071325e+01    0.2120457    0.1060746 -75.72  0.001066473    2.156    0.536
        61 -11.1283    240.1503    207.6863   4.0978766544e+01   3.0109048625e-01    0.3021194    0.1358427 -42.86  0.001570061    3.331    0.700
        62 -12.9102      7.5540    207.5507   9.0231290401e+01   2.9142722549e+01    0.4483529    0.1630657  72.46  0.002080117    2.632    0.620
        63 -11.8310     15.2031    204.8260   8.8351447476e+01   2.9047536186e+01    0.2800777    0.1141142  53.70  0.001418283    1.931    0.482
        64 -11.0264    250.1323    199.9970   3.8280857355e+01   6.6018977954e-02    0.2389276    0.1191794 -27.17 0.0009690121    1.675    0.403
        65 -11.0528    242.7690    199.9725   3.9354230767e+01   8.8291666129e-01    0.2662904    0.1280216 -19.09  0.001408938    1.941    0.485
        66 -12.6680      4.0347    197.1909   9.0764328684e+01   3.1590522210e+01    0.4693272    0.1624342  60.01  0.002196958    2.358    0.576
        67 -10.3141    236.6324    197.2159   3.9828404768e+01   1.9044044941e+00    0.1566249   0.08235241 -21.62  0.000849951    1.667    0.400
        68 -10.3960     14.6300    196.8324   8.8183033643e+01   3.0783956723e+01    0.1752301    0.0925942  74.97 0.0009462404    1.762    0.432
        69 -10.3221    245.6813    192.5269   3.7704937234e+01   1.4086528895e+00    0.1845721   0.08152708 -30.96  0.001008246    1.945    0.486
        70 -12.6901      4.4208    189.3513   9.0441006007e+01   3.3252425646e+01    0.3291079    0.1938119  50.73  0.001952104    1.328    0.247
        71 -10.5752    204.2205    184.4381   4.2957821689e+01   7.6732856913e+00    0.1558844    0.1074129  40.14 0.0008633195    1.664    0.399
        72 -10.5765    184.1840    183.9950   4.6538913281e+01   1.0593608099e+01     0.180023    0.1518561 -71.60  0.001077418    2.019    0.505
        73 -10.1538    177.3240    182.6422   4.7630325700e+01   1.1820425526e+01    0.1163693    0.1034015  75.30 0.0005595952    1.773    0.436
        74 -10.7049    191.6704    180.1449   4.4459502900e+01   1.0080863592e+01     0.181285    0.1550826 -42.14  0.001045864    1.466    0.318
        75 -12.2046      2.2428    178.2840   9.0656155649e+01   3.5890279380e+01    0.3722149    0.1534045  78.99  0.001752479    2.248    0.555
        76  -9.9847    219.9796    179.0000   3.9344796145e+01   6.2741803187e+00    0.1756031   0.06177705  37.74 0.0007956545    2.896    0.655
        77 -10.5243    198.2220    177.1927   4.2739683369e+01   9.5650120238e+00    0.1551048     0.145207 -23.40 0.0007801946    1.350    0.259
        78 -10.0248    224.3217    174.6261   3.7867686511e+01   6.2758540994e+00    0.1055808   0.09201443 -52.59 0.0007030531    1.812    0.448
        79 -10.0426    193.2986    173.6622   4.2994088703e+01   1.0818803618e+01    0.1104695    0.1029071 -75.86 0.0004622125    1.659    0.397
        80 -11.3593    205.5515    169.7111   4.0082404190e+01   9.5919737351e+00    0.2362742    0.1975395 -63.76  0.001304464    1.978    0.494
        81 -11.1086    179.3474    169.6544   4.4901343738e+01   1.3595339805e+01    0.1773255    0.1606854  82.55 0.0008137405    1.662    0.398
        82 -10.7671    219.7869    169.0830   3.7586454354e+01   7.6449615122e+00    0.2071981    0.1603643  19.69  0.001355346    1.249    0.199
        83 -10.4749    170.4560    168.9556   4.6548476934e+01   1.5130540577e+01    0.1649698    0.1186564 -67.51  0.000625085    2.383    0.580
        84 -11.2967    199.9075    165.2859   4.0243706711e+01   1.1090667359e+01    0.2643713    0.1717928 -47.18  0.001233015    1.879    0.468
        85 -11.7037    192.1810    165.8222   4.1743011572e+01   1.2195800135e+01    0.2379494    0.2330654 -24.86  0.001479635    1.346    0.257
        86 -10.8668    184.9789    165.9425   4.3116797705e+01   1.3306016639e+01    0.1835461    0.1667559  87.32 0.0009461467    1.677    0.404
        87 -11.1340    213.6324    164.1124   3.7667859409e+01   9.2188175046e+00    0.2307234    0.1661197  19.18  0.001130721    1.348    0.258
        88 -10.8135      1.4674    164.4994   9.0417210392e+01   3.9151614522e+01    0.1285092    0.1029595  63.51 3.413508e-05    1.011    0.011
        89 -11.6954    205.7213    162.3907   3.8677378895e+01   1.0642973153e+01    0.2522552    0.2083674 -28.49 0.0009862512    1.215    0.177
        90 -10.5368    238.4393    159.5391   3.2960793619e+01   6.3657601426e+00    0.1944069    0.1697273 -80.71  0.001290852    2.204    0.546
        91 -12.0114    176.9301    159.6460   4.3473944912e+01   1.5648144672e+01    0.2569225    0.1907042 -41.60   0.00117623    1.414    0.293
        92 -13.0174    196.9578    157.3992   3.9252212213e+01   1.2758305417e+01    0.3491821    0.3114013 -25.41  0.001439388    1.188    0.158
        93 -12.1782    194.1697    143.4797   3.6942071139e+01   1.5424814652e+01    0.2690217    0.2056557 -47.20  0.001111868    1.476    0.322
        94 -12.7876    191.5509    149.2335   3.8602134469e+01   1.4935462201e+01    0.3309274    0.2175406 -42.40  0.001777658    1.561    0.359
        95 -13.1064    196.8821    149.5647   3.7705556687e+01   1.3999854205e+01     0.537334    0.2080022 -36.81  0.002276313    2.415    0.586
        96 -12.2533    200.2617    145.3180   3.6244419593e+01   1.4112090452e+01     0.284052    0.2264589 -43.44  0.001263698    1.378    0.274
        97 -10.7251    226.7860    157.6198   3.4338713003e+01   8.2325972408e+00    0.2124877    0.1544989  12.08  0.001055039    1.349    0.259
        98 -11.6056    222.4985    157.4939   3.4980540622e+01   8.8650542475e+00    0.2064543    0.1637235   9.48 0.0007794792    1.185    0.156
        99 -12.4054    217.0565    157.2644   3.5803249194e+01   9.6939603929e+00    0.2479859    0.2206754  67.62  0.001237526    1.778    0.438
       100 -12.5300    205.8867    154.8306   3.7184990101e+01   1.1747408379e+01    0.3015094     0.211715 -28.33  0.001088973    1.279    0.218
       101 -12.1333    202.1617    151.7163   3.7209415992e+01   1.2809213376e+01    0.3045518    0.1914979 -45.03  0.001496782    1.758    0.431
       102 -10.2256    234.5835    154.7955   3.2631404008e+01   7.5175334106e+00    0.1596895   0.09545287 -37.19  0.000674493    1.581    0.367
       103 -11.4034    171.5069    153.9964   4.3448003140e+01   1.7535590908e+01    0.2061964    0.1286872 -40.10  0.001033182    1.597    0.374
       104 -11.6018    221.6824    152.8642   3.4215601381e+01   9.6344293582e+00    0.2099937    0.1521046  17.41  0.001263492    1.396    0.284
       105 -11.0674    157.4950    153.0107   4.6210408331e+01   2.0155200709e+01    0.2097064    0.1349918 -44.51  0.001030836    1.608    0.378
       106 -10.1180    250.2007    152.2003   2.9950255746e+01   5.7438607025e+00    0.1474453    0.1156418 -32.59 0.0006861196    1.331    0.248
       107 -12.7678    187.7788    156.1436   4.0689851524e+01   1.4438909650e+01    0.2840574    0.1965107 -28.59  0.001292467    1.366    0.268
       108 -11.6199    216.0778    149.9004   3.4522987381e+01   1.0902781462e+01    0.2938428    0.1544083 -42.32  0.001118635    1.961    0.490
       109 -10.7200    244.6593    149.9823   3.0285986775e+01   6.7650876998e+00    0.1867682     0.160018  66.25  0.001288349    1.977    0.494
       110 -12.2280    181.9689    149.7967   4.0520329528e+01   1.6462529890e+01     0.241977    0.1857395 -31.35 0.0009898817    1.239    0.193
       111 -11.7193    236.3788    148.4089   3.1147927819e+01   8.1190906413e+00    0.2780088    0.2302827  48.97  0.001363262    1.668    0.400
       112 -10.5810    162.3115    149.6335   4.4484065547e+01   1.9926468662e+01    0.1353543    0.1130416 -87.60  0.000703805    1.762    0.433
       113 -12.4977    223.9854    147.6177   3.2830758119e+01   1.0032542746e+01    0.2866464    0.2473149  40.86  0.001349735    1.448    0.309
       114 -11.8119    176.2984    145.9966   4.0846753893e+01   1.8097897008e+01    0.1997377    0.1701984 -25.90  0.001160236    1.114    0.103
       115 -11.2451    166.6298    145.8402   4.2785504946e+01   1.9846681348e+01    0.1954176    0.1268182 -49.57 0.0009468807    1.714    0.417
       116 -10.4833    247.7709    144.5968   2.8838451755e+01   7.0360269660e+00    0.1716986    0.1603124 -41.10 0.0007474364    1.480    0.324
       117 -10.6083    244.1540    141.7812   2.8781640003e+01   7.9015730481e+00    0.1716839    0.1585618  15.44  0.001231691    1.331    0.249
       118 -11.5451    208.1136    145.1656   3.4875776708e+01   1.2855688830e+01    0.2019679    0.1571129  -3.76 0.0008256866    1.234    0.189
       119 -11.4110    155.5667    143.2388   4.4621262301e+01   2.2345614058e+01    0.2726821     0.136121 -47.70   0.00114128    2.121    0.529
       120 -11.9757    230.6228    142.1252   3.0749985424e+01   9.8097411751e+00    0.2918159    0.2222101 -36.15  0.001218485    1.301    0.231
       121 -11.8667    224.5522    141.1557   3.1456500691e+01   1.0862052703e+01     0.251529    0.2201982  41.55  0.001217969    1.420    0.296
       122 -12.4040    219.0984    139.1538   3.1883488828e+01   1.1998438162e+01    0.3334529    0.2227698 -45.95  0.001082439    1.678    0.404
       123 -11.1381    215.6366    135.8132   3.1734228487e+01   1.3043903914e+01    0.2035951    0.1347817 -51.83 0.0004918795    1.942    0.485
       124 -10.6774    214.5188    142.9496   3.3378608701e+01   1.2165238006e+01    0.1952742    0.1093795 -33.99 0.0009474705    1.578    0.366
       125 -12.4612    181.7674    141.4942   3.8830318821e+01   1.7907497140e+01    0.2872384    0.2164345 -51.24   0.00155768    1.543    0.352
       126 -12.2952    226.0014    134.8609   2.9962616080e+01   1.1533150911e+01    0.3670502    0.2654392  64.72  0.002112603    2.215    0.549
       127 -12.3622    235.0497    136.3577   2.8965549177e+01   9.9441844915e+00    0.4024136    0.3484761  86.47  0.001998911    1.897    0.473
       128 -10.6529    234.0614    130.0257   2.7822317302e+01   1.0964334664e+01    0.2265613    0.1771318 -49.58  0.001446773    1.544    0.352
       129 -13.2607    228.9061    127.3969   2.8002796632e+01   1.2135135182e+01    0.5484291    0.2861018 -46.12  0.002653601    2.122    0.529
       130 -10.6279    203.5148    140.9977   3.4792368217e+01   1.4247695182e+01    0.1974935    0.1152334 -35.99  0.001018376    1.563    0.360
       131 -10.9049    166.4942    140.0129   4.1576943757e+01   2.0933114852e+01    0.2165661    0.1335047 -40.62   0.00103414    1.596    0.373
       132 -11.4407    208.8978    138.1741   3.3306186717e+01   1.3791024629e+01    0.3160062    0.1722471 -37.07   0.00119038    1.660    0.398
       133 -12.4925    172.8307    137.6063   3.9754503557e+01   2.0201130035e+01    0.4297454    0.1833303 -46.79  0.001688092    2.538    0.606
       134 -11.8470    192.7704    137.0677   3.5840396018e+01   1.6708599154e+01    0.2838384    0.1712195 -32.97  0.001438502    1.539    0.350
       135 -11.7753    198.9595    136.2037   3.4564625106e+01   1.5773540238e+01      0.24583    0.1750458 -32.00  0.001191022    1.273    0.214
       136 -10.2745    143.3446    137.6723   4.6229740600e+01   2.5729468409e+01    0.1471379    0.1174213  81.69 0.0007050633    1.747    0.428
       137 -10.6904    249.1189    135.9811   2.6996767635e+01   7.9612618695e+00    0.1718746    0.1368638 -38.27 0.0008868493    1.349    0.259
       138 -11.7290    187.6363    134.9891   3.6327249711e+01   1.7962569772e+01    0.3055586    0.1198573 -38.16  0.001224412    2.389    0.581
       139 -10.8259    243.1722    134.9930   2.7583093347e+01   8.9360011869e+00    0.1874379     0.165874  12.09   0.00104612    1.250    0.200
       140 -11.1893    163.3815    135.2039   4.1183578599e+01   2.2402176745e+01     0.202731    0.1300421 -49.63 0.0009514352    1.692    0.409
       141 -12.0048    179.9424    132.3016   3.7188073540e+01   1.9823156534e+01    0.3333268    0.1967918 -37.66  0.001604887    1.605    0.377
       142 -11.3763    248.7743    130.5755   2.5979471938e+01   8.7115519030e+00    0.2712707    0.2120602  62.49  0.001672572    1.960    0.490
       143 -11.7180    205.8388    130.8486   3.2257801814e+01   1.5433726205e+01    0.3346172    0.1515103 -45.06  0.001206128    2.352    0.575
       144 -11.7748    221.5128    129.5277   2.9522548445e+01   1.3014744900e+01    0.2500673    0.2045826 -46.05 0.0009550012    1.377    0.274
       145 -11.4364    212.3978    129.3476   3.0880937534e+01   1.4548465886e+01    0.2579618    0.1743744 -43.81 0.0008953792    1.509    0.337
       146 -11.1629    192.3836    129.1217   3.4181555756e+01   1.8083434005e+01    0.3469076    0.1504847 -35.41  0.001412955    2.151    0.535
       147 -10.9329    186.6931    129.4144   3.5275857074e+01   1.9072648482e+01    0.2918216    0.1510414 -48.10  0.001272263    2.159    0.537
       148 -11.6306    172.1987    128.9317   3.7955518023e+01   2.1875614422e+01    0.3122041    0.1862248 -49.48  0.001429871    1.841    0.457
       149 -12.1629    241.6429    127.6313   2.6312812118e+01   1.0142879967e+01     0.271319    0.2525352 -37.93  0.001113891    1.320    0.242
       150 -11.8073    165.5145    126.4943   3.8766538154e+01   2.3612625091e+01    0.4203715    0.1317896 -44.43  0.001386965    3.213    0.689
       151 -11.4733    200.0546    126.4894   3.2272081829e+01   1.7132654035e+01     0.257707    0.1671744 -46.18 0.0007770214    1.614    0.380
       152 -10.7014    217.7070    125.9454   2.9335333244e+01   1.4167346717e+01     0.187154    0.1417889 -29.25 0.0005108152    1.133    0.118
       153 -13.2661    180.0287    124.2878   3.5364902940e+01   2.1202282865e+01    0.4914083    0.3082702 -45.43  0.002393597    1.611    0.379
       154 -10.8143    151.5111    110.5215   3.7935359001e+01   2.9516253779e+01    0.1472726    0.1436348 -32.50 0.0008101459    1.016    0.015
       155 -10.6936    157.3375    120.6765   3.9145383312e+01   2.6338184032e+01    0.1468396    0.1177894 -84.02 0.0004571183    1.718    0.418
       156  -9.9707    208.4834    113.5087   2.8009649599e+01   1.7654230964e+01    0.1328243    0.1155621 -29.34  9.86072e-05    1.040    0.039
       157 -10.1719    183.3123    109.6462   3.1304032400e+01   2.3089458892e+01    0.1433662    0.1075985 -65.76 0.0006762584    1.731    0.422
       158 -10.7041    161.4885    109.4998   3.5513189429e+01   2.7604759736e+01    0.1456709    0.1396124 -42.99   0.00031541    1.049    0.047
       159  -9.9297    196.4910    107.9565   2.8632298946e+01   2.0775798457e+01    0.1911668     0.104258 -53.84 0.0008065565    2.360    0.576
       160 -10.6376    205.9405    105.4320   2.6545735571e+01   1.9371878161e+01    0.2559535      0.16035 -45.68 0.0007232358    1.562    0.360
       161 -10.6740    213.5380    104.9662   2.5311274409e+01   1.8032682674e+01    0.2037603    0.1134833 -33.91 0.0006353597    1.547    0.354
       162 -11.3601    212.9034    122.9261   2.9417475023e+01   1.5434252879e+01    0.2378908    0.1562845 -38.66 0.0009226772    1.386    0.279
       163 -10.5463    161.0030    101.5082   3.3565494628e+01   2.9199531485e+01    0.2023325    0.1334151  79.73 0.0007540419    2.489    0.598
       164 -10.0610    209.4335    100.2316   2.4810882276e+01   1.9510275969e+01    0.1877885    0.1082144 -43.24 0.0005781966    1.604    0.376
       165 -10.6961    216.7134     99.3541   2.3575597669e+01   1.8284800885e+01     0.552954    0.3134991 -73.62  0.001880871    5.277    0.810
       166 -10.7418    215.0117     96.1317   2.3064286302e+01   1.9075442689e+01    0.3431041    0.2327111  -0.90  0.001745269    2.000    0.500
       167 -12.1795    220.1478    116.0495   2.6835756744e+01   1.5215120995e+01    0.2762615    0.1436337 -31.53  0.001325393    1.665    0.399
       168 -10.3955    202.8717     98.0695   2.5272042840e+01   2.1102092549e+01     0.222601    0.1328795 -53.02 0.0007298056    1.913    0.477
       169 -10.2986    195.2066     97.8063   2.6397858973e+01   2.2661162846e+01    0.2342325    0.1380531 -64.85 0.0009490511    2.821    0.645
       170 -10.2585    165.4132     95.1965   3.1011615087e+01   2.9389947977e+01    0.2121276    0.1296747 -47.96 0.0006988505    1.645    0.392
       171  -9.8591    207.2875     94.6083   2.3792262436e+01   2.0774443970e+01    0.1416076   0.09269939 -56.03 0.0007005194    1.765    0.433
       172 -10.2782    178.0112     94.4914   2.8464716199e+01   2.6778533165e+01    0.1971318    0.1287872  86.33 0.0008102568    2.586    0.613
       173 -10.2431    189.0025     93.5096   2.6333428535e+01   2.4622460515e+01    0.1889231    0.1246138 -89.91 0.0008103807    2.548    0.608
       174 -10.4342    141.5240     93.0047   3.5548704576e+01   3.5158913025e+01    0.2224181    0.1267516 -61.48 0.0008092927    2.498    0.600
       175 -10.4907    210.2692     91.3664   2.2596459556e+01   2.0684661116e+01    0.2327664    0.1366859 -48.88 0.0008775305    1.720    0.419
       176 -10.7846    158.7164     91.5483   3.1370800597e+01   3.1541574565e+01    0.2601261     0.176076 -58.71  0.001108491    1.711    0.416
       177 -13.3647    244.1300     78.4505   1.5602546242e+01   1.6283634052e+01     1.013337    0.5636204 -86.77  0.004637371    3.639    0.725
       178  -9.7875    203.3252     90.6421   2.3408895571e+01   2.2157567785e+01    0.1431383   0.09617303 -59.58 0.0007044365    1.776    0.437
       179 -10.5533    151.8094     89.2679   3.2185763519e+01   3.3530576013e+01    0.2402521     0.192099  88.20 0.0009790285    1.528    0.345
       180 -10.0298    164.4893     87.4991   2.9111029375e+01   3.0968094617e+01    0.1488093    0.1379074 -55.32  0.000809829    1.062    0.058
       181 -10.1290    203.4994    115.9793   2.9353392960e+01   1.8177680499e+01    0.2078942    0.1177097 -36.46 0.0006459708    1.567    0.362
       182 -11.2881    218.1964     85.2106   2.0082883953e+01   2.0062112765e+01    0.3738429    0.1745189  48.50  0.001736846    2.499    0.600
       183 -10.4689    206.2783     85.0520   2.1623285038e+01   2.2412586094e+01    0.3047222    0.1617159 -49.78  0.001235566    1.956    0.489
       184 -10.3841    179.9386     85.9981   2.5906257561e+01   2.7788567253e+01    0.2312662    0.1671444 -69.35  0.001095289    1.731    0.422
       185 -10.2129    171.7554     84.5774   2.6956560945e+01   2.9839062573e+01    0.1940788    0.1420456  74.07 0.0008641648    1.638    0.390
       186 -10.7828    159.8771     83.2953   2.8839445097e+01   3.2764577036e+01    0.2607263     0.196827 -51.27 0.0008435241    1.320    0.243
       187 -10.3203    200.9611     83.4959   2.1985345981e+01   2.3724417842e+01    0.1837161    0.1172475 -83.17 0.0008093918    2.541    0.607
       188 -10.5905    193.4509     83.1840   2.3008580307e+01   2.5335669096e+01    0.2655209    0.1663852 -66.61    0.0011893    2.218    0.549
       189 -10.4629    143.4231     82.2545   3.2004992750e+01   3.6793416232e+01    0.2191954    0.1384679 -49.63 0.0009416239    1.613    0.380
       190 -10.7050    215.1583     80.1918   1.9271687341e+01   2.1365640221e+01    0.2671819    0.1561061 -42.76 0.0007432717    1.496    0.332
       191 -10.5307    211.8158     76.7282   1.8853268409e+01   2.2521827880e+01    0.2790689    0.1528514 -42.98  0.001272179    1.599    0.375
       192 -10.9941    151.3512     80.2312   2.9688811581e+01   3.5300738517e+01    0.2939977    0.2416723  88.73  0.001061702    1.395    0.283
       193 -10.2041    180.7365     80.5971   2.4333868202e+01   2.8497598319e+01    0.1886428    0.1383892  77.06 0.0008724278    1.644    0.392
       194 -11.3318    203.1383    121.6502   3.0687257133e+01   1.7349204603e+01    0.2411721    0.1622175 -40.91 0.0008150246    1.404    0.288
       195 -10.5700    201.5799     78.5064   2.0646136169e+01   2.4347347898e+01    0.3107694    0.1574296 -55.81  0.001290312    2.477    0.596
       196 -10.4497    189.7292     78.9672   2.2480325451e+01   2.6788218483e+01    0.2374263    0.1366219 -55.83  0.001046666    2.003    0.501
       197 -10.7238    175.3190     78.9152   2.4784869259e+01   2.9983853492e+01    0.2384404    0.2000192 -88.81 0.0009274799    1.346    0.257
       198 -10.9907    167.6195     78.8389   2.6117843256e+01   3.1752318394e+01    0.2810692    0.2361361 -84.51 0.0009659861    1.335    0.251
       199 -10.0478    184.2309     77.9984   2.3075106175e+01   2.8141682474e+01      0.25197    0.1404994 -73.63 0.0008768083    3.591    0.722
       200 -12.0607    188.3154    123.2610   3.3595695406e+01   1.9809115353e+01    0.3366093    0.1872416 -47.51  0.001424438    1.926    0.481
       201 -10.7108    157.9955     76.5320   2.7266382462e+01   3.4391042505e+01    0.2854806    0.1956199 -53.31 0.0008134648    1.509    0.337
       202 -10.6950    140.0987     75.0897   3.0587808661e+01   3.8922139206e+01    0.2482048    0.1829787 -72.51 0.0008503576    1.664    0.399
       203 -10.3522    206.6171     74.3194   1.8921988491e+01   2.3922332306e+01    0.2116153    0.1348367 -56.94  0.001054736    1.698    0.411
       204 -10.8425    151.0150     73.1810   2.7662313184e+01   3.6638572015e+01    0.2728245    0.2095403 -89.49  0.001018075    1.557    0.358
       205 -10.1983    211.0065     72.0238   1.7797790708e+01   2.3354449569e+01     0.217888     0.135798 -55.97 0.0008451334    1.701    0.412
       206 -10.2643    200.0460     70.9001   1.8917029287e+01   2.5793001591e+01    0.4082337    0.1124868 -48.93   0.00111416    5.212    0.808
       207 -11.2568    164.2815     72.7154   2.4976506356e+01   3.3558777983e+01    0.3299294    0.2620497 -52.93   0.00113236    1.231    0.188
       208 -10.5040    176.5302     72.5094   2.2813823270e+01   3.0746006716e+01    0.2338376    0.1425421  75.97 0.0009047619    2.112    0.527
       209 -11.2724    170.5314     70.5015   2.3244923278e+01   3.2455553675e+01    0.5388005    0.2575824 -59.76  0.001823366    3.314    0.698
       210 -10.2894    116.1966     72.4280   3.5724131669e+01   4.5173032837e+01    0.2195072     0.149821  64.94 0.0006980884    1.646    0.392
       211 -10.4259    107.5590     71.7553   3.7988782284e+01   4.7340148695e+01     0.223233    0.1461814 -54.89 0.0007826081    1.651    0.394
       212 -10.5063    222.3679     71.2189   1.6267259479e+01   2.1214138217e+01    0.2178379    0.1335372 -55.70 0.0007960129    1.718    0.418
       213 -10.9241    218.5548     69.3152   1.6241976566e+01   2.2219520852e+01    0.3700877    0.1495288 -33.98  0.001626983    2.040    0.510
       214 -10.2742    207.3719     54.0950   1.3706098401e+01   2.6577907310e+01    0.2021138    0.1157071 -34.06 0.0005602199    1.511    0.338
       215 -11.3830    207.0355     59.4787   1.5120852842e+01   2.5923649783e+01    0.4019599    0.1947862 -44.74  0.001471588    1.811    0.448
       216 -10.3681    214.5184     70.5095   1.7001329287e+01   2.2858409638e+01    0.3183606    0.1303686 -45.13 0.0008682632    2.216    0.549
       217 -10.3734    212.7427     66.5786   1.6242724469e+01   2.3762442441e+01    0.2337134     0.155334 -62.30  0.001011279    1.660    0.398
       218 -10.3311    208.8630     65.0203   1.6310803436e+01   2.4776904119e+01    0.2774692    0.1303038 -49.06  0.001223935    2.077    0.519
       219 -10.6339    157.6346     70.1753   2.5459952570e+01   3.5565868779e+01    0.2472202     0.202997  81.43 0.0007476998    1.323    0.244
       220  -9.7093    188.2859     69.6266   2.0216478619e+01   2.8540114307e+01    0.1512815   0.09617242 -57.85  0.000657529    1.714    0.417
       221 -11.2588    146.5115     67.8050   2.6935791599e+01   3.8669440430e+01    0.3651769      0.25259 -48.83  0.001024013    1.430    0.301
       222 -10.3276    194.7401     68.5744   1.9027407778e+01   2.7276347148e+01    0.1789187     0.131871  86.68 0.0008620033    1.616    0.381
       223  -9.6070    182.9746     69.0000   2.0832811254e+01   2.9827607630e+01    0.2140844   0.08161592  60.51 0.0007874772    2.840    0.648
       224 -10.8032    139.3160     67.6354   2.8418735625e+01   4.0464948911e+01    0.3285777    0.2343795 -69.42   0.00101976    1.698    0.411
       225  -9.8931    122.2977     68.6450   3.2826327007e+01   4.4446640340e+01    0.1634358     0.119956 -73.00 0.0007035166    1.697    0.411
       226 -10.2969    223.3965     67.1367   1.5182250254e+01   2.1565468857e+01    0.1876621     0.095821 -41.18 0.0007773451    1.617    0.382
       227 -10.7412    203.7485     67.0109   1.7440864970e+01   2.5569063385e+01    0.2975439    0.2000665 -71.40  0.001441235    1.813    0.448
       228 -10.4782    152.9613     67.1433   2.5438722523e+01   3.7207616760e+01    0.2337162    0.1928086 -67.29 0.0007668547    1.266    0.210
       229 -11.1734    171.5438     64.6108   2.1385037294e+01   3.3153278921e+01    0.3013635    0.2311462 -77.86 0.0008672688    1.468    0.319
       230 -10.8912    163.9819     65.3027   2.2857067925e+01   3.4844690021e+01    0.2951922    0.1992891  78.42  0.001036734    1.749    0.428
       231 -11.1118    218.2612     63.8226   1.4942261225e+01   2.3022974069e+01    0.3615829    0.1933394 -84.21  0.001517773    3.251    0.692
       232 -10.3571    197.8038     64.6074   1.7577381375e+01   2.7186602943e+01    0.1835325    0.1268739  89.19  0.000637041    1.779    0.438
       233  -9.6148    178.3540     64.6803   2.0333885642e+01   3.1548409111e+01    0.1542789    0.1019694 -64.80 0.0007046686    1.750    0.429
       234 -10.1049    111.5344     64.5135   3.4331370016e+01   4.7846838587e+01    0.1567755     0.148777 -82.56 0.0002082274    1.055    0.052
       235 -11.2640    158.4615     62.5261   2.2998156508e+01   3.6628153528e+01     0.319208    0.2433135 -62.79    0.0009956    1.376    0.273
       236  -9.9382    122.4869     63.5088   3.1036807418e+01   4.5364712096e+01    0.1563345    0.1475019 -78.93 3.803397e-05    1.051    0.048
       237 -11.4474    212.1549     56.6373   1.3829939401e+01   2.5231163654e+01    0.5722575    0.1544071 -43.23   0.00206033    3.071    0.674
       238 -10.1554    182.7409     62.5518   1.9085324625e+01   3.0856738248e+01    0.1819046    0.1338977  89.05 0.0008109425    1.569    0.362
       239 -10.5900    221.3119     59.8400   1.3651186523e+01   2.2943027865e+01    0.2599308    0.1552238 -53.93 0.0007869967    1.635    0.388
       240 -11.1251    158.5352     49.2374   1.8857719051e+01   3.8661482983e+01    0.3841532    0.2390302 -56.31 0.0009265101    1.688    0.407
       241 -11.6880    154.1915     40.9863   1.6901614839e+01   4.0942183020e+01    0.6805504    0.2199816 -44.47  0.002274545    2.988    0.665
       242 -11.1493    165.5087     60.0267   2.1026326551e+01   3.5310347393e+01    0.3659135    0.2307741 -67.89  0.001194325    1.974    0.493
       243 -11.4196    163.7334     53.6007   1.9372377767e+01   3.6723378316e+01    0.5426119    0.2747526 -40.47  0.002298568    1.815    0.449
       244 -10.3833    153.4799     60.0578   2.3144549724e+01   3.8250579300e+01    0.2266031    0.1402143 -38.23 0.0006559595    1.541    0.351
       245 -10.2705    197.7300     59.6435   1.6280148804e+01   2.7907414828e+01    0.1768162    0.1266459  85.73 0.0006874311    1.616    0.381
       246 -10.7876    147.1204     58.7219   2.3930000586e+01   4.0049423432e+01    0.2635732    0.1973832 -51.31 0.0007162581    1.315    0.240
       247 -10.1265    141.4072     61.2217   2.5896201582e+01   4.1061129347e+01    0.2177846    0.1333603 -47.38 0.0005791479    1.626    0.385
       248 -10.4799    192.9949     55.9755   1.5892851902e+01   2.9473200552e+01    0.2250151     0.146701 -61.66 0.0008463279    1.629    0.386
       249 -11.5803    175.9983     56.0411   1.8218605555e+01   3.3395723740e+01     0.318059    0.1791923 -61.68  0.001226451    2.139    0.532
       250 -11.0051    172.3442     50.7714   1.7205811483e+01   3.5036248814e+01    0.3967946    0.2275753 -67.48  0.001212235    2.211    0.548
       251 -10.9967    169.4497     55.7263   1.9111854662e+01   3.5011610410e+01     0.321349    0.2083807 -64.53  0.001214078    1.750    0.428
       252 -10.9043    158.1062     55.7189   2.0962389498e+01   3.7790407066e+01    0.2997511    0.2120924 -62.28  0.000775317    1.510    0.338
       253 -10.8031    153.3825     53.1521   2.0976987026e+01   3.9363928212e+01    0.3280101    0.2022594 -60.15 0.0007892666    1.842    0.457
       254 -10.7733    139.9843     55.4819   2.4294001300e+01   4.2374797139e+01    0.2909247    0.1993787 -53.84 0.0007597285    1.509    0.337
       255  -9.7106    198.2940     55.6849   1.5163300354e+01   2.8333188548e+01    0.1431305   0.09081514 -57.60 0.0004093843    1.600    0.375
       256 -10.4231    131.6405     55.1599   2.5968486137e+01   4.4543191574e+01    0.2461918    0.1787457 -54.34 0.0008020353    1.423    0.297
       257 -10.4828    119.0237     55.0226   2.8920365795e+01   4.7755031644e+01    0.2546695    0.1838628 -71.17  0.001051126    1.694    0.410
       258 -10.2171    215.4448     53.9304   1.2807210308e+01   2.4905069911e+01    0.1937132   0.07777832 -48.62 0.0008026938    2.352    0.575
       259 -10.7662    201.7740     54.0315   1.4318604504e+01   2.7794754324e+01    0.2174878    0.1560713 -53.61  0.001103069    1.289    0.224
       260 -10.7907    185.2023     53.4468   1.6200772720e+01   3.1607729204e+01    0.3947873     0.207581  89.06  0.001553739    2.858    0.650
       261 -11.3606    178.8018     50.7179   1.6282720641e+01   3.3494914689e+01    0.5232512    0.2392422 -54.00  0.001800242    2.459    0.593
       262 -10.9898    174.4429     44.7381   1.5121317594e+01   3.5372080698e+01    0.3682685    0.1972788 -27.61  0.001309406    1.892    0.471
       263 -10.8093    173.5951     40.7012   1.4029016889e+01   3.6122593170e+01    0.2787363    0.2206837 -60.47 0.0007929309    1.187    0.157
       264 -10.8206    181.9875     47.4942   1.4933403460e+01   3.3187054663e+01    0.3623476    0.1891618 -63.05  0.001489196    2.366    0.577
       265 -10.9312    179.0125     44.3041   1.4394078837e+01   3.4328592699e+01    0.3229029    0.2107043 -42.60  0.001100153    1.377    0.274
       266  -9.9276    148.2739     52.6858   2.1751140610e+01   4.0722860401e+01    0.1541331    0.1081651 -63.54 0.0003249428    1.559    0.359
       267 -10.7858    188.4908     49.5472   1.4692353397e+01   3.1387093582e+01    0.5492299    0.2291991 -64.00  0.001667886    4.631    0.784
       268 -10.3499    201.5230     62.0452   1.6438925145e+01   2.6745589117e+01    0.2065605   0.08582465 -49.63 0.0008090055    2.479    0.597
       269 -10.7605    167.6750     49.3650   1.7470518790e+01   3.6376189325e+01    0.3238396    0.1806595 -69.69  0.000928838    2.428    0.588
       270 -11.1222    163.2499     45.8555   1.7056590994e+01   3.7971726652e+01    0.3210072     0.208529 -63.74 0.0008999625    1.675    0.403
       271 -10.0715    198.9870     48.1907   1.3090505706e+01   2.9188762953e+01    0.2243049    0.1313349 -69.36  0.001045373    2.029    0.507
       272 -10.7335    150.4800     47.4975   1.9654455647e+01   4.0952616334e+01    0.2893064    0.1407954 -33.23  0.000678709    1.997    0.499
       273 -10.2926    145.0135     47.7152   2.0706298231e+01   4.2315435522e+01    0.2819499    0.1674678 -47.13  0.001071989    1.660    0.397
       274 -10.5236    192.9720     46.9067   1.3427423120e+01   3.0714114744e+01    0.2261938    0.1413082 -59.93 0.0006535544    1.634    0.388
       275 -11.8364    242.9858    245.9579   4.6175227950e+01  -3.9582287375e+00    0.5286809    0.1514848 -24.83   0.00250402    4.116    0.757
       276 -11.3724    166.3578     27.9091   1.1010792881e+01   3.9542184346e+01    0.3593827    0.1340538 -42.97  0.001101253    2.381    0.580
       277 -10.3363    165.1450     40.5031   1.5112188574e+01   3.8238998517e+01    0.2898867    0.1856531 -62.48  0.001064147    1.650    0.394
       278 -11.1511    169.1226     44.7949   1.5871615045e+01   3.6665103490e+01    0.4009353    0.2183506 -48.81   0.00117632    1.765    0.434
       279 -11.9358     36.1227    247.8093   8.5475570839e+01   1.8949447487e+01    0.3180947    0.1568571  63.76  0.001915839    1.945    0.486
       280 -10.6352    122.8491     46.0873   2.4705585717e+01   4.8278515649e+01    0.2472676    0.1990453 -65.92   0.00112772    1.318    0.241
       281 -10.6281    188.8438     44.9096   1.3358261933e+01   3.1928454560e+01    0.2308469    0.1408193 -59.94 0.0009362987    1.687    0.407
       282 -10.3324    200.7669     43.7928   1.1727758809e+01   2.9363943888e+01    0.1931232    0.1351252 -60.21 0.0009293377    1.369    0.269
       283 -11.4276    197.1832     40.2290   1.1147810002e+01   3.0621134837e+01     0.315376     0.162044 -54.35  0.001194409    1.910    0.476
       284 -10.7110    194.3123     37.6037   1.0731870021e+01   3.1604798855e+01    0.2246345    0.1363233 -52.81 0.0007122956    1.513    0.339
       285  -9.6250    196.6426     44.3374   1.2315524934e+01   3.0218054378e+01    0.1515952   0.08683977 -59.36 0.0007040271    1.810    0.447
       286 -10.5269    183.7959     44.0529   1.3722712828e+01   3.3223980374e+01    0.2277912    0.1599107 -57.63 0.0008481561    1.363    0.266
       287 -10.8198    132.1924     42.7104   2.1441708526e+01   4.6380578744e+01    0.2740708    0.1907745 -45.20 0.0009190423    1.417    0.294
       288  -9.5420    204.3516     46.6831   1.2112742813e+01   2.8202157409e+01    0.1458598   0.08578578 -59.11 0.0007047097    1.737    0.424
       289 -10.5297    192.4558     40.9485   1.1849167772e+01   3.1609073639e+01    0.2815816    0.1236992 -64.35 0.0008919622    3.261    0.693
       290 -10.9808    140.0823     40.1947   1.9027816888e+01   4.4695276476e+01    0.3363488    0.1978935 -44.79  0.001080922    1.660    0.397
       291 -10.6834    194.4515    121.4527   3.2102399835e+01   1.8965607579e+01    0.2449941    0.1127023 -45.39 0.0008891709    2.251    0.556
       292 -10.9658    185.3287     39.5390   1.2254128087e+01   3.3452319324e+01    0.3396781    0.1889898 -50.49    0.0015221    1.675    0.403
       293 -10.5862    160.8320     39.7238   1.5485177725e+01   3.9428237804e+01    0.2871517    0.1500354 -53.73 0.0008356947    2.009    0.502
       294 -11.1772    179.9073     38.4879   1.2586917056e+01   3.4880527924e+01    0.3326704    0.2124478 -63.51 0.0009819288    1.611    0.379
       295 -10.5065    144.1364     35.6832   1.6745269836e+01   4.4266358591e+01    0.2640665    0.1849654 -48.58 0.0007618908    1.387    0.279
       296 -11.1075    133.8967     35.6089   1.8526137790e+01   4.6958834689e+01    0.3842215     0.192449 -43.32  0.001566007    1.958    0.489
       297 -10.9092     92.9922     37.5005   2.9219314333e+01   5.7233011961e+01    0.2113685     0.133329  85.33 0.0008096666    2.467    0.595
       298 -12.0764    173.4318     35.1385   1.2376690871e+01   3.6885352228e+01     0.310934    0.1919796 -47.78 0.0008724002    1.485    0.327
       299 -10.2259    122.8173     35.9241   2.0855038505e+01   4.9826987564e+01    0.2605938    0.1513819 -55.47  0.001074166    1.962    0.490
       300  -9.9680    128.3194     35.6513   1.9617647749e+01   4.8419587824e+01    0.1625156    0.1073939 -64.85 0.0007048575    1.736    0.424
       301 -10.7403    153.6108     33.3274   1.4460834833e+01   4.2119685975e+01    0.3015797    0.1822127 -47.75  0.001108271    1.587    0.370
       302 -10.3815    152.7670     29.0554   1.3153511117e+01   4.2879249757e+01    0.2807758    0.1339558 -32.40 0.0009716378    1.994    0.499
       303 -10.5165    117.1143     33.2166   2.1030141299e+01   5.1709446621e+01    0.2982757    0.1687476 -55.17  0.001211977    2.062    0.515
       304 -10.9787    189.7799     36.2242   1.0825957580e+01   3.2825908569e+01    0.2872508    0.1575439 -73.45 0.0007832766    2.190    0.543
       305 -12.1460    192.8424     30.0176   8.7892849257e+00   3.2866043164e+01    0.5593809     0.166146 -37.92  0.002149364    2.586    0.613
       306 -11.4993    181.2745     33.0092   1.0831273460e+01   3.5241848235e+01      0.28126    0.2288419  89.07  0.001200238    1.220    0.181
       307  -9.9402    164.3433     33.1269   1.2907259093e+01   3.9406095291e+01    0.2119864    0.1106142 -41.44 0.0006470913    1.745    0.427
       308 -10.6287    174.5788     28.9499   1.0375224630e+01   3.7367526760e+01    0.2821488    0.1360473 -40.59 0.0008483619    1.824    0.452
       309 -10.1094    149.4033     32.2255   1.4717752906e+01   4.3351496052e+01    0.2043862    0.1238125 -42.57 0.0005433224    1.566    0.361
       310 -10.1037    110.3167     32.6523   2.2373010841e+01   5.3568249204e+01    0.1602084    0.1106056 -66.68 0.0007048065    1.726    0.421
       311 -10.4815    144.1081     30.6899   1.5006680349e+01   4.4931330539e+01    0.2641748    0.1812107 -43.73 0.0009639414    1.403    0.287
       312 -10.6670    125.8435     30.4737   1.8131112363e+01   4.9781574163e+01    0.3178835    0.1675814 -46.65  0.001312813    1.947    0.486
       313 -11.1698     96.4800     29.9955   2.4823806104e+01   5.7516682449e+01     0.223231    0.1464487 -33.31 0.0009177509    1.575    0.365
       314 -10.8478     85.4989     28.9977   2.7683784121e+01   6.0406565654e+01    0.2149986    0.1144938 -54.47 0.0008103801    2.530    0.605
       315 -10.2858    187.8512     28.0835   8.7308516058e+00   3.4263684332e+01    0.2251874    0.1528542 -57.05 0.0008770743    1.343    0.255
       316 -11.3066    130.2451     26.6999   1.5866082576e+01   4.9100845922e+01    0.5709502    0.2691038 -64.52  0.001930893    3.233    0.691
       317 -10.7614    102.8227     29.7295   2.2992985394e+01   5.5929136699e+01    0.3053702    0.1764241 -56.35  0.001244759    2.135    0.532
       318 -10.9954    157.1189     26.4571   1.1699549941e+01   4.2071377927e+01    0.3519611    0.1400127 -44.47 0.0008988209    2.337    0.572
       319 -10.2953    136.6884     27.1280   1.4925898897e+01   4.7337190420e+01    0.2384516    0.1637916 -48.09   0.00110608    1.431    0.301
       320 -10.5849    179.6867     25.6791   8.8528121964e+00   3.6502862974e+01    0.3718363    0.1390881 -39.98  0.001509881    2.233    0.552
       321  -9.8658    172.4539     25.4529   9.5503582565e+00   3.8307232238e+01    0.1422638    0.1205498 -62.59 0.0001148679    1.054    0.051
       322 -10.9193    161.1747     22.4586   9.8912208495e+00   4.1497982455e+01     0.469393     0.115848 -37.59  0.001579433    3.154    0.683
       323 -10.3933    151.1229     25.1210   1.2050592426e+01   4.3784580881e+01    0.2099473    0.1467616 -51.91 0.0008035863    1.368    0.269
       324 -10.5612    145.2755     24.4235   1.2629442322e+01   4.5398660907e+01    0.4047275    0.1830433 -36.76  0.001662789    2.054    0.513
       325  -9.9590    109.3204     25.6924   1.9661127406e+01   5.4781383157e+01    0.1545263    0.1089665 -68.03 0.0005242063    1.640    0.390
       326 -10.4468    166.5238     23.0506   9.4641019173e+00   4.0070364500e+01    0.2088818    0.1307086 -30.85  0.001020112    1.556    0.357
       327 -10.7030    194.9960    113.7730   3.0245457428e+01   2.0118784176e+01    0.2553174    0.1545485 -45.68  0.000764318    1.653    0.395
       328 -10.3408    140.4040     22.1716   1.2537807409e+01   4.6949484645e+01    0.2147685    0.1181912 -41.69 0.0009455286    1.741    0.426
       329 -10.3433    120.6138     21.3006   1.5491942679e+01   5.2328155421e+01    0.2435044     0.156365 -61.18  0.001100705    1.727    0.421
       330 -10.8431    103.8565     21.1458   1.8920446226e+01   5.6796243519e+01     0.236128    0.1927376 -70.73  0.001075207    1.312    0.238
       331 -10.1787    151.5273     19.9877   1.0248046007e+01   4.4271565795e+01    0.2092401    0.1336058 -32.03 0.0008938552    1.544    0.352
       332 -10.4496    147.5124     20.1503   1.0823646845e+01   4.5304779078e+01    0.2101289    0.1353769 -31.74 0.0009907918    1.543    0.352
       333 -10.0957    127.3834     19.1959   1.3459037537e+01   5.0761406029e+01    0.2118158    0.1214928 -40.59 0.0009438859    1.715    0.417
       334 -10.4095    168.0144     17.8875   7.6844814296e+00   4.0269039833e+01    0.2388362    0.1331255 -57.70 0.0009299599    1.746    0.427
       335 -10.1211    224.3877    248.1885   4.9326293841e+01  -2.3675763037e+00     0.119079     0.085027 -28.66  0.000915501    1.705    0.413
       336 -10.3695     96.7880     17.8170   1.9076857942e+01   5.9050741630e+01    0.2068895    0.1655944 -68.07 0.0009302158    1.374    0.272
       337  -9.7883    174.5489     17.5199   6.9257689097e+00   3.8676415949e+01    0.1445026    0.1128265 -60.63 0.0001030517    1.141    0.124
       338 -10.6971    140.8635     16.9360   1.0574405658e+01   4.7415571104e+01    0.2606713    0.1873436 -39.89  0.001336077    1.360    0.265
       339 -10.4835    161.9945     15.4830   7.5453174977e+00   4.2054452840e+01    0.2368917    0.1225597 -38.83 0.0008140684    1.751    0.429
       340 -10.7281    218.1675    246.8684   5.0140584606e+01  -1.6014949743e+00    0.1794377    0.1270903 -32.60  0.001388483    1.808    0.447
       341 -10.4860    113.9967     16.0405   1.4541623553e+01   5.4700161192e+01    0.2452569    0.1609242 -65.26  0.001129545    1.715    0.417
       342 -11.0449     86.4365     16.2236   2.1035459427e+01   6.1906980061e+01    0.2014558    0.1289723 -41.37  0.000943743    1.655    0.396
       343  -9.7460    178.6698     15.3610   5.9019205524e+00   3.7891821060e+01    0.1546941   0.08147009 -57.16 0.0007040604    1.799    0.444
       344 -11.1061    232.4399    246.3062   4.7818434204e+01  -2.9775301958e+00    0.1959214    0.1376041 -19.01 0.0009962153    1.422    0.297
       345  -9.9382    195.6507     14.2694   4.2227129898e+00   3.3963620562e+01    0.1406318   0.07961357 -60.46 0.0004406768    1.623    0.384
       346  -9.9914    174.7367     12.3456   5.3458335230e+00   3.9171605093e+01    0.1462416   0.08335535 -54.49 0.0006976943    1.603    0.376
       347 -10.9119    209.1890    246.6171   5.1571580600e+01  -6.3865387796e-01    0.2033135    0.1620059 -34.08  0.001617564    1.822    0.451
       348 -10.8081    237.7471    244.1795   4.6718114955e+01  -3.2855989204e+00    0.1902291    0.1161004 -38.82  0.001275293    2.424    0.587
       349 -12.5353     30.4139    241.3519   8.6390815895e+01   2.0622943647e+01    0.3843952    0.1814583  74.92  0.002199791    2.283    0.562
       350 -10.5680    201.7901    242.2192   5.2226614675e+01   6.4324120881e-01    0.1416383    0.1140374  56.46 0.0009475265    2.752    0.637
       351 -10.8862    183.7862    240.3940   5.5126696763e+01   2.8919692341e+00    0.1753429    0.1373084 -88.59 0.0009528052    4.245    0.764
       352 -11.1290    225.2974    242.1584   4.8366308303e+01  -1.8440850328e+00    0.2147455    0.1536361 -26.22  0.001413509    1.591    0.371
       353 -10.3041    214.1488    240.2048   4.9892017652e+01  -4.7333147985e-01    0.1294712    0.1066539   7.11 0.0005475253    1.355    0.262
       354 -10.2825    219.5060    239.0808   4.8866529716e+01  -9.2023653871e-01    0.1402781    0.0884168 -26.19 0.0007794595    1.580    0.367
       355 -10.8875     68.3183     10.6575   2.3746520318e+01   6.7048409898e+01    0.1425373    0.1066713 -66.21 0.0004389507    1.717    0.418
       356 -11.2998    191.2482    236.4563   5.3277119459e+01   2.5035520865e+00    0.2577107    0.2058927 -84.04  0.001457656    4.040    0.752
       357 -11.1469    206.1201    236.4803   5.0714730205e+01   8.1443672843e-01      0.18698    0.1630094  41.64  0.001437453    1.949    0.487
       358 -10.5502    243.6548    236.1603   4.4712396382e+01  -3.0700632852e+00    0.1388636    0.1001688 -17.03 0.0006911993    1.374    0.272
       359 -11.3050    229.6944    235.1539   4.6699248701e+01  -1.5668350506e+00    0.2154082     0.166899 -27.08  0.001220543    1.660    0.398
       360  -9.9338    224.2648    236.5983   4.7758707282e+01  -1.1551690726e+00   0.08518693   0.07738978  -4.66 0.0005998423    1.733    0.423
       361 -10.1161    213.2769    111.6538   2.6866301228e+01   1.7073363198e+01    0.1301667   0.09332919 -54.26 0.0004153903    1.631    0.387
       362 -10.5076    236.4824    234.5077   4.5558927614e+01  -2.1922763203e+00    0.1482043   0.08597861 -36.79 0.0008705601    2.170    0.539
       363 -10.5391    240.1160    239.9070   4.5769229253e+01  -3.0957352005e+00    0.1410843     0.108674   1.02 0.0006368339    1.300    0.231
       364 -10.8222    248.1191    233.9257   4.3734702607e+01  -3.2826308963e+00    0.1419667    0.1064965  -2.96 0.0005812029    1.247    0.198
       365 -11.2591    215.3481    233.4866   4.8761382244e+01   1.3564084480e-01    0.2011203    0.1794676 -25.17  0.001376636    1.740    0.425
       366 -12.6526     22.2272    235.6063   8.7894607818e+01   2.2425571246e+01    0.3772677    0.1220687  57.61  0.001835268    2.606    0.616
       367 -10.8932    218.9213    109.9230   2.5659222377e+01   1.6329649992e+01    0.1975015    0.1416956 -54.04 0.0005927982    1.621    0.383
       368 -10.7005    240.2177    230.7375   4.4450989162e+01  -2.1824112150e+00    0.1611541    0.1105265 -21.16 0.0009384957    1.399    0.285
       369 -10.6734    223.3676    226.1534   4.6405103685e+01   7.6713354214e-02    0.1720415     0.119852 -28.72  0.001231298    1.561    0.359
       370 -12.3905     27.0651    229.1114   8.6611498400e+01   2.3162724104e+01    0.3240252    0.1597341 -86.44  0.001811714    2.242    0.554
       371 -11.5934    235.2175    227.9918   4.4813313424e+01  -1.3848691139e+00    0.2965664    0.1421368 -29.20  0.001394226    1.929    0.482
       372 -11.0729    229.0386    226.9886   4.5626945513e+01  -6.2714275308e-01    0.2391528    0.1244093 -32.43  0.001269945    1.927    0.481
       373 -10.2774    211.5843    226.3359   4.8361181002e+01   1.3683810521e+00    0.1788369   0.09555721 -36.29   0.00112215    2.045    0.511
       374 -12.1659     20.6726    248.8760   8.8649648014e+01   2.0238550333e+01    0.3864814    0.1807734  50.06  0.002121024    1.535    0.349
       375 -11.9100    247.0023    224.7812   4.2568441419e+01  -2.2539488867e+00    0.2723291    0.1681037  -0.94  0.001212377    1.244    0.196
       376 -12.9743    247.5737    214.4761   4.0931452330e+01  -1.2357393003e+00    0.6376215    0.2149318 -28.70  0.003236225    2.648    0.622
       377 -10.9260    246.6071    205.7702   3.9715836143e+01  -1.9017564630e-01    0.2060834    0.1046892 -32.75  0.001064894    1.857    0.462
       378 -10.4525    205.9783    224.9807   4.9110544922e+01   2.1721795254e+00    0.1445514    0.1350916  26.38  0.001131538    1.711    0.416
       379 -12.4359     19.0177    223.5182   8.8161121021e+01   2.4974209981e+01    0.3050751    0.1409851  68.53  0.001682131    2.027    0.507
       380 -10.5201    217.0036    222.9703   4.6969957699e+01   1.1448848810e+00    0.1416805    0.1311204  18.71 0.0009036468    1.710    0.415
       381 -11.6484    239.7897    218.5504   4.2711984728e+01  -8.5559460031e-01    0.4521682    0.1587526 -33.32  0.002479916    2.647    0.622
