#   1 NUMBER                 Running object number                                     
#   2 MAG_AUTO               Kron-like elliptical aperture magnitude                    [mag]
#   3 X_IMAGE                Object position along x                                    [pixel]
#   4 Y_IMAGE                Object position along y                                    [pixel]
#   5 X_WORLD                Barycenter position along world x axis                     [deg]
#   6 Y_WORLD                Barycenter position along world y axis                     [deg]
#   7 A_WORLD                Profile RMS along major axis (world units)                 [deg]
#   8 B_WORLD                Profile RMS along minor axis (world units)                 [deg]
#   9 THETA_WORLD            Position angle (CCW/world-x)                               [deg]
#  10 FWHM_WORLD             FWHM assuming a gaussian core                              [deg]
#  11 ELONGATION             A_IMAGE/B_IMAGE                                           
#  12 ELLIPTICITY            1 - B_IMAGE/A_IMAGE                                       
         1 -14.0161    160.3839    102.8852   3.8036847255e+01   2.9549433914e+01     6.866068     1.917712 -38.07    0.0209735    3.751    0.733
         2 -14.0483    177.5792     94.9220   3.3087718653e+01   2.7559033974e+01     2.654577     1.343027 -23.76 0.0009250551    3.155    0.683
         3 -14.6020    247.3689     46.5825   1.4787046300e+01   2.1889384299e+01     2.668534     1.680442  56.25   0.01635044    2.231    0.552
         4 -11.0494    190.8597     34.8274   1.6253718999e+01   3.3863472914e+01    0.7990448    0.3680092 -17.11  0.002982849    4.055    0.753
         5 -14.4646    244.0068     28.6561   1.1324675600e+01   2.4522929539e+01     3.121517     1.627236 -72.54   0.01936404    1.956    0.489
         6 -14.8575    238.3555     82.8108   2.2873027206e+01   1.8679165886e+01     2.123163     1.219268 -26.81   0.01241483    1.722    0.419
         7 -16.2060    239.7051     99.4136   2.6078277867e+01   1.6191924584e+01     4.267628     3.338967  34.30   0.02383003    1.749    0.428
         8  -8.9797    156.4997      8.4257   1.1714865663e+01   4.4688083385e+01     0.242951    0.1221687 -27.17 0.0009717594    2.037    0.509
         9  -9.6088    204.5399      5.2497   8.0361748316e+00   3.4353799975e+01     0.287367    0.1618341 -37.94  0.001152985    1.445    0.308
        10 -11.0111    183.3893      3.7969   8.6859524819e+00   3.8961944493e+01    0.4591134    0.2117708 -66.09  0.002327317    1.886    0.470
        11  -8.3679     97.8585      2.1897   1.5636713698e+01   6.0162743240e+01    0.1759321    0.1469099  53.89 0.0003564809    1.270    0.213
        12 -12.7955    214.5014    180.4617   4.4510867203e+01   7.7916399839e+00     1.106546    0.7146232 -47.12  0.003649659    1.796    0.443
        13  -8.5107     99.4845    250.4786   7.6566060084e+01   1.0083071883e+01    0.1187539   0.09292495  22.54 0.0002664853    1.013    0.012
        14 -14.3836    228.0319    168.7445   4.0498737440e+01   7.8755347094e+00       3.9044      1.75478 -24.86   0.01579025    2.365    0.577
        15  -9.8947    221.6461    212.5842   4.8509691735e+01   2.6356621638e+00    0.1844405    0.1573468   1.92 0.0007366495    1.344    0.256
        16 -12.3219    191.1442    162.0311   4.5079551825e+01   1.3657915609e+01    0.8273442    0.4823521 -47.80  0.001212243    1.774    0.436
        17 -12.0906    191.6777    153.0564   4.3298894450e+01   1.5073757419e+01    0.6970005    0.4615725 -31.66  0.003062401    1.337    0.252
        18 -11.2213    177.8712    169.5047   4.8834776777e+01   1.4275193699e+01    0.3513578    0.3383362 -14.05  0.002409975    1.211    0.174
        19 -10.7524    186.1965    169.2013   4.7258660815e+01   1.3159564411e+01    0.2768524    0.2523735 -52.46  0.001664573    1.376    0.273
        20  -9.0785    165.3702    164.1618   5.0270569625e+01   1.7054995966e+01    0.1824042    0.1177115 -51.75 0.0004133548    1.684    0.406
        21  -8.0922     24.7183    164.6578   8.8797299177e+01   3.6919129572e+01    0.1411329    0.1035437 -43.56 0.0005643706    1.632    0.387
        22  -9.1435    214.0019    162.0504   4.1378967200e+01   1.0574082922e+01    0.2768967    0.1898858 -65.58   0.00147161    2.868    0.651
        23 -10.5813    168.6647    155.8259   4.8038921012e+01   1.8077098110e+01    0.2602817    0.2164086 -24.64  0.000701333    1.112    0.101
        24  -9.7135    129.4539    119.0184   4.8734009404e+01   3.2486377493e+01    0.3510562    0.2512966  79.55  0.001153148    1.971    0.493
        25 -10.7923    133.5508    144.1800   5.3323471833e+01   2.6245631151e+01     2.018449    0.4497278 -54.90  0.003937588    9.514    0.895
        26 -11.0048    142.6616    131.4958   4.8481749974e+01   2.7289890322e+01    0.4582124    0.3171331  23.21  0.001694735    1.810    0.448
        27 -12.2550    135.9761    126.6595   4.8943424050e+01   2.9566559273e+01     1.913158     0.460458 -47.14  0.005479154    3.983    0.749
        28 -10.8094    134.9003    111.8173   4.5663058127e+01   3.2944447659e+01    0.6616663    0.2310339 -48.60  0.002215754    2.804    0.643
        29 -10.5255    135.1220    103.9604   4.3618526685e+01   3.4550893521e+01    0.4591679     0.337279 -41.05   0.00129946    1.340    0.254
        30 -11.4935    173.4645    148.5157   4.5681277523e+01   1.8653722209e+01     0.618912    0.2849638 -32.62  0.002617863    2.387    0.581
        31 -11.6250     67.6216    143.9895   7.2188391117e+01   3.7321611990e+01    0.8877268    0.4564168  47.13  0.003437069    1.937    0.484
        32 -13.2518    232.9252     95.7633   2.6053950547e+01   1.7722983133e+01    0.5195737    0.4552776 -79.63  0.003644525    1.387    0.279
        33 -12.8064      2.6849    133.7451   9.4442153069e+01   4.7097303761e+01     2.413707    0.9047648 -56.07  0.007943771    2.775    0.640
        34 -13.1488     15.6098    137.5893   8.9872918737e+01   4.5109294182e+01     1.704949     1.466569 -67.75   0.00943011    1.198    0.165
        35 -13.6807     48.1637    127.5946   7.6399590884e+01   4.4506975504e+01     2.687029     1.487343  16.67   0.00253262    2.165    0.538
        36 -13.3143     39.7937    126.6422   7.9449906803e+01   4.5813891604e+01     1.552127      1.07748  32.53 0.0007680301    1.413    0.292
        37 -12.5225     32.0938    128.1352   8.2637350982e+01   4.6252205214e+01     1.026175    0.5033628  26.52  0.001267811    1.995    0.499
        38 -10.5807    245.8360    185.4648   4.0830505974e+01   3.7083510555e+00    0.1876222    0.1543735 -16.34 0.0005267521    1.233    0.189
        39  -8.4374     58.7113    183.7337   8.0166566995e+01   2.8357755695e+01    0.1312202    0.1072091 -20.20 0.0002158779    1.500    0.333
        40 -11.1741    210.5509    136.9254   3.7171587407e+01   1.4922373934e+01    0.3572175    0.2286334 -24.01 0.0008452919    1.533    0.348
        41 -11.0055    213.4917    129.5676   3.5294232108e+01   1.5638954771e+01    0.3895973    0.1887276 -37.16  0.001551185    1.685    0.407
        42 -10.0292    208.6427    126.8605   3.5440963723e+01   1.6798430676e+01     0.227176    0.1831986  44.51 0.0008203621    1.506    0.336
        43  -9.7376    220.9236    136.5490   3.5626492620e+01   1.3496572917e+01    0.1893944    0.1433417 -46.10 0.0007517207    1.306    0.234
        44 -13.4998    199.0981    101.1702   3.1327425566e+01   2.2500012124e+01     1.911016    0.6361499  49.36  0.007728699    3.558    0.719
        45 -12.2908    141.6748    122.0772   4.6565096714e+01   2.9441687223e+01    0.9837801    0.4477883 -48.62  0.003881065    2.121    0.529
        46  -9.8169    147.4922    135.5243   4.8283493932e+01   2.5576682730e+01    0.2450458    0.2250981 -42.93 0.0005446514    1.040    0.039
        47 -10.0068    149.4398    177.2449   5.5930434272e+01   1.6986518366e+01    0.3321753    0.2350238 -67.35  0.001375259    2.026    0.507
        48  -8.8756    125.1901    132.8173   5.2971159709e+01   3.0249183095e+01    0.2093589    0.1749765 -18.90 0.0006726397    1.378    0.274
        49  -9.8078    248.1120    177.8672   3.9303838971e+01   4.4472583747e+00    0.2494305    0.1811526  10.22  0.001932468    1.440    0.305
        50  -8.7366     91.1045    118.7001   5.9489990822e+01   4.0008598339e+01    0.2118875    0.1944369  41.32 0.0003256299    1.110    0.099
        51  -9.6689    126.0015    113.0202   4.8132432545e+01   3.4494203141e+01    0.2886781    0.2009819  29.93  0.001301686    1.745    0.427
        52 -11.7403    126.6335    105.6275   4.6095427162e+01   3.5977788904e+01    0.7585207     0.460392 -64.49  0.003035738    2.048    0.512
        53 -10.9651    150.0900    109.2952   4.1666093444e+01   3.0384632206e+01    0.3781541      0.32045 -50.59  0.000665296    1.098    0.089
        54  -9.9479    143.1440    110.1641   4.3372144592e+01   3.1613328814e+01      0.21464    0.2030705  -5.55 0.0005704666    1.180    0.153
        55  -8.7223    108.6986    107.4598   5.1374355697e+01   3.9292679588e+01    0.2080333    0.1522212  31.88 0.0009369108    1.564    0.361
        56 -10.8275    112.9770    104.7493   4.9458810799e+01   3.9032153073e+01    0.3822397    0.3313655 -54.04  0.001672138    1.124    0.110
        57 -10.3673    143.8516    100.5996   4.0795057401e+01   3.3400874760e+01    0.3332948    0.2664061 -71.95 0.0008180703    1.362    0.266
        58  -8.8411    113.0890     95.6983   4.6966679043e+01   4.1045364853e+01    0.2090566    0.1989011  59.26 0.0003591064    1.088    0.081
        59  -8.8710    171.6450    178.0370   5.1531612327e+01   1.3676836760e+01    0.1799898    0.1479738 -30.05  0.001074475    1.131    0.116
        60  -9.6101    202.8570    172.7372   4.5037936933e+01   1.0374642401e+01    0.2092789     0.149018 -58.20  0.001224062    2.092    0.522
        61  -9.9362    127.2378     84.7408   4.0195770839e+01   4.0226483358e+01    0.3640316    0.2444039 -40.74 0.0008322952    1.488    0.328
        62  -9.4145    170.8551     79.7819   3.0363430928e+01   3.1513642273e+01    0.2625163    0.1742968 -45.80  0.000352791    1.315    0.240
        63  -8.0967     85.7056     80.2835   5.0827401450e+01   5.0473071552e+01    0.1568052    0.1208884  84.59 0.0002026337    1.539    0.350
        64  -9.9355    150.5570     70.5111   3.1230515471e+01   3.7557614530e+01    0.3994255    0.2625681 -58.78  0.001865197    1.513    0.339
        65  -8.9654    210.5793     70.7501   2.3033673622e+01   2.5069476201e+01    0.2422322    0.1059459 -33.00  0.001129212    2.043    0.511
        66 -11.1046    206.7688     64.5966   2.2013302460e+01   2.6656891659e+01    0.5569294    0.2792819 -25.74  0.000416613    2.335    0.572
        67 -10.2056    208.1429     59.5886   2.0707661312e+01   2.7097750320e+01    0.3139974    0.1966183 -26.98 0.0004664051    1.685    0.406
        68 -10.2956    136.1646     61.3747   3.1175869410e+01   4.2504111406e+01    0.3135203    0.2560696 -45.96  0.001660975    1.181    0.153
        69 -10.1046    184.0197     54.1546   2.1921192647e+01   3.2718028868e+01    0.3466944    0.1656835 -51.20 0.0003334543    1.852    0.460
        70 -10.9388    178.4789     50.2727   2.1538915296e+01   3.4464739604e+01    0.5089421    0.2841488 -30.98  0.002487255    1.793    0.442
        71 -10.3698    192.0260    144.2259   4.1520845139e+01   1.6504944610e+01    0.2837747    0.1996032 -37.52 0.0004155773    1.229    0.187
        72  -9.8956    141.0955     51.4135   2.7141779102e+01   4.2946988967e+01    0.2390612    0.1934198 -33.25 0.0006270451    1.333    0.250
        73 -12.1200    136.9243     43.6961   2.5359902543e+01   4.5146618519e+01     0.847383    0.4513665 -47.47  0.003784411    1.742    0.426
        74 -11.2006    186.4053     47.3706   1.9904730499e+01   3.3162152191e+01    0.8048341    0.4978414  -1.71   0.00331376    3.669    0.727
        75  -9.2270    185.9485    208.7576   5.3852210332e+01   6.9431666647e+00    0.1688175    0.1292718  49.69  0.001074273    2.054    0.513
        76  -9.8412    193.0000     29.9881   1.4844552613e+01   3.4008233904e+01    0.3051939    0.1524821 -33.50 0.0008279606    1.773    0.436
        77  -8.5783    225.1264    207.7891   4.7259294416e+01   2.9097061714e+00    0.1461169      0.12208 -10.70 0.0007760947    1.265    0.210
        78  -8.2515    122.3164     48.3204   2.9638109761e+01   4.8070066392e+01    0.1433523    0.1165064  27.66 0.0007041051    1.659    0.397
        79  -9.4256    174.7118     43.9945   2.0273391114e+01   3.6173316146e+01    0.1846298    0.1503343 -49.80 0.0002939359    1.091    0.083
        80 -10.5452    167.7285     42.2665   2.0596609583e+01   3.7989301468e+01    0.3803615    0.2396465 -15.38  0.001708299    2.299    0.565
        81 -10.7672    147.1839     40.6113   2.2779052563e+01   4.3075450071e+01    0.3123385    0.1767608  48.29  0.001399424    2.188    0.543
        82  -9.3274    180.2458     38.0480   1.8078243262e+01   3.5743335866e+01    0.2127741    0.1814356 -52.09  0.000508104    1.108    0.098
        83  -9.1629    143.3375     37.3097   2.2283165453e+01   4.4477161154e+01    0.1359545     0.108041  36.28 0.0007043962    1.684    0.406
        84  -9.1575    198.2090     35.3404   1.5769214233e+01   3.2266237750e+01    0.1876422    0.1490309 -38.80  0.000457748    1.225    0.184
        85  -9.2555    173.2102     35.3955   1.8064646891e+01   3.7658267481e+01    0.1821223    0.1129975 -84.84 0.0004377175    1.647    0.393
        86 -10.4587    204.2049    201.8173   4.9638023571e+01   5.9023963808e+00    0.2772402    0.2214111 -28.37 0.0009230269    1.252    0.201
        87  -9.6073    144.4866     31.9488   2.0393208725e+01   4.4913778057e+01    0.2062963    0.1311549 -33.85 0.0006994166    1.572    0.364
        88  -9.1247    123.0036     31.7444   2.3584745611e+01   5.0346685080e+01    0.2027768    0.1761422 -87.18 0.0006230087    1.041    0.039
        89  -8.9182    185.3938     27.9620   1.4932738159e+01   3.5881809800e+01    0.2204216    0.1588088 -14.24   0.00101308    1.857    0.461
        90 -10.9138    192.9579    195.0125   5.0465111713e+01   8.1882002833e+00    0.7969077    0.4189131 -59.60  0.002993943    5.591    0.821
        91  -9.1609    189.8242     14.9210   1.1216927407e+01   3.6415163408e+01    0.2326906    0.1473344 -66.74  0.001051236    1.332    0.249
        92 -11.1717    199.5892    163.7725   4.3972892687e+01   1.2209614484e+01    0.4619299    0.4118517 -55.58  0.001935582    1.457    0.314
        93  -9.0743    115.0611    200.1986   6.7354885651e+01   1.7348610196e+01    0.1829618    0.1566127   1.69 0.0003044567    1.150    0.131
        94  -8.3517     24.4008    243.8273   9.3043017206e+01   1.8831390427e+01    0.1306572    0.1090252 -69.95 0.0002947909    1.514    0.340
        95  -9.9987    244.2187    229.1824   4.7605897541e+01  -1.3839546797e+00    0.2271409    0.1192695  34.20  0.001572496    2.493    0.599
