#   1 NUMBER                 Running object number                                     
#   2 MAG_AUTO               Kron-like elliptical aperture magnitude                    [mag]
#   3 X_IMAGE                Object position along x                                    [pixel]
#   4 Y_IMAGE                Object position along y                                    [pixel]
#   5 X_WORLD                Barycenter position along world x axis                     [deg]
#   6 Y_WORLD                Barycenter position along world y axis                     [deg]
#   7 A_WORLD                Profile RMS along major axis (world units)                 [deg]
#   8 B_WORLD                Profile RMS along minor axis (world units)                 [deg]
#   9 THETA_WORLD            Position angle (CCW/world-x)                               [deg]
#  10 FWHM_WORLD             FWHM assuming a gaussian core                              [deg]
#  11 ELONGATION             A_IMAGE/B_IMAGE                                           
#  12 ELLIPTICITY            1 - B_IMAGE/A_IMAGE                                       
         1 -14.1951    200.2440     19.0896   6.4307469416e+01   3.3079168135e+01     1.511828     1.465573  30.03  0.007206951    1.314    0.239
         2 -14.1211    206.6367     11.8151   6.1866930882e+01   3.2362808629e+01     3.347868     1.785759  30.22  0.001488131    4.348    0.770
         3 -12.6711      2.0595     14.0226   1.1635952203e+02   7.0627586700e+01    0.7057215    0.3567627  -6.70  0.004407118    2.095    0.523
         4 -12.7130      1.9061      6.0791   1.1317936582e+02   7.1742674394e+01    0.8233681    0.4492306   4.81  0.005684217    1.775    0.437
         5 -11.9257      1.9989     26.1347   1.2082761192e+02   6.8791814824e+01    0.7982473   0.05922265 -49.24  0.002790591    5.343    0.813
         6 -12.0418    139.7543    248.6788   1.2709143618e+02   3.5660224680e+00     0.416457    0.3401514 -82.95  0.002660316    1.420    0.296
         7 -11.3474    248.2063    249.3531   1.0699494098e+02  -1.4121287556e+01    0.3785778    0.2114395  29.94  0.002248929    1.545    0.353
         8 -11.7606    123.2316    249.6615   1.3035120545e+02   6.1700871361e+00    0.4638761    0.1633332  49.37  0.001959964    2.460    0.594
         9 -12.8657    104.9711    244.7843   1.3322699638e+02   1.0033841050e+01      0.83394    0.3865131  61.42  0.003770572    2.433    0.589
        10 -13.3830     89.7199    245.5113   1.3615107444e+02   1.2290749810e+01    0.9268641     0.515153  55.49   0.00222359    1.506    0.336
        11 -12.1151    100.8967    249.1910   1.3447298623e+02   9.8715454052e+00    0.5844671    0.3607444 -89.29  0.003257396    1.897    0.473
        12 -13.8891     77.9838    231.6032   1.3691086136e+02   1.6764357095e+01     1.752303    0.8114591  35.11  0.001793909    2.547    0.607
        13 -13.3222     35.5703    247.5108   1.4583643158e+02   1.9365866083e+01     1.175357    0.7069334  57.24   0.00789957    1.326    0.246
        14 -12.3038      3.3194    245.7556   1.5088546532e+02   2.3294704353e+01    0.9879973    0.4568234  88.44  0.006252176    1.726    0.421
        15 -13.1766     14.3331    240.1162   1.4883842030e+02   2.3207327504e+01      1.28078    0.6478577  58.30   0.00829483    1.562    0.360
        16 -15.8541      7.6305    206.2309   1.4781214384e+02   3.0691786282e+01     9.002675     1.189598 -71.44   0.03138939    4.904    0.796
        17 -11.0490     33.3078    207.4890   1.4313736911e+02   2.7728120905e+01    0.4447861    0.2101225  84.28 -0.000212852    2.214    0.548
        18 -10.3147    228.3503    205.0820   1.0265624607e+02  -4.7501358788e+00    0.2675869    0.2215564 -55.71 0.0008531125    1.581    0.367
        19 -10.3866    193.2614    195.4089   1.0764391853e+02   3.3674785444e+00    0.7971048    0.3859792 -63.22  0.002171184    6.216    0.839
        20 -11.8486     67.6798    193.2869   1.3463013995e+02   2.6478626033e+01    0.4214923    0.2752059 -43.66  0.001469943    2.099    0.524
        21 -11.8069     72.7999    186.0517   1.3256417607e+02   2.7397681276e+01    0.3061095    0.2328886 -54.50 0.0007605787    1.438    0.305
        22  -8.6473    181.5159    192.4804   1.0950478377e+02   6.2194605773e+00     0.143674     0.135795  30.83 -2.042627e-05    1.008    0.008
        23 -11.1609     81.7033    174.4191   1.2883690968e+02   2.8776605980e+01    0.2505515    0.2201413 -77.21 0.0002732675    1.076    0.070
        24 -13.3262     69.1531    171.7923   1.3138986372e+02   3.1251479242e+01    0.5085516     0.280617 -45.08    0.0015204    2.240    0.554
        25 -12.5318     88.4560    166.0172   1.2586119762e+02   2.9703275203e+01     2.024781    0.6358793  50.41  0.002839021    3.955    0.747
        26 -13.3025     68.0879    145.3862   1.2741091075e+02   3.7706348829e+01     1.450188     0.786931  89.52  0.002866298    3.102    0.678
        27 -12.5203     31.7184    155.6102   1.3802998622e+02   3.9610281529e+01    0.4555795    0.3680403 -65.28  0.002972328    1.170    0.145
        28 -10.0242    100.8711    149.7151   1.1975928086e+02   3.1510807188e+01    0.2974361    0.2558225 -45.39 0.0008184997    1.229    0.186
        29  -9.5464    103.4502    146.0207   1.1834972741e+02   3.1935852183e+01    0.3346573    0.2273206 -30.04  0.001447552    2.014    0.503
        30 -12.2215     89.5422    148.9901   1.2252139625e+02   3.3601720913e+01    0.2931142    0.2571892 -39.28 0.0006408534    1.280    0.219
        31 -13.0171     43.0248    225.9305   1.4290064946e+02   2.2696078269e+01    0.3776647    0.3129046  86.01 0.0009965606    1.186    0.157
        32  -9.7652    111.2972    135.5954   1.1406653488e+02   3.2964562001e+01    0.3130374    0.2348636 -11.43  0.001116967    1.987    0.497
        33 -10.6580     98.7498    132.7084   1.1674917207e+02   3.5930066591e+01    0.2775191    0.2347407 -26.20 0.0009056449    1.382    0.277
        34  -9.8187    231.2034    168.5918   9.4763374892e+01   9.6184847402e-01    0.2941973    0.1621122 -63.75 0.0009616538    4.299    0.767
        35 -12.3750     57.6424    130.8263   1.2756955929e+02   4.2557739298e+01     2.783015    0.7970157 -69.18  0.005597221    9.965    0.900
        36  -9.3748    107.9878    122.9614   1.1201365618e+02   3.6532172652e+01    0.2128028    0.2028995 -47.08            0    1.049    0.047
        37 -10.8259    168.0209    113.0552   9.4544418413e+01   2.5750665311e+01    0.3822204    0.3001046 -83.36 0.0007669624    1.560    0.359
        38  -9.6996    204.8587    110.6328   8.6422561491e+01   1.7554083289e+01    0.3821962    0.2218687  34.68  0.001495015    2.351    0.575
        39 -15.5428     52.4059    215.6169   1.4021195563e+02   2.3648500729e+01     7.015034     1.365617  44.02    0.0127463    3.910    0.744
        40 -11.0703     44.2575    109.4477   1.2725579954e+02   4.9076539134e+01    0.2627368     0.221782 -61.60  0.001651662    1.049    0.047
        41 -10.5068      1.8545     89.3036   1.3638295138e+02   5.6872899659e+01    0.2063239    0.1293801 -70.96  0.000959435    1.378    0.274
        42 -11.1576      2.0766     81.4158   1.3490056247e+02   5.8513317102e+01    0.3810363    0.1128754 -64.92  0.001690808    2.668    0.625
        43  -9.3137    128.6731     54.9268   8.7095739700e+01   4.5668963132e+01     0.195126    0.1833371 -40.88 0.0008173028    1.136    0.119
        44 -11.0384    116.6852     47.3232   8.7625550203e+01   4.9436093699e+01    0.4072834    0.2922285  81.42   0.00117065    2.111    0.526
        45 -10.7097    143.1540    241.4201   1.2546566911e+02   4.2385943318e+00    0.1903654    0.1582869 -75.56 0.0005469169    1.388    0.280
        46 -11.5665     19.4884    229.5710   1.4732096319e+02   2.4707706366e+01    0.3836614    0.2939845  66.65  0.002879671    1.197    0.165
        47  -9.1342    111.3406    209.3017   1.2742299821e+02   1.6028916557e+01    0.1274627    0.1112007  -3.04 0.0006599297    1.672    0.402
        48  -9.4308     49.9916    244.7510   1.4319284961e+02   1.8077186638e+01    0.2012867   0.09095849  62.61 0.0009625462    1.979    0.495
