#   1 NUMBER                 Running object number                                     
#   2 MAG_AUTO               Kron-like elliptical aperture magnitude                    [mag]
#   3 X_IMAGE                Object position along x                                    [pixel]
#   4 Y_IMAGE                Object position along y                                    [pixel]
#   5 X_WORLD                Barycenter position along world x axis                     [deg]
#   6 Y_WORLD                Barycenter position along world y axis                     [deg]
#   7 A_WORLD                Profile RMS along major axis (world units)                 [deg]
#   8 B_WORLD                Profile RMS along minor axis (world units)                 [deg]
#   9 THETA_WORLD            Position angle (CCW/world-x)                               [deg]
#  10 FWHM_WORLD             FWHM assuming a gaussian core                              [deg]
#  11 ELONGATION             A_IMAGE/B_IMAGE                                           
#  12 ELLIPTICITY            1 - B_IMAGE/A_IMAGE                                       
         1 -16.7884    136.0673    103.3899   8.1697774501e+01   3.4729895863e+01     6.139004     3.403596 -46.40   0.02397772    1.792    0.442
         2 -15.6802     24.1315     70.9967   1.0894176307e+02   5.9477960372e+01     2.168505     1.560992  23.87   0.01359079    1.674    0.402
         3 -15.9282     68.8607     50.9114   8.5710237469e+01   5.8506856728e+01     3.669881     2.779606  -5.96   0.02032809    1.395    0.283
         4 -16.4112     31.0525    102.2849   1.1286187337e+02   5.1715026130e+01     2.922263     2.565685  48.66   0.01938424    1.332    0.249
         5 -13.5779      6.6731     51.1726   1.1112207577e+02   6.4871577754e+01     1.499862     0.542423 -50.79  0.007618313    1.918    0.479
         6 -12.9419    249.6703     49.4019   4.6411842817e+01   1.6765824651e+01      1.59952    0.3837411 -31.50  0.005088654    3.981    0.749
         7 -13.7079     16.5469     10.3258   9.1958341226e+01   7.1795018081e+01     1.302544    0.7908484 -14.45  0.007969321    1.512    0.339
         8 -14.7669    188.1438      9.0231   4.2871399370e+01   3.6627404631e+01     2.494536    0.9764881  60.45    0.0103185    2.230    0.552
         9 -13.9825    164.0965      5.5733   4.4848411531e+01   4.3138558613e+01       1.5185    0.8591912  75.44  0.007208861    1.670    0.401
        10 -11.3263     55.0265     12.1178   7.4502187426e+01   6.6774635943e+01    0.3138982    0.2533864  -8.44  0.001935381    1.084    0.078
        11 -12.0152     55.9901      4.5239   7.0267613045e+01   6.7519613682e+01    0.6218665    0.4290209  16.15  0.003298936    1.289    0.224
        12 -12.2737    102.5363    107.5529   9.2051521134e+01   4.0693414609e+01    0.4228162     0.253248  37.89  0.001834758    1.782    0.439
        13 -12.3446    108.3999    141.0460   9.8130796157e+01   3.1758021375e+01    0.7073777     0.471806  71.15   0.00307607    1.959    0.490
        14  -9.6450     51.5229    149.4605   1.1434691544e+02   3.8306791575e+01    0.1323582    0.1120394 -85.96 0.0001197053    1.005    0.005
        15  -9.7016     90.4589    145.2184   1.0362351630e+02   3.3857600331e+01    0.2035122    0.1323671 -74.53 0.0007171977    1.663    0.399
        16 -14.6881    148.0830    132.1156   8.6083536561e+01   2.5816893655e+01      1.81957    0.9328005  43.99  0.006954778    1.945    0.486
        17 -10.5469    174.4489    105.7932   7.3214501830e+01   2.5266900243e+01    0.4572411    0.2827795  88.71   0.00143864    3.681    0.728
        18 -13.4815    188.3591    116.6465   7.3122752177e+01   1.9860921448e+01     1.516358    0.7201662  31.36  0.004709002    3.509    0.715
        19 -14.0161    185.1977    110.1770   7.2099155120e+01   2.1852452884e+01     1.706934     1.040848  23.00  0.006298555    2.570    0.611
        20 -11.6323    173.1727     97.7022   7.1277907815e+01   2.7157045497e+01    0.3847395    0.2686848 -22.62  0.001654807    1.659    0.397
        21 -12.7600     23.6127    133.6503   1.1950666705e+02   4.4916257368e+01    0.3869148    0.3125582  50.47  0.002572569    1.367    0.268
        22 -11.7215     81.1695    114.4244   9.9967257643e+01   4.2720161329e+01    0.4034405     0.222129 -75.95    0.0015243    2.713    0.631
        23 -10.7597    182.6029    129.5660   7.7574745581e+01   1.8650701069e+01    0.2732761     0.196288 -39.33 0.0006901119    1.381    0.276
        24 -12.3973     86.7597    119.2551   9.9413084149e+01   4.0676109658e+01    0.4499888    0.3963909 -81.77  0.002482949    1.142    0.124
        25 -10.8331    239.5969    243.5060   8.9185242943e+01  -9.7764386742e+00    0.2401341   0.09174877  37.32  0.001215078    2.179    0.541
        26 -12.0329     15.1821    230.1118   1.2868453526e+02   2.5088409137e+01    0.3029608    0.1721023 -75.57  0.002096507    1.677    0.404
        27 -11.9854    180.0728     87.8556   6.7075059478e+01   2.7322170901e+01    0.5315478    0.2750261  51.01  0.002065194    1.938    0.484
        28 -13.8153     90.0285     83.5580   8.9228601406e+01   4.8365849212e+01     1.539232     0.553469 -38.37  0.004938211    3.277    0.695
        29 -14.0708    104.5004     76.3950   8.2521387240e+01   4.7155792949e+01     1.187018    0.8106342  35.70  0.005071995    1.546    0.353
        30 -14.0404    101.5957     69.6398   8.1212440132e+01   4.9091261464e+01      1.47186    0.7854549  40.52  0.006027815    1.945    0.486
        31 -10.1804    103.2525    127.9755   9.6718810546e+01   3.5771363635e+01    0.2103975    0.1879766 -62.25 0.0004754316    1.071    0.066
        32 -10.9511     72.7451     84.3949   9.5105771697e+01   5.0998594167e+01    0.2290463    0.1829809  16.67 0.0006356673    1.430    0.301
        33 -13.7208     91.3627    189.0422   1.1024535919e+02   2.3727164591e+01     1.997215      1.27544  82.72   0.01010311    1.815    0.449
        34 -11.9488     85.6295    108.7155   9.7320037090e+01   4.3368329741e+01    0.3552471    0.2576327  -5.28  0.001113283    2.046    0.511
        35 -11.2139      8.6792    186.6722   1.2746044159e+02   3.4308361583e+01    0.3344606    0.1561016 -68.44  0.001938822    1.904    0.475
        36 -12.2343    176.8385     71.5385   6.3019466087e+01   3.1038745327e+01    0.6649648    0.4337701  75.01  0.002548469    1.893    0.472
        37 -12.4727    177.2866     65.2827   6.1084189063e+01   3.1976131582e+01     1.149029    0.6979517  77.30  0.004566192    2.166    0.538
        38 -12.4150     89.7066    105.4106   9.5289904359e+01   4.3468888990e+01    0.4618545    0.2561056 -43.59    0.0019759    1.778    0.438
        39 -10.1247    221.5229     70.9784   5.5269572682e+01   2.0036413108e+01    0.2318704    0.1370014 -34.17  0.001036694    1.605    0.377
        40 -14.5277     67.9324    197.3527   1.1628799718e+02   2.5371948031e+01     2.839416     1.113471  55.66   0.01222822    2.610    0.617
        41 -11.7874     15.7389     54.9814   1.0831284498e+02   6.3536444120e+01    0.3641847    0.3113746  58.27   0.00252611    1.583    0.368
        42 -10.8843    249.8474     57.8320   4.8368997172e+01   1.5539273401e+01    0.3744937    0.1883027 -44.50  0.001738877    1.733    0.423
        43 -10.0884    207.0578    166.4702   8.0982595560e+01   6.5780999831e+00    0.2212223    0.1340078  40.37  0.001032034    1.602    0.376
        44 -10.6780    194.0881     55.2467   5.5218341350e+01   2.9258785389e+01    0.2850063    0.2039962 -89.81 0.0007936806    1.621    0.383
        45 -10.0720    201.9855     55.0000   5.3914847992e+01   2.7292859428e+01    0.2436428   0.08292185  62.32 0.0008042987    2.955    0.662
        46 -11.7681    126.5996     43.1978   6.4885817146e+01   4.8176194046e+01    0.4757217    0.3805393   1.19  0.002199847    1.380    0.276
        47 -11.5117    123.1971     40.6045   6.4797360851e+01   4.9363281759e+01    0.4509909    0.3731327  17.34  0.001917938    1.254    0.203
        48 -10.3312    169.5046     39.5107   5.4651940397e+01   3.7878136833e+01    0.1472776    0.1403155  74.58 0.0008105827    1.000    0.000
        49  -9.6066    235.3067     27.6700   4.2729152226e+01   2.2889995555e+01     0.144907   0.08573043 -61.33 0.0007038601    1.659    0.397
        50 -13.6756     71.0240    184.4008   1.1416698256e+02   2.7739043469e+01    0.9259867     0.854133 -71.54  0.006106882    1.259    0.206
        51 -11.6944     20.1389    157.1787   1.2280096490e+02   3.9759045875e+01    0.6539779    0.3689653 -20.49  0.002828333    4.520    0.779
        52 -12.6959     18.5985    153.1883   1.2279020714e+02   4.0805941344e+01    0.5749515    0.4843617 -45.00  0.003502901    1.526    0.345
        53 -11.9917    108.0125    147.9916   9.9619136540e+01   3.0204853338e+01    0.4201747    0.3894592  -6.81  0.002250187    1.302    0.232
        54 -12.4343    104.0311    143.9690   9.9853962507e+01   3.1854762506e+01    0.7195398    0.4557323 -66.38  0.003270461    1.676    0.403
