#   1 NUMBER                 Running object number                                     
#   2 MAG_AUTO               Kron-like elliptical aperture magnitude                    [mag]
#   3 X_IMAGE                Object position along x                                    [pixel]
#   4 Y_IMAGE                Object position along y                                    [pixel]
#   5 X_WORLD                Barycenter position along world x axis                     [deg]
#   6 Y_WORLD                Barycenter position along world y axis                     [deg]
#   7 A_WORLD                Profile RMS along major axis (world units)                 [deg]
#   8 B_WORLD                Profile RMS along minor axis (world units)                 [deg]
#   9 THETA_WORLD            Position angle (CCW/world-x)                               [deg]
#  10 FWHM_WORLD             FWHM assuming a gaussian core                              [deg]
#  11 ELONGATION             A_IMAGE/B_IMAGE                                           
#  12 ELLIPTICITY            1 - B_IMAGE/A_IMAGE                                       
         1 -12.0011    236.5906     27.1264   3.5683103735e+01   2.3908522205e+01    0.8766944    0.3660313 -38.55  0.001668605    2.089    0.521
         2 -10.9591    239.5056     22.4832   3.4465680945e+01   2.3857852241e+01    0.6209462    0.1505302 -42.81  0.002528866    3.009    0.668
         3  -9.8377     29.6363     17.2625   7.8334641305e+01   6.9540976996e+01    0.3418584    0.1717605 -19.96  0.001310308    2.179    0.541
         4 -11.5772    111.6034     19.5844   5.0955696848e+01   5.4153694678e+01    0.4657164     0.370394  50.75  0.001889451    1.112    0.101
         5 -11.0946    149.9474     18.5004   4.3411062347e+01   4.5111339730e+01    0.2877459    0.2805688 -75.62  0.000520303    1.116    0.104
         6 -11.1893    155.2980     14.9793   4.1558730610e+01   4.4161618551e+01    0.7879423    0.3760336 -11.04  0.003217665    3.310    0.698
         7  -9.6432    158.4582      7.4494   3.8933750624e+01   4.4109137032e+01    0.2336636    0.1576336  53.73 0.0006026004    1.417    0.294
         8  -9.4869     87.1333     17.1254   5.6186301748e+01   5.9785148787e+01    0.2854151    0.1737754 -29.15  0.001296256    1.763    0.433
         9 -10.9813     56.9394     13.8615   6.4709559294e+01   6.5912182237e+01    0.5845216    0.3434552  13.65   0.00222443    1.914    0.478
        10 -10.5915    102.0960     15.9862   5.1816541619e+01   5.6668340188e+01    0.3788444    0.2593346  36.07  0.001209733    1.374    0.272
        11 -11.2629     39.6531     15.9798   7.2957238766e+01   6.8381185090e+01    0.2633003     0.170582  28.35   0.00038402    1.421    0.296
        12  -9.9044     22.3633     15.3178   8.1104703879e+01   7.0670422250e+01     0.323643    0.2507516  29.92  0.002243588    1.540    0.351
        13 -10.4553     10.3703     14.9958   8.7495460421e+01   7.1913668567e+01    0.2987453    0.2833011 -15.91  0.001772252    1.532    0.347
        14 -11.1418    193.4885      8.9653   3.5435905169e+01   3.5588107131e+01      0.68858     0.314018 -66.12  0.003022048    2.575    0.612
        15 -10.7407    186.7883     13.8015   3.7329699046e+01   3.6671854624e+01    0.2615961    0.2014103 -89.13 0.0003626312    1.152    0.132
        16 -11.5694    182.2346     13.0195   3.7625581811e+01   3.7837359265e+01    0.6320711     0.346916  47.54  0.003119221    2.088    0.521
        17 -12.4610    122.2037     11.2635   4.5791765725e+01   5.2489950516e+01    0.5463756    0.2808216  58.52  0.000472815    1.642    0.391
        18 -11.8141    127.1902      4.7989   4.2692436181e+01   5.1866579437e+01    0.3517774    0.2666526  47.73 0.0002795405    1.213    0.176
        19 -10.9358    210.3745      9.7235   3.4079351275e+01   3.1628944024e+01    0.3936629    0.2951667 -66.85  0.001757767    1.154    0.133
        20 -10.6911    212.6964      6.1038   3.3066509862e+01   3.1483164769e+01    0.3201323    0.2245701 -31.95  0.001374489    1.583    0.368
        21 -10.8096     46.6586      9.5332   6.6723016714e+01   6.8100891459e+01    0.4074847    0.2531548  17.21  0.002100265    1.548    0.354
        22 -11.1522     17.8319      3.6003   7.7551886355e+01   7.2758146520e+01    0.6556732    0.2545418  28.19  0.003378779    2.520    0.603
        23 -12.0048     15.1218      7.8971   8.1335058466e+01   7.2488990843e+01    0.8044177    0.5342201  43.02  0.003004875    2.377    0.579
        24 -10.0221      4.5146      6.9881   8.7067717712e+01   7.3612997084e+01    0.2746125    0.2490671  69.56 0.0009937581    2.302    0.566
        25 -10.5981      5.6124      2.3551   8.4002021842e+01   7.4171156002e+01    0.3539186    0.1623473  11.86  0.001934714    2.409    0.585
        26  -9.2910    250.4304      9.2750   3.1019417700e+01   2.3146416518e+01    0.1944291    0.1053755 -31.67  0.001028742    1.978    0.495
        27  -9.2322     92.9645     10.1841   5.1779404875e+01   5.9223455031e+01    0.1819223    0.1589376  62.17 0.0004020992    1.213    0.176
        28  -9.3619     86.3729      9.5643   5.3249045019e+01   6.0684929972e+01    0.2355191    0.1723574 -81.67  0.001265271    2.197    0.545
        29  -9.6860     78.6727      7.3810   5.4470160662e+01   6.2473198948e+01    0.3568501    0.2187062  22.57  0.001952485    1.682    0.405
        30 -10.1728     24.2139      7.6719   7.6293907072e+01   7.1490328022e+01     0.282167    0.1847622   7.15 0.0006860258    1.361    0.265
        31  -9.2606    102.0694      8.0173   4.8747386580e+01   5.7411096274e+01    0.1974088    0.1687422  43.23 0.0005114605    1.014    0.014
        32 -10.5186    107.3683      5.2776   4.6559724608e+01   5.6444166859e+01    0.3794706    0.2221745 -46.07  0.001344564    2.153    0.535
        33  -9.1789     65.1465      5.2062   5.7685683226e+01   6.5316886593e+01    0.1883658     0.136489  24.01 0.0006035568    1.197    0.165
        34  -8.6545     40.8337      5.2097   6.7021371338e+01   6.9485355270e+01    0.1539293    0.1073997  12.20  0.000234838    1.232    0.188
        35  -9.1765    247.5085      3.8635   3.0147986141e+01   2.4319625511e+01    0.2222614   0.09228759 -37.88  0.001019043    2.107    0.525
        36 -10.5846     90.2825      3.2948   4.9632074091e+01   6.0390618962e+01    0.3458483    0.2463619  74.06  0.001393428    1.624    0.384
        37  -9.9283     84.9724      1.3727   5.0158139985e+01   6.1673076375e+01    0.2705612    0.1105709  62.43 0.0004676686    2.412    0.585
        38  -8.7115     51.7787      2.3774   6.1075847064e+01   6.7987965545e+01    0.1768612    0.0887309  37.93 0.0009561348    1.701    0.412
        39  -8.9705     34.3679      1.9757   6.8234386049e+01   7.0797715601e+01    0.1575948    0.1178834  -3.90 0.0004159653    1.133    0.117
        40  -9.5418    164.0367      3.3581   3.7095141941e+01   4.3126860983e+01    0.3321202    0.1258018 -53.27  0.001304048    3.270    0.694
        41 -10.3043    216.4142      7.5030   3.3080621273e+01   3.0510876940e+01    0.2858479    0.2017846 -41.86  0.001004597    1.399    0.285
        42  -9.1888     64.9970      1.4405   5.5955209413e+01   6.5677500324e+01    0.1828384    0.1038024  50.46  0.001021527    1.580    0.367
        43  -8.3772     42.2726      1.3111   6.4357728103e+01   6.9663355634e+01    0.1191234   0.07325891  13.20 0.0002507931    1.551    0.355
        44 -10.2653     11.0847    115.0804   1.1343707471e+02   5.0903101821e+01    0.2645014    0.1856333 -42.90  0.001095728    1.432    0.302
        45  -8.4145      1.7848    115.9704   1.1643117421e+02   5.1264854969e+01    0.2492121   0.07084051 -69.51 0.0003530155    2.591    0.614
        46 -10.1048      2.1318    111.9806   1.1582839769e+02   5.2200868388e+01    0.1992541    0.1735281  80.15 0.0005666335    1.221    0.181
        47  -9.5588     38.9299    114.9377   1.0448826923e+02   4.8583024762e+01    0.2179501    0.1552763  69.81  0.001130609    1.719    0.418
        48  -9.3710     46.3067    113.0305   1.0170934575e+02   4.8254925669e+01    0.1958768    0.1642947 -65.44 0.0005194835    1.089    0.081
        49 -10.2323     32.8649    113.4685   1.0619577814e+02   4.9542639944e+01    0.3039033    0.1352818  23.96  0.000769706    2.623    0.619
        50  -9.1206     36.0153    142.3168   1.0981216379e+02   4.2070585725e+01    0.1773766    0.1654815  85.90 0.0004193987    1.108    0.098
        51  -9.3425     51.1371    111.5955   9.9824857408e+01   4.8042828614e+01    0.2595774    0.1313451  33.49  0.001151127    2.143    0.533
        52 -11.1474     20.2118    109.3237   1.0963349883e+02   5.1640276622e+01    0.4147278    0.2448287  42.44  0.001360892    1.979    0.495
        53  -9.3152     34.7462    107.9616   1.0455340426e+02   5.0707383031e+01    0.3527417    0.1506865 -69.85  0.001090206    2.397    0.583
        54 -10.2278      6.6349    108.6221   1.1395093568e+02   5.2742647413e+01     0.276102    0.2199162  66.55 0.0008462443    1.414    0.293
        55  -9.7704      8.2849    103.3422   1.1264121400e+02   5.3903912497e+01     0.275158    0.1783818 -65.73  0.001605822    1.233    0.189
        56  -9.0596     11.9383    101.4724   1.1111964609e+02   5.4118009358e+01    0.2099164    0.1432385 -53.48 0.0005780431    1.225    0.183
        57  -9.1071     61.0186    106.6746   9.5453065042e+01   4.7975484038e+01    0.1880053    0.1782829  12.73 0.0002144646    1.148    0.129
        58 -10.7012     79.8769    103.7450   8.8526672314e+01   4.5854847427e+01    0.3389865    0.2791496  -0.50 0.0007926176    1.411    0.291
        59  -8.6151    100.1760    109.6185   8.3748251432e+01   4.0916977408e+01    0.2058723    0.1466223  26.57 0.0003679163    1.598    0.374
        60  -9.2757     30.1256    133.2839   1.1022906588e+02   4.4897279852e+01    0.1727066    0.1615497  89.37 0.0005690082    1.118    0.105
        61 -10.4055     45.3006    101.8547   9.9692678181e+01   5.1079281470e+01    0.2704395    0.2452571  87.92 0.0004670849    1.227    0.185
        62 -10.1195     53.3754     98.4720   9.6109883494e+01   5.0925350375e+01    0.4213118    0.2232662 -68.02  0.001772495    2.214    0.548
        63  -9.4177     97.5034     98.4958   8.1540924601e+01   4.3949046102e+01    0.1500681    0.1454959 -50.04 0.0008101481    1.051    0.048
        64 -10.4469     69.5948     96.4989   9.0029378076e+01   4.9151617236e+01    0.3303335    0.3054258 -89.61  0.001177876    1.238    0.192
        65 -10.3561     16.2223     95.2585   1.0856771780e+02   5.5300928066e+01    0.3520548    0.2267183  71.77  0.001343434    2.097    0.523
        66  -9.7740     79.1635     94.9006   8.6388914153e+01   4.8006973857e+01    0.3645675    0.2286962 -39.91  0.001593944    1.560    0.359
        67  -9.4976     34.1866     95.2858   1.0216331627e+02   5.3801351054e+01     0.264014    0.1807915 -19.04  0.001400827    1.722    0.419
        68  -8.9211     38.2567     92.3485   1.0003959726e+02   5.4086856802e+01    0.1849815    0.1738679 -31.65 0.0004797852    1.105    0.095
        69 -10.0143     34.9977     89.9156   1.0066930513e+02   5.4980709229e+01      0.34449    0.1947058  12.57   0.00132095    2.211    0.548
        70 -10.0691    116.5203     93.5409   7.4516796690e+01   4.1207609285e+01    0.2847212    0.2506355  87.83 0.0005625449    1.340    0.254
        71 -10.2747     44.5232     92.3837   9.7779953366e+01   5.3404767122e+01    0.4549552    0.2483141  56.53  0.001868377    3.013    0.668
        72  -8.7215      1.1913     94.0673   1.1364417026e+02   5.6488477427e+01    0.1671391   0.07643736 -67.64 0.0004075016    1.708    0.414
        73 -10.9438     87.5017     89.5293   8.2125654959e+01   4.7764688679e+01    0.6341181    0.3693997 -66.73  0.002412913    2.710    0.631
        74  -8.3357     73.6522     92.7019   8.7625475817e+01   4.9393583052e+01    0.1504005    0.1090949 -15.80 0.0007035597    1.681    0.405
        75 -10.2093    139.3077     87.7357   6.6813252642e+01   3.7324102455e+01    0.3985895    0.2322747 -52.06 0.0009817618    1.904    0.475
        76  -9.8720    109.4824     88.4767   7.5038941402e+01   4.3738191513e+01    0.3084612    0.1474015 -44.21 0.0008160776    2.063    0.515
        77 -10.2389     81.9224     84.9379   8.2601601186e+01   4.9738052573e+01    0.3622686    0.2619163  11.90  0.001543265    1.687    0.407
        78 -10.7921     76.0930     83.4849   8.4139897615e+01   5.1033804897e+01    0.3884642    0.2919622 -46.05  0.000441389    1.266    0.210
        79 -10.6082     71.4015     83.0101   8.5623029775e+01   5.1892272747e+01    0.3229214    0.2493751 -65.11 0.0008393277    1.523    0.344
        80 -10.0929     56.8392     89.1166   9.2513904692e+01   5.2649091838e+01    0.2015317    0.1865285 -71.27 0.0004263575    1.197    0.165
        81  -9.7621     47.7134     88.9937   9.5783246991e+01   5.3821058703e+01    0.1925243     0.156676 -46.15 0.0002338591    1.079    0.073
        82 -10.2648     28.5664     85.8577   1.0213155020e+02   5.6517908498e+01    0.4370326    0.2781268  86.15  0.002079879    2.436    0.590
        83 -10.5911    120.7138     87.3953   7.1538190679e+01   4.1572785282e+01     0.421359    0.3270762  36.66  0.001165666    1.326    0.246
        84  -9.2930     52.9689     88.5029   9.3745821275e+01   5.3290391749e+01    0.1890177    0.1377255  25.79 0.0003672857    1.502    0.334
        85  -9.4141    131.3552     86.5497   6.8461590968e+01   3.9374387699e+01    0.2537903    0.2244002 -50.94 0.0004736003    1.154    0.133
        86  -9.6468    102.3069     85.4404   7.6256693094e+01   4.5825959714e+01     0.255922    0.1799081 -62.40  0.000665747    1.773    0.436
        87  -9.5327     60.3588     84.9839   9.0116846485e+01   5.3099877502e+01    0.2002397    0.1636418 -42.51 0.0005835788    1.108    0.097
        88  -9.7798     39.1362     85.1858   9.7997710319e+01   5.5649405880e+01    0.2039986    0.1584926 -35.48 0.0005411137    1.187    0.158
        89  -9.5460     65.7704     84.0064   8.7900557151e+01   5.2536896597e+01    0.2065375    0.1670371 -44.00 0.0007320396    1.141    0.124
        90  -8.4540    149.2874     83.7282   6.3287740067e+01   3.5757918321e+01    0.1485614    0.1191586 -79.72 0.0002527571    1.506    0.336
        91  -8.3698     23.6814     85.2856   1.0384361332e+02   5.7063293353e+01    0.1202392   0.09648166  72.34 0.0002952376    1.590    0.371
        92  -9.4232     21.8802     81.3776   1.0366264513e+02   5.8100182898e+01    0.4238426    0.1049096 -48.74  0.001577563    2.984    0.665
        93  -8.5903    117.3364     82.2922   7.0925822144e+01   4.3324854006e+01    0.1548207    0.1189966   9.12 0.0002127116    1.642    0.391
        94 -10.2688    113.5066     81.4070   7.1729743409e+01   4.4324132441e+01     0.384581    0.2740658   6.64  0.001671082    1.985    0.496
        95 -10.5248     54.8772     80.6802   9.0903495738e+01   5.4794342040e+01    0.3386258    0.2400755 -44.32  0.001645126    1.261    0.207
        96  -9.8285    108.8844     80.7924   7.2870234708e+01   4.5423009303e+01    0.2356303    0.2006682   8.16 0.0008572967    1.292    0.226
        97  -9.9664    103.8096     72.8163   7.1836840842e+01   4.8027212439e+01    0.3075832    0.2544704  55.76 0.0003066602    1.320    0.242
        98 -10.3472     97.0364     80.8568   7.6465814934e+01   4.7807206156e+01    0.2986687    0.2220664 -42.24            0    1.318    0.241
        99 -10.7537     98.2356     75.7045   7.4464479595e+01   4.8600221192e+01    0.5363452    0.4100036 -88.28  0.002477047    2.037    0.509
       100 -11.9521     97.2188     69.4327   7.2735025603e+01   5.0006846423e+01    0.4095195      0.28071 -39.50 0.0008030739    1.447    0.309
       101 -11.3626    101.1643     68.1151   7.1088508890e+01   4.9451534589e+01     0.490762    0.3002046 -56.14 0.0005744666    2.133    0.531
       102  -9.4659     91.9631     80.7825   7.8045378392e+01   4.8795844701e+01    0.4343776    0.2461932  69.00  0.001264336    5.118    0.805
       103 -10.7570    104.4320     78.6759   7.3523284090e+01   4.6764080435e+01    0.3800814    0.2679054 -41.94 0.0009661836    1.406    0.289
       104 -10.3246    107.9210     75.7593   7.1567704101e+01   4.6608202424e+01    0.2868535    0.2187928  16.97 0.0007734048    1.540    0.351
       105 -10.0735     49.3021     77.4196   9.2068671844e+01   5.6219864478e+01     0.456984    0.2300467 -45.54  0.001207714    1.748    0.428
       106 -10.0502     55.5270     74.2480   8.8770599295e+01   5.6095356834e+01    0.4846177    0.2790352 -15.11  0.001906113    2.663    0.624
       107  -9.2629      7.5002     80.0981   1.0892758139e+02   5.9366914969e+01    0.2334533    0.1694277 -47.42  0.001170123    1.139    0.122
       108  -9.0723    155.1180     79.0768   6.0649941457e+01   3.5224705489e+01     0.225868    0.1985041  22.07 0.0004703079    1.287    0.223
       109  -9.1600     36.0179     76.9021   9.7061786648e+01   5.7831622039e+01    0.1962845    0.1633697 -40.49 0.0004117111    1.022    0.022
       110 -11.3223     78.4772     74.9723   8.0690090688e+01   5.2415324161e+01    0.3553247    0.2797699  12.56 0.0008627644    1.379    0.275
       111 -10.4285     74.5328     75.4969   8.2225822198e+01   5.2973025211e+01    0.2799959    0.2154177 -19.89  0.001078196    1.361    0.265
       112 -10.0672      3.1656     73.7287   1.0936319914e+02   6.1033047429e+01    0.3173792    0.2251254  82.59  0.001380478    1.804    0.446
       113 -10.4800     45.7203     72.2579   9.1953686533e+01   5.7767564159e+01    0.2874541    0.2233682 -39.76 0.0004983135    1.124    0.110
       114  -8.7364     24.8826     73.7958   1.0067644803e+02   5.9553636200e+01    0.2010801    0.1331851 -61.29 0.0002410177    1.406    0.289
       115  -9.6578     24.7236     70.6654   9.9939866257e+01   6.0252719888e+01    0.4789366    0.1828692  11.83  0.001857213    3.843    0.740
       116  -8.8740    152.0178     72.9969   5.9550115234e+01   3.7041975569e+01    0.1810292    0.1766901 -60.54 0.0008557776    1.027    0.026
       117 -10.2779     64.6547     70.7663   8.4270376546e+01   5.5509377770e+01    0.4863423    0.2992124  43.21  0.002070079    1.839    0.456
       118 -10.1604     60.4699     65.3253   8.4062636961e+01   5.7229080903e+01    0.4081749    0.2594478  -0.78  0.001882652    2.156    0.536
       119  -8.7555     30.4619     72.4418   9.8080059473e+01   5.9353829361e+01    0.1284997    0.1112644 -42.42 9.213389e-05    1.054    0.051
       120 -10.5517    136.6083     69.6754   6.2043633035e+01   4.1289312410e+01     0.340001    0.2657898  45.01 0.0006318573    1.267    0.211
       121  -9.1095    132.3500     70.6848   6.3387381704e+01   4.2109323083e+01    0.2470896    0.1436638  57.68  0.001035433    1.809    0.447
       122  -8.7616     39.0041     71.4693   9.4382371572e+01   5.8701260615e+01    0.1839031    0.1044815 -10.01 0.0007276544    2.511    0.602
       123  -9.2291     17.8220     70.6123   1.0275118817e+02   6.0810346651e+01    0.2293867    0.1305222 -48.80 0.0007328243    1.403    0.287
       124  -8.7256     76.9912     70.4806   7.9750438645e+01   5.3571995540e+01    0.1978977    0.1207068  11.78 0.0008082777    2.438    0.590
       125 -10.3136    154.7568     67.6666   5.7401298519e+01   3.7288311177e+01     0.434155    0.2817277 -72.92   0.00164733    2.245    0.555
       126  -9.4091    142.8539     68.8830   6.0348593135e+01   3.9945665251e+01    0.2260364    0.1980965  23.36 0.0004232108    1.254    0.203
       127  -9.2250    120.3525     68.6373   6.5809667127e+01   4.5218866732e+01    0.3615476    0.1279428  45.23  0.001214074    2.808    0.644
       128 -10.0140     89.4732     67.6048   7.4586159661e+01   5.1864977323e+01    0.3220706    0.2514771  68.57   0.00100914    1.755    0.430
       129  -9.5840     70.7674     66.4187   8.0609727136e+01   5.5412892084e+01    0.3426573    0.2069893 -45.62 0.0002548571    1.618    0.382
       130  -9.5797     73.3516     63.6874   7.8754418372e+01   5.5509075655e+01    0.3500792    0.2419789  77.83  0.001422633    3.249    0.692
       131  -8.9379     76.0414     62.0066   7.7219632085e+01   5.5364037143e+01    0.2173948    0.1808536  -2.97 0.0006944911    1.201    0.168
       132 -10.0540    110.5455     65.1745   6.7366309901e+01   4.7998591128e+01     0.374887    0.3037925 -68.80  0.001273228    1.573    0.364
       133  -9.2463     49.1726     65.7724   8.8601547667e+01   5.8693921779e+01    0.1858837    0.1747418 -28.32 0.0005087584    1.139    0.122
       134  -9.0456     79.2589     65.0440   7.7142989312e+01   5.4229189633e+01    0.2037194    0.1737597 -30.25 0.0005730532    1.120    0.107
       135 -10.6805     43.1269     62.7399   9.0071197652e+01   6.0055857322e+01    0.3768827    0.3211503  88.10  0.001492166    1.722    0.419
       136  -9.6845      3.9293     64.9611   1.0719748057e+02   6.2916073502e+01    0.2187944    0.1927997  69.07 0.0004038206    1.480    0.324
       137 -10.9097      3.9226     59.6250   1.0596132836e+02   6.4057221644e+01    0.2709056    0.1642596 -43.17 0.0003775733    1.306    0.234
       138 -12.0748      7.8860     56.7071   1.0348172979e+02   6.4444273487e+01    0.2338214    0.1841769 -39.47 0.0002893854    1.029    0.028
       139  -8.8504    203.2295     63.9772   4.7999939093e+01   2.6266234359e+01    0.2207209    0.1672281   3.40  0.001083381    2.002    0.500
       140 -10.1272     90.5031     62.2358   7.2421885559e+01   5.2655034690e+01    0.4598837    0.3180948  80.76  0.001887765    2.917    0.657
       141 -11.0537     95.5115     57.5113   6.9190582901e+01   5.2486463085e+01    0.5609778    0.5090389  11.93  0.003173996    1.049    0.046
       142  -9.5166     17.6351     63.5283   1.0102522229e+02   6.2351969809e+01    0.3120948    0.1729788  44.74  0.001577199    2.583    0.613
       143  -8.3422    187.0553     64.0000   5.0461538453e+01   3.0067133301e+01    0.2241293   0.07996399  60.45 0.0007834545    2.812    0.644
       144  -9.7138     66.9567     63.1043   8.0880255145e+01   5.6669141444e+01    0.2073419    0.1832201 -17.31 0.0003834159    1.021    0.020
       145  -9.6319     33.4689     62.7866   9.4092918467e+01   6.1111413688e+01     0.292821    0.2250182  16.00  0.001783839    1.395    0.283
       146 -12.1494    150.8180     57.6940   5.5234124858e+01   3.9848219917e+01    0.3944761    0.3836526 -60.88 0.0002472769    1.051    0.048
       147 -10.7187    144.3551     53.1972   5.5188606545e+01   4.2103795133e+01    0.3246008    0.2819217  63.08 0.0009332825    1.110    0.099
       148  -8.5560    218.6930     61.6869   4.5356927828e+01   2.3108741626e+01    0.1265765    0.1074869  19.79 0.0006613001    1.622    0.384
       149  -9.6234     51.1075     59.7562   8.5851329844e+01   5.9640978557e+01     0.256453    0.2213054  56.93  0.001135797    1.574    0.365
       150 -10.7084     59.9757     57.6410   8.1623341088e+01   5.8785245695e+01    0.4164035    0.3199203   3.33  0.001413304    1.344    0.256
       151  -9.7596    199.5671     56.2799   4.6580345969e+01   2.8276884797e+01    0.4460827    0.2544437  31.46  0.001735294    3.247    0.692
       152 -10.0876    206.7917     52.3264   4.4621495492e+01   2.7171801934e+01     0.482548    0.2360588 -29.97  0.001732434    2.241    0.554
       153  -9.9167    202.8683     51.5429   4.4940165368e+01   2.8192503830e+01    0.3930557    0.2412022 -50.05  0.001252603    1.540    0.351
       154  -8.6239     71.7186     54.6414   7.6143926302e+01   5.7445477203e+01    0.2288381     0.124229  32.32 0.0007740961    1.915    0.478
       155  -9.3373     68.8111     56.1600   7.7756852882e+01   5.7662967744e+01    0.4095101    0.1730737 -42.26  0.001695946    2.290    0.563
       156  -9.1963     67.6628     52.3141   7.6778708994e+01   5.8537204229e+01    0.4446425    0.1830041  47.97  0.001704183    3.097    0.677
       157  -9.2780     34.6133     57.7356   9.2030866870e+01   6.2019550193e+01    0.2076392    0.1445365 -53.28 0.0005689419    1.424    0.298
       158  -8.8105    184.7086     56.4086   4.8811132833e+01   3.1788430635e+01    0.2383321    0.1805538  -4.07  0.001176415    1.850    0.459
       159  -9.3674    160.0439     56.9413   5.3200751926e+01   3.7711777130e+01    0.2296388    0.1738028  23.43 0.0005120069    1.703    0.413
       160  -9.1582    222.4474     56.2585   4.3620958879e+01   2.3077723743e+01    0.2120206    0.1678688  63.16  0.001114546    1.355    0.262
       161  -9.5526    112.2090     55.8968   6.3775506489e+01   4.9200899479e+01     0.241108    0.2033148  54.26 0.0006127236    1.203    0.168
       162  -9.2973     85.6124     54.8189   7.1395685611e+01   5.4896927544e+01    0.2427292    0.1849285  27.61 0.0008503793    1.300    0.231
       163 -10.4406     81.3494     53.5158   7.2350741835e+01   5.5922410668e+01    0.5334428    0.3258889 -23.02  0.002491833    1.843    0.458
       164  -8.9879     26.8165     56.4909   9.5017893745e+01   6.3043891078e+01    0.1611777    0.1190646  12.67 0.0003885903    1.441    0.306
       165  -9.5977    174.3448     52.4905   4.9404023258e+01   3.4877524350e+01    0.4074807    0.1060508 -38.02  0.001311135    3.479    0.713
       166  -9.0413    135.1834     54.2322   5.7510535926e+01   4.4154207537e+01    0.2443244    0.1455701  22.67 0.0006426749    2.708    0.631
       167  -9.0752     23.0708     53.8693   9.5863044385e+01   6.3907523896e+01      0.17277    0.1577557 -43.02 0.0003794367    1.216    0.178
       168  -9.5718    162.5841     52.4289   5.1414034604e+01   3.7764316598e+01    0.2935558    0.2146534 -38.30   0.00149484    1.397    0.284
       169 -10.7387    126.6666     50.3450   5.8216110570e+01   4.6757413964e+01    0.3452606     0.256592 -26.07            0    1.445    0.308
       170  -9.1262     43.7284     52.9110   8.6523032942e+01   6.1908694065e+01    0.2112888    0.1612423   0.27  0.001081535    1.303    0.233
       171  -9.2231     29.5086     52.3106   9.2487745472e+01   6.3615700463e+01    0.3068329     0.151439 -36.48  0.001525098    1.824    0.452
       172 -10.1757     28.5083     48.4459   9.1633843881e+01   6.4461258531e+01     0.274286    0.1758366 -29.22 0.0008354899    1.390    0.281
       173  -9.6645     25.4345     48.5183   9.3058895271e+01   6.4744369205e+01     0.209888    0.1924072 -19.40 0.0006903702    1.190    0.160
       174  -9.0066    115.6805     51.2803   6.1267825983e+01   4.9149832067e+01    0.2056166    0.1897716 -21.80 0.0006060273    1.117    0.104
       175  -9.4043    111.8785     49.6609   6.1710624429e+01   5.0251805892e+01     0.317908    0.2416998  31.53  0.001652718    1.338    0.253
       176 -10.6127    106.3394     50.2868   6.3444877891e+01   5.1378366662e+01    0.3120827    0.2705994 -62.94  0.001725769    1.397    0.284
       177  -9.3512     96.1977     47.7158   6.5462288414e+01   5.3934763315e+01    0.3366612    0.2046513 -19.32  0.001541086    1.954    0.488
       178 -10.1942     17.7678     50.4874   9.7217874720e+01   6.5022433373e+01    0.2592872    0.1871351  -6.14 0.0005836418    1.396    0.284
       179  -9.2596    212.7229     49.8427   4.3274104169e+01   2.6166859495e+01    0.2186031    0.1740422  62.11 0.0006834883    1.329    0.248
       180  -8.8390     73.5928     49.7246   7.3649877943e+01   5.7967404287e+01    0.1796763     0.125711 -43.16 0.0008931546    1.519    0.342
       181 -10.6259     55.9798     42.2190   7.7438570212e+01   6.2110475351e+01    0.3905308    0.2682721   9.19  0.001046483    1.555    0.357
       182  -9.4696     55.6520     49.6667   8.0432541149e+01   6.0883272217e+01    0.2735378    0.1791554 -14.52 0.0007420912    1.702    0.413
       183 -10.1171     59.0743     47.8171   7.8377470972e+01   6.0691687378e+01    0.2614233    0.2251597  47.10 0.0007867673    1.452    0.311
       184  -9.4406     89.0178     48.0433   6.7806139977e+01   5.5343699651e+01     0.202685    0.1850666  16.80 0.0002993944    1.022    0.021
       185  -9.9291     85.0099     46.9527   6.8693322174e+01   5.6302664508e+01    0.3557526    0.2727789 -18.78  0.001953664    1.317    0.241
       186  -9.2836     49.5352     49.2904   8.2785020697e+01   6.1819023452e+01    0.2172426    0.1629419   8.36 0.0007130206    1.332    0.249
       187  -9.5126     45.9328     47.1350   8.3493238832e+01   6.2689891486e+01    0.1989704    0.1679856  14.96 0.0002617659    1.191    0.160
       188 -10.0079     42.5553     45.9084   8.4480693285e+01   6.3345343026e+01     0.402747    0.1910098 -31.05  0.001840175    2.197    0.545
       189 -10.4858      5.7723     48.1947   1.0212580892e+02   6.6309151599e+01     0.227398    0.1461478 -31.89 0.0002408183    1.317    0.241
       190  -9.2494    233.0426     48.2567   4.0618657342e+01   2.1913967697e+01     0.179075    0.1479467 -70.53  0.000392451    1.062    0.059
       191  -8.6956    121.9921     48.5257   5.8733260048e+01   4.8117597506e+01    0.2087414    0.1352997  54.67  0.000388607    1.478    0.323
       192  -9.5938    151.7292     47.2247   5.1877500316e+01   4.1174277180e+01    0.3036828    0.1588753  58.59  0.001317088    1.791    0.442
       193  -9.0151    155.4829     45.5239   5.0663289644e+01   4.0491389971e+01    0.2182018    0.1666296  36.24 8.123133e-05    1.471    0.320
       194 -11.1571    142.6899     44.1219   5.2685740749e+01   4.3812857249e+01    0.4973018    0.4036458  -7.54  0.002669202    1.458    0.314
       195 -10.9991    167.4600     43.1322   4.7893091567e+01   3.7876048976e+01    0.5722341    0.3630879 -84.27 0.0006644457    1.991    0.498
       196  -9.7041    163.0605     42.3196   4.8387444408e+01   3.9065856442e+01    0.2144017    0.1841494 -61.47 0.0003396304    1.178    0.151
       197 -10.7992    108.8265     43.2818   6.0270895690e+01   5.1871230398e+01    0.2607176    0.2332854  51.08 0.0002687312    1.111    0.100
       198  -9.1953     20.0201     43.7190   9.3950439314e+01   6.6147267367e+01    0.1710413    0.1382925 -19.98 0.0006549485    1.072    0.067
       199  -8.7772     70.7892     43.3930   7.2233462852e+01   5.9493416311e+01    0.1942901    0.1152871  29.40  0.000945638    1.730    0.422
       200  -9.1253     11.0171     47.9972   9.9596755674e+01   6.6014067953e+01    0.1879976     0.144035  47.66 0.0008125329    1.880    0.468
       201  -9.1087    218.9187     41.7919   4.0655774493e+01   2.5873668587e+01    0.1873514     0.174447  77.66  0.001025551    1.204    0.169
       202  -8.2272    118.3006     42.3393   5.7515687531e+01   4.9856096191e+01    0.1465383    0.1039842  21.83 0.0007036391    1.667    0.400
       203  -9.2739     99.4350     41.4335   6.2194426619e+01   5.4183559393e+01    0.3408476    0.2296975 -78.42 0.0009372478    3.033    0.670
       204  -9.6723     28.0856     41.2721   8.9267194860e+01   6.5837808871e+01    0.2224435    0.1827304  14.43 0.0004927873    1.284    0.221
       205  -9.8234    151.6077     40.3274   4.9798549551e+01   4.2144605395e+01    0.2668236    0.1288587 -35.60  0.001137916    2.118    0.528
       206 -10.0145     35.7480     39.4415   8.5028242468e+01   6.5316998623e+01    0.3106709    0.1771721 -39.69 0.0006286735    1.560    0.359
       207  -9.8411     33.8644     34.6877   8.4000618300e+01   6.6348427519e+01    0.2084319    0.1480236 -28.90 0.0005506268    1.210    0.174
       208 -10.1862    112.1835     38.7964   5.7791925497e+01   5.1738045653e+01    0.3936187    0.2690069 -52.36  0.001950183    1.815    0.449
       209  -9.8522     48.8095     37.6115   7.8547955371e+01   6.3920437993e+01      0.28787    0.2002504 -62.26  0.001456189    2.548    0.607
       210  -8.9292     40.4702     39.0476   8.2747957709e+01   6.4806493321e+01    0.1768789    0.1462302   9.17 0.0002178279    1.157    0.136
       211  -8.8668      2.9492     39.4593   1.0089090493e+02   6.8187193266e+01    0.1610084    0.1064281   8.88  0.001041294    1.632    0.387
       212  -8.4580    181.9860     38.0353   4.4282553889e+01   3.5003630882e+01    0.1605817    0.1461799 -69.10 0.0003803735    1.060    0.056
       213  -9.3823     34.0179     46.3404   8.8404238848e+01   6.4278236445e+01    0.1714731    0.1440795  -6.50 0.0004019914    1.104    0.094
       214  -8.5200    133.3210     38.6352   5.2845650511e+01   4.6813054807e+01    0.1469551    0.1055491 -69.22 0.0007039714    1.784    0.439
       215  -9.6376     84.0500     37.7848   6.5481370416e+01   5.7864492626e+01    0.4094897    0.2236043 -55.53  0.001594463    3.468    0.712
       216 -10.9123     78.7968     31.5676   6.4708548128e+01   5.9745372954e+01    0.3625748    0.3461359  -3.96  0.002351769    1.181    0.153
       217  -9.9126     80.8143     26.0522   6.1785206389e+01   6.0057838447e+01    0.3232386    0.2219849 -45.46  0.001528414    1.839    0.456
       218  -9.5708     76.9643     23.5395   6.1971510147e+01   6.1117701630e+01    0.2683768    0.1609812  55.79 0.0009228376    1.842    0.457
       219 -10.0697    247.4899     34.5453   3.6318747448e+01   2.0728535874e+01    0.4924529    0.1843305 -60.46  0.002002381    3.134    0.681
       220  -9.4747     63.4899     40.9291   7.3978351696e+01   6.1127050531e+01    0.1837979    0.1216342 -33.48 -5.548535e-05    1.463    0.316
       221  -9.7506    127.6534     36.5266   5.3358060235e+01   4.8439441379e+01    0.2641663    0.2482749  48.40 0.0009224089    1.017    0.017
       222  -9.5087     62.2584     36.8051   7.2781626409e+01   6.1970848302e+01    0.2521116    0.1424972  28.20  0.001247531    1.819    0.450
       223  -9.2648    170.7563     35.6926   4.5266401487e+01   3.8038712128e+01    0.2243388    0.1933274 -51.68 0.0006972681    1.173    0.148
       224  -9.7083     69.2245     35.8781   6.9796667942e+01   6.0914664782e+01    0.3872821    0.2483117  65.76  0.001727757    2.961    0.662
       225  -8.9765    215.8603     34.8924   3.9376068600e+01   2.7460304721e+01    0.1862923     0.167827  69.59 0.0006861691    1.237    0.192
       226  -9.7410    192.9093     33.9822   4.1779224522e+01   3.2897221568e+01    0.3579676    0.2025519  50.79  0.001726811    1.933    0.483
       227  -9.5277    106.9094     35.0547   5.7791686890e+01   5.3417126846e+01    0.2020106    0.1812255  35.62 0.0002981392    1.016    0.016
       228 -10.2878    115.1695     32.0971   5.4663111149e+01   5.1917324286e+01     0.286523    0.2500825  -3.78 0.0004612624    1.223    0.182
       229  -9.8568    110.6991     29.8269   5.4919916386e+01   5.3215915849e+01    0.2910895    0.2400953  79.97 0.0009712699    1.419    0.295
       230  -8.6911     99.0216     33.7873   5.9441900927e+01   5.5312023353e+01    0.1855095    0.1656714  32.69  0.000443154    1.018    0.018
       231  -8.7210     86.4587     34.4667   6.3410070264e+01   5.7845120693e+01    0.1358966    0.1186624  18.79 0.0008080833    1.031    0.030
       232 -10.2452    100.7670    248.6532   1.0741654069e+02   9.5745735812e+00    0.2820452    0.1519694  65.26  0.001372976    2.371    0.578
       233 -12.0683     76.2781    219.6101   1.0938781816e+02   1.8783813241e+01    0.7354729    0.6602652  33.54  0.003349466    1.281    0.219
       234  -9.4216    151.6062     30.5128   4.6804411972e+01   4.3374217044e+01    0.2822232     0.158582  39.72  0.001265206    2.080    0.519
       235  -8.9002    143.5157     31.4677   4.8526162483e+01   4.5239956363e+01    0.1384832    0.1254981  57.38 -3.340306e-05    1.043    0.041
       236  -9.7720     62.1583     31.1110   7.0442238254e+01   6.2824065392e+01    0.5092698    0.1711026  34.86  0.001891796    3.341    0.701
       237  -8.6668     29.6378     31.2974   8.4606914284e+01   6.7396613869e+01    0.1053499   0.09785417  58.92 0.0003787472    1.714    0.417
       238  -8.6664    221.4900     30.5834   3.7814244384e+01   2.6745524899e+01    0.1274475    0.1075593 -73.98 3.016098e-05    1.020    0.020
       239  -9.6350    124.6528     30.1863   5.1848903588e+01   4.9933189771e+01    0.2550141    0.1783334  52.19 0.0006809986    1.292    0.226
       240  -9.7301     43.0275     29.1002   7.7466583704e+01   6.6064547140e+01    0.2053622    0.1542667 -22.67 0.0002866514    1.186    0.157
       241  -8.8135     21.5748     30.2809   8.8156407979e+01   6.8412288812e+01    0.1761954     0.089706 -35.68 0.0009576713    1.666    0.400
       242  -9.2119     21.2925     26.2292   8.6613143879e+01   6.9111965726e+01    0.2206788    0.1590202  -6.52 0.0007746061    1.219    0.180
       243  -8.8788    229.9816     29.2801   3.6726707633e+01   2.5052055304e+01    0.1720533    0.1406014 -73.09 0.0004765286    1.033    0.031
       244 -10.0322    216.4753     27.8647   3.7683371033e+01   2.8197576024e+01    0.2482469      0.22365  25.53  0.001152284    1.528    0.346
       245 -10.5089    183.1444     26.3087   4.1002769732e+01   3.6164771559e+01    0.5941853    0.2928719  49.60  0.002681992    2.223    0.550
       246  -9.9449    179.3363     22.9215   4.0579629466e+01   3.7471221910e+01    0.2542132    0.2000228 -82.87 0.0009438891    1.195    0.163
       247  -8.6450     99.6376     29.1705   5.7514133598e+01   5.5758091824e+01    0.1751595    0.1242348  -9.70 0.0003854901    1.577    0.366
       248 -10.6426     48.1540     28.6702   7.5048004619e+01   6.5395357841e+01    0.2962489    0.2061213  38.44 0.0004253481    1.543    0.352
       249 -10.1227     15.6089     28.4378   9.0460015900e+01   6.9277207963e+01      0.37544    0.1880606 -17.67  0.001913003    2.287    0.563
       250  -9.8040    206.5386     26.1867   3.8296029856e+01   3.0659106899e+01     0.240624    0.2098705 -69.80  0.000826199    1.055    0.052
       251  -8.4176     67.7008     27.3204   6.6764331452e+01   6.2375682943e+01    0.1149293    0.1045688 -69.71  0.000702282    1.621    0.383
       252 -10.0785    120.7409     25.8592   5.1190614788e+01   5.1355148262e+01    0.3988644    0.2178567  55.47  0.001325149    1.618    0.382
       253  -9.1652    156.0078     24.9374   4.4409135653e+01   4.2937136729e+01    0.1853503    0.1738893  82.21  0.000840999    1.048    0.046
       254  -9.2118    159.2780     22.5478   4.3207258171e+01   4.2399904167e+01    0.2022117    0.1786386 -80.25 0.0007368753    1.105    0.095
       255 -10.5778     30.1671     23.2483   8.0858047798e+01   6.8605101926e+01    0.4221338    0.2170789 -27.87  0.002032085    1.827    0.453
       256 -11.9035     69.3563    217.4675   1.1065523636e+02   2.0196469075e+01    0.5845611    0.4870691  59.77  0.003458688    1.048    0.046
       257 -10.5089    226.7231     22.9683   3.5632419936e+01   2.6521128051e+01    0.4060617    0.1854329  79.54  0.001947066    2.228    0.551
       258  -9.5764    222.5213     20.4413   3.5441749202e+01   2.7735784362e+01    0.2150891    0.1618275 -78.90 0.0006993258    1.151    0.131
       259 -10.6702    165.0927     21.6201   4.2103826547e+01   4.1078603938e+01    0.3543485    0.2368203  47.72   0.00099312    1.565    0.361
       260  -9.3643     51.2142     22.2604   7.0894876103e+01   6.5824168390e+01    0.2468619    0.1650475 -35.99  0.001448094    1.604    0.377
       261  -9.1652      8.1143     22.8636   9.2196024045e+01   7.0835269450e+01    0.1565117    0.1363526 -20.73 0.0004349649    1.247    0.198
       262  -9.6179    218.3180     21.8926   3.6143884993e+01   2.8497092243e+01    0.1672731    0.1457762 -63.08 0.0004160508    1.112    0.101
       263 -10.1354    141.6517     21.5668   4.5718718724e+01   4.6812728468e+01    0.2561513    0.2101227  38.23 0.0004672885    1.275    0.216
       264  -8.4797    155.3472    214.7363   9.1433598520e+01   7.2121566360e+00     0.134257    0.1006249  59.85 0.0003557123    1.607    0.378
       265 -10.0860      1.7934     21.2943   9.5084771586e+01   7.1551345115e+01    0.2566615    0.1399484 -52.20   0.00131404    1.759    0.431
       266  -9.3768    205.9906     21.1077   3.7140183800e+01   3.1378586840e+01    0.1872687    0.1590442 -80.68 0.0002779323    1.017    0.017
       267  -8.4942    132.4711    210.5124   9.5756765771e+01   1.1898567286e+01    0.1373288    0.1254051  40.93  5.81648e-05    1.004    0.004
       268  -9.1817    124.0212    205.9532   9.6948867331e+01   1.4253031803e+01    0.1928428    0.1770333  47.46   0.00114304    1.001    0.001
       269  -9.9965      1.4167    185.1723   1.2268236304e+02   3.4902002161e+01    0.3391118    0.0907531 -76.04  0.001199851    2.985    0.665
       270  -8.7589    130.0351     19.5274   4.7140485316e+01   4.9830234472e+01    0.2032494    0.1207069  63.97 0.0006087171    1.524    0.344
       271  -9.4762    119.4580     18.7693   4.8966381922e+01   5.2414912980e+01     0.238299    0.1678852  57.84 0.0006112481    1.259    0.206
       272  -9.1303     69.2485     18.9721   6.2579372331e+01   6.3123306437e+01     0.175966    0.1434635 -12.55 0.0005858801    1.213    0.176
       273 -11.3264      6.3228    168.5771   1.2037928070e+02   3.8339789563e+01    0.4388453    0.1886182  49.66   0.00192591    2.278    0.561
       274 -10.9940      7.2137    163.5859   1.1975831533e+02   3.9448253396e+01    0.2460518    0.1924306  10.83  0.001203198    1.748    0.428
       275  -9.8974    236.3700     16.7183   3.3506265753e+01   2.5187130131e+01    0.2170977    0.1962081  43.92  0.001359458    1.548    0.354
       276 -10.8242      9.0516    155.9223   1.1863049732e+02   4.1134237270e+01    0.2252362    0.2068473 -89.02 0.0003092385    1.174    0.148
       277 -10.5519     10.1881    152.4000   1.1800947167e+02   4.1894188890e+01    0.2470112    0.1522426  67.21 0.0006865769    1.629    0.386
       278 -11.0307      3.1866    152.5187   1.1980678595e+02   4.2384125417e+01    0.3720877    0.2662764 -42.75  0.002309863    1.662    0.398
       279  -8.9872     76.6893     16.4715   5.9031795447e+01   6.1974063859e+01    0.2730188    0.1134261  51.55  0.001223231    2.214    0.548
       280 -10.5629     25.0163    152.2298   1.1410555967e+02   4.0681317158e+01    0.2754868    0.1849945  87.68  0.001058621    1.396    0.284
       281  -9.8731     24.9786    148.7426   1.1370794873e+02   4.1542571485e+01    0.1648103    0.1388395  29.12 0.0002755611    1.412    0.292
       282  -9.1797     32.0435    147.2866   1.1159577799e+02   4.1232564426e+01    0.1733734    0.1580537  85.28 0.0003435927    1.098    0.089
       283 -10.8501     11.6084    145.0523   1.1689886523e+02   4.3565406452e+01    0.2634325    0.2075484  73.79   0.00031243    1.224    0.183
       284  -9.3181    144.0978     14.2111   4.3000323772e+01   4.6963700830e+01    0.2010701    0.1611538  45.65 0.0005362567    1.248    0.199
       285 -11.0151      3.3550    142.6475   1.1886015634e+02   4.4740450836e+01     0.333742    0.2761664 -52.40  0.001802383    1.306    0.235
       286 -10.2174     21.3694    142.0574   1.1389651278e+02   4.3508800004e+01    0.2139435    0.1786477  52.74 0.0004176651    1.296    0.228
       287  -8.5449     44.5347    141.4911   1.0725414465e+02   4.1364753750e+01    0.1385004    0.1203953 -66.15 8.621065e-05    1.063    0.059
       288 -10.7871     28.6021    138.6844   1.1142494140e+02   4.3697662937e+01    0.3829973    0.2122659 -62.22  0.001037572    1.520    0.342
       289  -9.8921     15.4989    141.0203   1.1540022162e+02   4.4247050987e+01    0.2022554    0.1073363 -75.04  0.000629155    1.576    0.366
       290 -10.2593     11.8540    139.6373   1.1625017294e+02   4.4865657973e+01    0.1815172    0.1484109 -40.75 0.0007678022    1.405    0.288
       291 -12.3334    228.8241    136.4109   6.1096075295e+01   8.4572748771e+00     1.117259    0.5082392  43.22  0.004746722    2.482    0.597
       292 -12.6101    233.5909    127.2151   5.8299922156e+01   9.1735689674e+00     1.062186    0.6406581  69.11  0.004723031    2.654    0.623
       293 -12.0129    214.3657    131.8644   6.2559827081e+01   1.2061250759e+01     1.239275    0.8057594 -55.89  0.005796758    1.773    0.436
       294 -12.7695    221.7418    115.1484   5.7479519280e+01   1.3603270455e+01     1.868164     1.144143 -19.25  0.008153652    2.191    0.544
       295  -9.7850     19.5315    136.4855   1.1372879526e+02   4.5035563660e+01    0.1904546    0.1330433  15.87 -1.837855e-05    1.815    0.449
       296  -9.5957     15.7966    131.1239   1.1413193336e+02   4.6650144475e+01    0.1946603    0.1500812  85.45 0.0005962566    1.239    0.193
       297  -8.7885     33.7597     10.3926   7.2933827141e+01   6.9912641165e+01    0.1588254   0.09407552  23.99 0.0009391602    1.548    0.354
       298 -10.3670     12.0413    128.8417   1.1494187074e+02   4.7487602766e+01    0.2229138    0.1524049 -61.20  0.000365335    1.242    0.195
       299 -10.6675     28.0943    125.8036   1.0973268328e+02   4.6939800636e+01    0.3350017    0.2312065 -64.26  0.001109155    1.218    0.179
       300 -10.1445     23.9342    125.3646   1.1093372954e+02   4.7411597385e+01    0.2668044    0.2026655  83.65 0.0008057362    1.344    0.256
       301  -9.5794     47.3912    125.7915   1.0379062737e+02   4.4971721350e+01    0.2676629    0.1926854   8.97  0.001385057    1.780    0.438
       302  -9.2812     38.0315    124.6143   1.0648593833e+02   4.6280366710e+01    0.2741579    0.1487036 -86.88  0.001160752    2.368    0.578
       303 -10.5196      8.4747    122.9624   1.1526970584e+02   4.9165525701e+01      0.33991    0.1516342 -58.06  0.001672275    1.799    0.444
       304  -8.9520     94.0081    122.7250   8.8858635092e+01   3.8935666087e+01    0.2000573     0.195939 -60.86 0.0005713803    1.025    0.024
       305  -8.6526     73.5019    122.0095   9.4917277894e+01   4.2457338233e+01    0.2122167    0.1371917 -57.94   0.00098239    1.445    0.308
       306  -8.5940     48.6278    121.8218   1.0267261540e+02   4.5817316875e+01    0.1857707    0.1225262 -74.03 0.0002693945    1.519    0.342
       307  -9.0325     69.9541    118.3263   9.5212091411e+01   4.3887453247e+01    0.1933717    0.1898812  -7.98 0.0003885477    1.096    0.088
       308  -9.2759     58.0400    117.6522   9.8852419074e+01   4.5694016524e+01    0.2322285    0.1823119 -69.61   0.00047257    1.236    0.191
       309  -8.9427     98.5204    117.0970   8.6153438372e+01   3.9472012147e+01     0.226231    0.1461792 -50.30 0.0004489721    1.485    0.327
       310  -8.8697     78.1291     13.1061   5.7126975646e+01   6.2037477073e+01    0.1500975    0.1474799  26.80 0.0003452159    1.255    0.203
       311  -9.0744     51.5961    116.7709   1.0074137275e+02   4.6716686557e+01    0.1973365    0.1265501 -71.35 0.0006876389    1.580    0.367
       312 -10.1132     25.3194    116.1624   1.0909066255e+02   4.9558587717e+01    0.2922946    0.1747748  35.09   0.00153873    1.891    0.471
