#   1 NUMBER                 Running object number                                     
#   2 MAG_AUTO               Kron-like elliptical aperture magnitude                    [mag]
#   3 X_IMAGE                Object position along x                                    [pixel]
#   4 Y_IMAGE                Object position along y                                    [pixel]
#   5 X_WORLD                Barycenter position along world x axis                     [deg]
#   6 Y_WORLD                Barycenter position along world y axis                     [deg]
#   7 A_WORLD                Profile RMS along major axis (world units)                 [deg]
#   8 B_WORLD                Profile RMS along minor axis (world units)                 [deg]
#   9 THETA_WORLD            Position angle (CCW/world-x)                               [deg]
#  10 FWHM_WORLD             FWHM assuming a gaussian core                              [deg]
#  11 ELONGATION             A_IMAGE/B_IMAGE                                           
#  12 ELLIPTICITY            1 - B_IMAGE/A_IMAGE                                       
         1 -13.1995    189.0374     32.9874   6.3417891472e+01   3.4419339868e+01    0.9494044    0.8180262 -82.89  0.003163383    1.055    0.052
         2 -13.6663    196.9867     21.9082   5.9893796400e+01   3.3918874814e+01    0.9636014    0.7430625 -31.24  0.001503584    1.606    0.378
         3 -13.6604    142.8538      5.7159   6.3011762903e+01   4.8003245670e+01     1.181959     0.693022  66.70  0.005043181    1.404    0.288
         4 -11.4854     49.9679      2.0773   8.3947109201e+01   6.6778459264e+01     0.452578    0.1422574  42.67  0.002182579    2.573    0.611
         5 -10.4183     82.7705      5.9909   7.5336026330e+01   6.0749584802e+01    0.2110016   0.09147668 -18.28  0.001042682    2.740    0.635
         6  -8.5966    114.6279      3.7293   6.7285304878e+01   5.4426133655e+01     0.130384   0.07155142  41.64 0.0006997602    1.676    0.403
         7 -10.6510     65.4983    224.0475   1.3314954313e+02   1.9120592541e+01    0.3758463    0.2022367  86.09   0.00171543    2.233    0.552
         8 -10.9803    228.2636    250.2581   1.0304698352e+02  -1.1817564451e+01    0.5516263     0.160079  35.23  0.001578638    3.215    0.689
         9 -13.3032    217.8179    247.3882   1.0454126192e+02  -9.9175152014e+00    0.9101306    0.5894648  13.30  0.003774979    1.558    0.358
        10 -12.3326    238.6483    228.5970   9.7374593705e+01  -1.0015849807e+01    0.5485232    0.4991232   8.39  0.002541614    1.226    0.184
        11 -12.9162    243.8949    238.0453   9.8087101729e+01  -1.2161372680e+01    0.9684992    0.5976554  -6.27  0.005074919    1.760    0.432
        12 -13.1440    229.7843    234.3305   1.0003324769e+02  -9.6432739785e+00    0.8748267    0.6502048 -29.15  0.003773472    1.286    0.222
        13 -12.4822    217.3802    185.7035   9.3255832197e+01   7.7960272529e-01    0.7451613    0.6062371 -35.08  0.003774729    1.145    0.127
        14  -8.8760    114.6485    194.6847   1.1783022006e+02   1.8089769274e+01    0.1480363    0.1190681 -12.87  0.000559982    1.732    0.423
        15 -10.4123    171.0056    223.4830   1.0995611002e+02   1.7075411903e+00    0.2203142    0.1281087  38.57 0.0009559903    1.598    0.374
        16 -11.1504    234.4944    218.4979   9.6311045621e+01  -7.8064921994e+00    0.3609513    0.3200774 -48.59  0.002064769    1.436    0.303
        17 -10.3607    232.0587    214.8224   9.6085594855e+01  -6.8341498756e+00      0.32453    0.2727465  37.96  0.001598285    1.367    0.268
        18 -10.7625     80.9684    169.5114   1.2199109829e+02   2.9912227432e+01    0.3115387    0.2540048  59.69 0.0006303277    1.242    0.195
        19 -11.5601     78.8286    179.5315   1.2418251778e+02   2.7741391378e+01     0.488169    0.2860943 -40.69  0.002101447    2.178    0.541
        20 -11.4167     82.2762    174.4120   1.2247645470e+02   2.8483818439e+01    0.3900514    0.2786844 -52.08  0.001042283    1.404    0.288
        21  -9.1966     99.3525    180.8571   1.1922722487e+02   2.4094245543e+01    0.2068317    0.1843542 -63.66 0.0007309288    1.111    0.100
        22  -9.9749     70.3265    178.6729   1.2619216710e+02   2.9215911475e+01     0.266737    0.1661145 -80.80  0.001018774    1.711    0.416
        23  -9.7780    197.9996    176.5147   9.5247130088e+01   6.1578396672e+00    0.2899222     0.267398 -33.16 0.0008879556    1.038    0.037
        24 -10.9980    196.6394    171.7750   9.4537538845e+01   7.3952523108e+00    0.4297066     0.362589 -54.52   0.00130253    1.229    0.187
        25 -10.4651    134.6017    173.2355   1.0897992447e+02   1.9455941187e+01    0.5737376    0.1927325 -52.51  0.001807745    3.016    0.668
        26 -10.1243    115.3137    173.4891   1.1385203810e+02   2.3065577574e+01    0.2812165    0.1378379 -55.29    0.0010817    2.018    0.504
        27 -10.1747    118.9824    173.5076   1.1292821529e+02   2.2380159377e+01    0.2392548    0.1507315  39.55  0.001037051    1.604    0.377
        28  -9.8450    110.9832    173.0000   1.1485956694e+02   2.3977138308e+01    0.2532991   0.08632275  38.37  0.000806574    2.971    0.663
        29 -10.6093    225.1758    170.8144   8.8754679891e+01   2.2401962427e+00    0.2001101    0.1611418 -11.67 0.0009062153    1.350    0.259
        30  -9.6659    145.5439    168.4720   1.0533045230e+02   1.8406009728e+01    0.1547716    0.1501994  89.21 0.0001062846    1.023    0.022
        31  -9.3950    114.5004    198.5067   1.1850565168e+02   1.7218697849e+01    0.1491755     0.135619  72.15 0.0008102579    1.044    0.042
        32 -11.2856     95.1903    157.6505   1.1604633571e+02   3.0569077016e+01    0.6239386    0.4337651 -30.09  0.001630988    1.885    0.469
        33  -8.7512    140.3703    157.1138   1.0417219054e+02   2.2130239529e+01    0.2124261    0.1461271 -63.42 0.0001419002    1.607    0.378
        34 -10.2943    183.8747    215.8179   1.0586999739e+02   9.2178678486e-01    0.1896003    0.1693564  65.24   0.00081722    1.345    0.257
        35 -11.1116    133.9863    144.8813   1.0304706190e+02   2.6340892292e+01     1.216271    0.2695926 -52.66  0.002791834    5.430    0.816
        36  -9.4570    174.6223    148.7783   9.4226084103e+01   1.6830949796e+01    0.2226868    0.1430074 -54.98 0.0005531444    1.628    0.386
        37 -11.6303     95.0351    142.1480   1.1291390155e+02   3.4447544605e+01    0.3023581    0.2729538 -36.40 0.0003344812    1.163    0.140
        38 -10.4003    107.2707    141.3006   1.0933133727e+02   3.2460177238e+01     0.562691      0.33178 -28.42  0.002075164    2.601    0.616
        39 -19.4897     13.5729    139.7430   1.3554172746e+02   4.5147533359e+01     19.53811     3.786989 -71.21   0.05670092    5.089    0.804
        40 -11.0422    114.5182    131.4110   1.0505975052e+02   3.3459091633e+01    0.4014063    0.2762311 -41.36 0.0008816306    1.485    0.327
        41  -9.8230    105.8709    130.8202   1.0732046328e+02   3.5252374213e+01    0.3421807    0.3004176 -82.89  0.001018136    1.234    0.190
        42 -10.2282    102.1980    127.7439   1.0763243913e+02   3.6666015920e+01    0.2797559    0.2403982 -25.90 0.0005630404    1.272    0.214
        43 -10.9536    135.1942    121.5216   9.7122085968e+01   3.1495303334e+01    0.8496068    0.1391503 -49.53  0.001640584    7.698    0.870
        44  -9.7873    160.4963    127.5012   9.2426495084e+01   2.4609790982e+01    0.1585838    0.1501881 -79.06 0.0008101315    1.052    0.050
        45  -9.2943    109.9896    120.0111   1.0353758418e+02   3.7007970510e+01    0.2223283    0.2157352 -23.37 0.0003227417    1.051    0.048
        46 -10.0533     84.6982    200.6743   1.2591829202e+02   2.1681500577e+01    0.4825619    0.2490494  69.76  0.001793635    2.952    0.661
        47 -10.8186    249.5865    110.0255   7.2132381705e+01   9.0821879436e+00    0.6322554    0.2093036 -49.23    0.0023508    2.800    0.643
        48  -9.9025     82.4277    194.7871   1.2561031560e+02   2.3447447154e+01    0.3228482    0.3048517 -38.43  0.001756927    1.284    0.221
        49  -9.3931    167.9750    112.6992   8.7085910601e+01   2.6078039795e+01    0.2893844    0.2100765 -71.00 0.0008717997    1.662    0.398
        50 -11.7688    194.0268    193.4052   9.9492498613e+01   3.4854462941e+00    0.7998873    0.6340591 -80.42   0.00398042    1.811    0.448
        51 -10.2158    119.9979    111.1675   9.8489944975e+01   3.7000463736e+01    0.2604253    0.1802552  70.85  0.001087701    2.017    0.504
        52  -9.2499    205.3987    110.1244   7.9079436758e+01   1.8139367074e+01    0.2357021    0.2042958  48.23 0.0006560033    1.273    0.214
        53 -10.2271    134.4964    103.9309   9.2734870533e+01   3.5465335127e+01    0.5125809    0.1480822 -46.37  0.001496139    3.530    0.717
        54  -9.0787    105.3918    198.8144   1.2072634128e+02   1.8731191235e+01    0.2054269    0.1315759 -50.03 0.0009494481    1.655    0.396
        55 -11.0476    209.8324    181.5003   9.3882425789e+01   2.9448441853e+00    0.6941258     0.413289 -20.78  0.002898043    2.316    0.568
        56 -11.7246    226.3046    190.7139   9.2552427480e+01  -1.6887003435e+00    0.7134781    0.4710492 -16.74  0.002518323    1.780    0.438
        57 -11.9096    216.6541     74.4184   6.9141248345e+01   2.2042088553e+01      0.73843    0.5777717 -52.58  0.003063981    1.186    0.157
        58  -8.9841     68.8856     71.8650   1.0296996772e+02   5.4300356060e+01    0.1646188    0.1596652  48.14 0.0002602619    1.270    0.213
        59  -9.9802    167.1419     67.2603   7.5529440392e+01   3.4712404828e+01    0.3693684    0.2212994 -82.38  0.001441671    2.713    0.631
        60 -11.9281    114.9946     56.1223   8.3927139293e+01   4.8400021126e+01    0.9342252     0.469419 -30.49  0.004069417    2.252    0.556
        61 -11.9300    120.3239     51.7791   8.1225887936e+01   4.7888813119e+01    0.6606888    0.4575609  -7.33  0.003146763    1.924    0.480
        62  -9.6473    105.2168     61.3922   8.8232309954e+01   4.9616395978e+01    0.1914984    0.1279249  55.83 0.0005045639    1.620    0.383
        63 -11.0983    126.9222     57.8262   8.1466479708e+01   4.5537271019e+01    0.3756187    0.3143699  51.60  0.002115884    1.115    0.103
        64 -12.7721    178.6303     41.6632   6.6993804742e+01   3.5742389439e+01     0.713104    0.6985061 -88.64  0.003015513    1.196    0.164
        65  -9.9759    170.1164    240.0749   1.1288818425e+02  -1.2216786347e+00     0.203991    0.1697806   7.31 0.0004334664    1.260    0.206
        66 -11.1580     93.7488    237.6056   1.2872114430e+02   1.1959901995e+01    0.4386262    0.2245506  46.96 0.0002877672    1.712    0.416
        67 -12.2476    213.9465    195.0025   9.5770433918e+01  -3.8026552443e-01    0.7258593    0.5668746  25.61  0.002701593    1.309    0.236
        68  -9.2947    178.2786    238.3275   1.1091362991e+02  -2.2684070229e+00     0.132217   0.09836335  -2.33 0.0003482676    1.595    0.373
        69 -11.0736    182.5452    234.0963   1.0933140693e+02  -2.2266574314e+00    0.4681095    0.1969009  46.46  0.001893083    2.564    0.610
        70  -9.5035     77.8096    232.4910   1.3148082775e+02   1.5481054494e+01    0.2519027    0.2077308  53.00  0.001176237    1.141    0.123
