#   1 NUMBER                 Running object number                                     
#   2 MAG_AUTO               Kron-like elliptical aperture magnitude                    [mag]
#   3 X_IMAGE                Object position along x                                    [pixel]
#   4 Y_IMAGE                Object position along y                                    [pixel]
#   5 X_WORLD                Barycenter position along world x axis                     [deg]
#   6 Y_WORLD                Barycenter position along world y axis                     [deg]
#   7 A_WORLD                Profile RMS along major axis (world units)                 [deg]
#   8 B_WORLD                Profile RMS along minor axis (world units)                 [deg]
#   9 THETA_WORLD            Position angle (CCW/world-x)                               [deg]
#  10 FWHM_WORLD             FWHM assuming a gaussian core                              [deg]
#  11 ELONGATION             A_IMAGE/B_IMAGE                                           
#  12 ELLIPTICITY            1 - B_IMAGE/A_IMAGE                                       
         1 -12.1338     41.4246     29.5848   9.7150710519e+01   6.7940847379e+01    0.7303075    0.4627561  -3.78    0.0034574    2.318    0.569
         2 -10.1924     59.0731     24.1638   8.5627248618e+01   6.6408758528e+01    0.2451788    0.1900147  10.71  0.001161883    1.469    0.319
         3 -11.6648     40.2566      9.0174   8.7443012951e+01   7.2185430336e+01    0.4961003    0.2382613 -35.71  0.002285799    1.982    0.495
         4 -11.5749     34.7209     12.7862   9.3019752453e+01   7.2232865082e+01    0.3698034    0.2576077 -55.28  0.001076794    1.499    0.333
         5 -11.6907     30.0828      7.2446   9.2905913479e+01   7.3875127532e+01    0.3467342    0.3408641   5.47  0.001633334    1.253    0.202
         6 -10.6433     15.0441      8.8075   1.0460348226e+02   7.5063996278e+01    0.3059704    0.1516064 -39.65 0.0004016029    1.800    0.444
         7 -10.6919     11.0286      6.5664   1.0665107151e+02   7.5830253398e+01    0.3558146    0.2701159  65.80  0.002190902    1.871    0.465
         8 -10.4350     10.0754      1.9890   1.0516786727e+02   7.6852108691e+01    0.1917939    0.1591644 -23.51 0.0005897479    1.156    0.135
         9 -10.7709      3.9632     10.0344   1.1361572708e+02   7.5481158647e+01    0.2146969    0.1642332 -34.46 0.0007228143    1.225    0.184
        10 -10.5356      2.4653      6.4804   1.1350362629e+02   7.6327882155e+01    0.3859195    0.1741159 -13.09  0.001888258    2.780    0.640
        11 -10.8569     14.1198     16.1122   1.0842452922e+02   7.3558523676e+01    0.3277366    0.2269849  25.44  0.001341293    1.675    0.403
        12 -11.5801     93.1003      8.2665   6.3972235738e+01   6.1724633749e+01    0.4283194    0.2720005 -11.51 0.0009053034    1.729    0.422
        13 -10.7532     90.7671      2.4076   6.1480256368e+01   6.2973410442e+01    0.4624344    0.2554986  57.40    0.0015186    1.731    0.422
        14 -10.7159     89.2261     13.3863   6.7880816950e+01   6.1987391288e+01    0.4237719    0.2873027  79.98  0.001510054    2.095    0.523
        15 -10.0664    155.7236     14.4981   5.3435276341e+01   4.4314067240e+01    0.3172955    0.2169105  25.25  0.001031186    1.735    0.423
        16 -10.7536    203.3216     11.8651   4.6853496533e+01   3.1720036516e+01    0.2407827    0.1846449 -86.31 0.0005360082    1.336    0.252
        17 -10.6818     22.2887      9.6254   9.9679860401e+01   7.4259764865e+01    0.2718512    0.2058355 -15.46  0.001296072    1.354    0.262
        18 -11.4249    151.9966      8.3696   5.1652782807e+01   4.5985308963e+01    0.4047328    0.2849171 -56.24  0.001908185    1.522    0.343
        19 -11.4448    211.0704      7.7253   4.4942813635e+01   3.0143216241e+01     0.264136    0.1678599  72.50  0.001315201    1.600    0.375
        20 -10.2012     48.7393     15.3237   8.6238784127e+01   6.9752817061e+01     0.341076    0.2244016 -65.71  0.001298619    2.453    0.592
        21 -11.0883     55.5636      7.1930   7.7903835180e+01   6.9970239460e+01    0.3327287    0.3083914 -21.45  0.001395055    1.120    0.107
        22 -11.3698     57.8075      2.0535   7.3530056774e+01   7.0308373897e+01    0.4450143    0.2798477 -29.00 0.0002757188    1.502    0.334
        23 -10.0190    218.3106      7.3339   4.4253856708e+01   2.8378178252e+01    0.1379322   0.09980332  31.67 0.0004629809    1.677    0.404
        24  -9.8955     70.7122      7.3514   7.1217459371e+01   6.6954046826e+01     0.244823    0.2166735 -83.98 0.0008526614    1.484    0.326
        25 -10.2898     70.4053      4.4761   6.9612146621e+01   6.7409537194e+01    0.2739187     0.194418  68.24 1.386825e-05    1.804    0.446
        26 -10.2651     65.1832      6.7667   7.3174526448e+01   6.8180253577e+01    0.2806309    0.2059366   0.69 0.0009051043    1.481    0.325
        27 -11.4120    130.9819      4.3236   5.3352121528e+01   5.2216851494e+01    0.4807029    0.2545176 -51.51  0.001915196    2.230    0.551
        28  -9.5531    107.7698      4.8101   5.8300725203e+01   5.8412183426e+01    0.1884154    0.1648889 -63.54 0.0002219027    1.286    0.222
        29 -10.3752    235.5115      4.5242   4.2276766789e+01   2.4536237272e+01    0.1302324    0.1159843 -44.13 7.103697e-05    1.027    0.026
        30 -10.2652    230.8096      3.8658   4.2407309049e+01   2.5690217736e+01    0.2665659    0.1480619   9.23  0.001156034    2.658    0.624
        31 -10.9522    198.9949      3.9870   4.4839765842e+01   3.3585190191e+01    0.2472213    0.1444695 -53.69  0.001138618    1.693    0.409
        32 -10.0411    120.8521      4.1354   5.5152244786e+01   5.5002040606e+01    0.2103132    0.1626693  36.52 0.0004022141    1.296    0.228
        33  -9.4590    104.4902      4.4874   5.8927282413e+01   5.9296966479e+01    0.1465877    0.1365284  32.71 -1.810808e-05    1.016    0.015
        34 -10.4766     16.5532      3.4748   1.0067525828e+02   7.6035860822e+01    0.2138898    0.1834878 -61.71  0.000641723    1.293    0.227
        35 -11.4196     20.2191      2.2053   9.7053133169e+01   7.5939760472e+01    0.3343348    0.2185292  27.60  0.001980351    1.710    0.415
        36 -10.6877    160.9937      3.0142   4.8420495874e+01   4.3983757648e+01    0.2480933     0.163784  34.32 0.0006635748    1.706    0.414
        37  -9.3410    112.3851      3.1518   5.6441058665e+01   5.7368671137e+01    0.2006358    0.1280392 -35.27 0.0002452444    1.615    0.381
        38  -9.5995      1.8774      2.9784   1.1261863311e+02   7.7112890615e+01    0.1717402    0.1061035 -26.85  0.001035751    1.598    0.374
        39 -10.3682    175.5181      2.2532   4.6504191613e+01   4.0034740597e+01    0.4127304    0.1462708  54.18  0.001468129    2.700    0.630
        40 -11.2703     80.1305      1.7504   6.4419161784e+01   6.5580492387e+01    0.3682735    0.1861569  53.38  0.001445486    1.882    0.469
        41  -9.5400     67.0786      1.6290   6.9181726358e+01   6.8486727740e+01    0.1860686    0.1640775  29.21  0.000381213    1.095    0.087
        42  -9.4512    243.6851      1.3177   4.0952321659e+01   2.2967803105e+01    0.1403939    0.0768199 -51.50 0.0005048242    1.650    0.394
        43 -10.0012    203.7934      1.4006   4.3656941063e+01   3.2572327402e+01    0.1899782    0.1209398  62.43 0.0003610318    1.595    0.373
        44  -9.7378    187.1349      1.2828   4.5041187884e+01   3.6967083713e+01     0.196986    0.1212493 -89.45 0.0008992158    1.683    0.406
        45  -9.8225    104.4624      1.4524   5.7387769457e+01   5.9616957464e+01    0.1453199    0.1351123  35.69 0.0001436233    1.011    0.011
        46  -9.6973     28.0302      1.1696   9.0535503367e+01   7.5251671646e+01    0.1508717   0.09105489  29.39 0.0003698085    1.803    0.445
        47 -11.6169     11.1570    129.2833   1.2709731201e+02   4.6992367290e+01    0.4076409    0.1677789  46.35   0.00212392    2.064    0.516
        48 -11.4629      1.8565    248.1403   1.3271944941e+02   2.5785738159e+01    0.2492355    0.1108504 -89.51  0.001846992    2.270    0.559
        49 -11.8461     23.0640    120.9012   1.2311814525e+02   4.7972802272e+01    0.6011435    0.2139671  60.47  0.002381792    3.023    0.669
        50  -9.4673     20.7048    125.5208   1.2416907213e+02   4.7105172661e+01    0.1693419    0.0923612  45.37 0.0009415172    1.660    0.397
        51  -9.3705     17.7841    122.1634   1.2476058921e+02   4.8108301818e+01    0.1506541    0.1266803 -63.13 0.0003749788    1.328    0.247
        52  -9.9615      8.1030    121.1373   1.2748835861e+02   4.9047118290e+01    0.1669267    0.1093637  65.74 0.0004105818    1.289    0.224
        53  -9.4737     96.4850    114.4507   1.0026471099e+02   4.0057774574e+01    0.1444281    0.1307404  70.52 7.215958e-05    1.059    0.056
        54 -10.4850     72.2108    112.9720   1.0716853886e+02   4.4267638422e+01    0.2099662    0.1854885  55.13 0.0003104922    1.100    0.091
        55 -10.7932     65.3097    110.7829   1.0891365038e+02   4.5752545757e+01     0.331536    0.1934762 -66.27  0.001196319    1.651    0.394
        56 -10.3539     20.0264    112.4779   1.2331884290e+02   5.0183612414e+01     0.160047    0.1181339  31.12 -7.729465e-05    1.491    0.329
        57 -11.4973      3.7268    109.1863   1.2809611325e+02   5.2067794946e+01    0.3215677    0.1832523  34.38  0.001638999    1.789    0.441
        58 -11.3604     57.6200    107.7709   1.1083513529e+02   4.7479232377e+01    0.3141875    0.2306439  -1.72  0.001131292    2.038    0.509
        59 -10.0866     88.0079    101.9462   1.0011950353e+02   4.4349210968e+01    0.2041888    0.1858211 -77.91 0.0005409315    1.070    0.066
        60 -10.4457     17.9458    105.0366   1.2331862925e+02   5.2099810063e+01    0.1867242    0.1325357 -46.23  0.001117672    1.655    0.396
        61  -9.5096    187.1373    103.3567   7.5686609119e+01   2.3358301342e+01    0.1940396     0.136441  60.14 0.0006756447    1.619    0.382
        62 -10.0032     66.6507    102.2888   1.0695813250e+02   4.7581389383e+01    0.1460489    0.0979441  66.99 0.0004738509    1.663    0.399
        63 -10.5143     57.3998    102.0868   1.0994725882e+02   4.8867640728e+01    0.2923395     0.154626  50.53  0.001340796    1.957    0.489
        64  -9.3877    194.5007     98.5889   7.3104241816e+01   2.2471504893e+01    0.1434997    0.1334101  12.11 0.0001752985    1.017    0.017
        65 -10.1079     61.9999     98.1933   1.0771004686e+02   4.9200088394e+01    0.2089334    0.1373575 -48.05  0.001041986    1.620    0.383
        66 -10.1699    100.7205     96.1221   9.4877407630e+01   4.3395492582e+01    0.3236254     0.232739 -77.25  0.001509161    1.711    0.416
        67 -12.0480     11.1439     90.3028   1.2426635178e+02   5.6083136809e+01    0.8038704      0.15651 -75.26  0.002764511    3.872    0.742
        68 -10.0484      3.3856     95.3649   1.2733897532e+02   5.5321391156e+01    0.1946661    0.1553643 -63.60 0.0008953612    1.281    0.219
        69 -10.8459     18.1283     94.8489   1.2227397938e+02   5.4523812985e+01     0.193813    0.1447902  69.04 0.0005688398    1.236    0.191
        70  -9.9174     78.9282     94.5021   1.0133162099e+02   4.7578184741e+01    0.2016895    0.1403992  37.13 0.0004121575    1.488    0.328
        71  -9.1892     62.9844     93.0243   1.0635540859e+02   5.0307527730e+01    0.1603083    0.1486869  87.29 0.0009496955    1.023    0.023
        72 -10.4828     44.0573     92.1067   1.1279301805e+02   5.2860949450e+01    0.3787002    0.1162945 -56.25  0.001425814    2.844    0.648
        73 -10.9160     57.7000     91.8652   1.0794955443e+02   5.1293022574e+01    0.2661023    0.2080051 -18.30 0.0007894972    1.728    0.421
        74  -9.8898     29.3163     92.0164   1.1801548998e+02   5.4323764894e+01    0.2142851    0.1626223  50.55 0.0007830886    1.333    0.250
        75 -10.4940     24.6749     89.4865   1.1934520601e+02   5.5326631356e+01     0.355085    0.1993487  65.78  0.001541089    1.879    0.468
        76 -11.4533     18.4881     87.3596   1.2132854666e+02   5.6309442868e+01    0.4313853    0.2732337  88.29  0.001570727    1.420    0.296
        77 -10.6575     76.4780     89.2460   1.0092674200e+02   4.9205088587e+01    0.2535755    0.2469093  74.83 0.0005633818    1.064    0.061
        78 -10.3362    107.6604     89.2915   9.1033112455e+01   4.3551200419e+01     0.153306    0.1171778  80.14 0.0007025577    1.647    0.393
        79  -9.3994      1.6282     89.2356   1.2751742309e+02   5.6863269914e+01    0.1729362   0.08868808 -72.37  0.000709988    1.616    0.381
        80 -10.1790     33.1472     88.2015   1.1609149690e+02   5.4911381723e+01     0.184861    0.1523586 -64.61 0.0004281945    1.151    0.131
        81 -10.1011    123.2806     86.9795   8.5932452483e+01   4.0764208154e+01    0.3245114    0.1953019  46.14  0.001391559    1.637    0.389
        82  -9.9734    113.8942     85.6211   8.8191814016e+01   4.3058713795e+01    0.2320265    0.2020634 -26.80 0.0006147216    1.262    0.208
        83 -11.3413     54.9518     84.9051   1.0751401851e+02   5.3330980638e+01    0.3180223    0.2304293 -78.64   0.00111039    1.361    0.265
        84  -9.5146     39.4322     86.7082   1.1354923686e+02   5.4666429273e+01    0.1454993   0.08593585  61.91 0.0002964928    1.895    0.472
        85  -9.5660     72.1759     85.3194   1.0146257198e+02   5.0806796072e+01     0.208838     0.183627   6.96 0.0005641519    1.375    0.273
        86  -8.9542     25.6161     85.2824   1.1844307755e+02   5.6276136937e+01    0.1363132   0.08225504  61.01 0.0007007867    1.731    0.422
        87  -9.7113     42.9840     83.2474   1.1161383005e+02   5.5140345241e+01    0.3149154    0.1484141 -71.68 0.0009890089    2.019    0.505
        88 -10.4298      3.7364     82.6917   1.2626742532e+02   5.8320300324e+01    0.3239385    0.1556987 -88.76  0.001631346    1.777    0.437
        89  -9.2356    145.9982     83.4906   7.9091368032e+01   3.6280830691e+01    0.1959346    0.1371948  82.28 0.0003839234    2.121    0.529
        90 -10.1986    100.4620     83.1483   9.1529602324e+01   4.6326849003e+01    0.2469466    0.2040838  70.90 0.0008059438    1.340    0.254
        91 -11.2515     64.4007     79.4592   1.0281990421e+02   5.3361864823e+01    0.4777356    0.3036373 -66.91  0.001855118    1.558    0.358
        92 -10.0613     89.3248     80.6288   9.4406545061e+01   4.9002723546e+01    0.2575855    0.1781583 -66.65 0.0006003439    1.602    0.376
        93  -9.4012    124.4180     79.1997   8.3349516446e+01   4.2095999063e+01    0.2108345    0.1437872 -54.96 0.0004734108    1.611    0.379
        94  -9.4225     85.4216     79.4858   9.5397543668e+01   4.9966280977e+01    0.1447788    0.1383908 -53.53 9.412229e-05    1.053    0.050
        95 -10.3030    176.8520     77.1126   7.0577153998e+01   2.9960618950e+01    0.2373021    0.2125568 -64.10  0.001242618    1.246    0.197
        96 -10.3299     28.0947     77.0526   1.1626248711e+02   5.8086543287e+01    0.1873695    0.1622331 -83.67 0.0003571446    1.024    0.024
        97  -9.3209    170.4479     76.4713   7.1650743833e+01   3.1625311705e+01    0.1498517    0.1473374  -6.28 0.0008075901    1.019    0.019
        98 -10.4732     71.8628     75.3264   9.9026223624e+01   5.3210630060e+01    0.5020199    0.2392445  29.25  0.001966253    2.601    0.616
        99 -11.1124     56.0263     75.0997   1.0491072458e+02   5.5562599083e+01    0.3900762    0.3377932  32.46  0.001238833    1.268    0.212
       100 -10.8924      6.6908     75.3954   1.2448169686e+02   5.9927945295e+01    0.2982961    0.1372247 -59.71  0.001516404    1.889    0.471
       101 -12.1610     33.6049     73.1247   1.1337049529e+02   5.8561700223e+01    0.5292892    0.3242578  25.24  0.002792135    1.859    0.462
       102  -8.9436    224.2959     74.3094   6.2043532304e+01   1.9289143982e+01    0.1410786    0.1014435  15.66 0.0003180502    1.592    0.372
       103  -9.2489    136.5438     74.4654   7.8704576620e+01   4.0213953361e+01    0.1532721    0.1501538  22.45 6.770444e-05    1.025    0.024
       104 -10.5548     92.5064     72.4966   9.0981791568e+01   5.0225569372e+01    0.4334536    0.2949689 -72.33  0.001833507    1.918    0.479
       105  -9.5773     81.3999     73.2000   9.5006090298e+01   5.2111052178e+01    0.2086309    0.1360863 -64.04 0.0009449508    1.656    0.396
       106  -9.1738    217.2563     72.3129   6.2507314829e+01   2.1118456957e+01    0.1398048    0.1036835  11.29 0.0003089524    1.528    0.345
       107 -10.2300    105.9251     71.9449   8.6496281031e+01   4.7633753316e+01    0.2236882    0.2198838  57.50 0.0004214929    1.024    0.023
       108 -10.1109     79.7840     68.9695   9.4327629861e+01   5.3355854257e+01    0.2687721    0.1983813  21.43  0.001300755    1.665    0.399
       109 -11.0601     16.2045     75.8244   1.2078576542e+02   5.9272047420e+01    0.3107291    0.1931815  20.56  0.001754885    1.895    0.472
       110 -10.3145     46.9697     69.2377   1.0709757738e+02   5.8105089194e+01    0.3499336    0.1926892  11.48  0.001490037    2.785    0.641
       111 -11.9911      8.9564     65.8988   1.2248930336e+02   6.2111592356e+01    0.6403223    0.2678102  62.93  0.002762962    2.929    0.659
       112 -13.6994     19.9064     57.5227   1.1633554426e+02   6.3486644825e+01    0.4813688    0.2981426 -71.95  0.001247396    1.373    0.272
       113 -11.3016     14.0841     63.9564   1.2002100659e+02   6.2297330347e+01    0.3776462    0.1872366  89.81 0.0003935931    2.037    0.509
       114 -11.0244     10.1367     60.0374   1.2119011458e+02   6.3471822312e+01    0.2260944    0.2056772  10.52 0.0003667072    1.338    0.253
       115 -10.5102     34.8443     64.7652   1.1115970734e+02   6.0485754413e+01    0.2923115    0.2708254 -22.58  0.001871385    1.229    0.187
       116 -10.5480     39.1819     62.7935   1.0883769076e+02   6.0528544160e+01    0.3238652    0.1828607 -42.16 0.0007358135    1.883    0.469
       117 -10.4260    133.1967     65.5954   7.6717751472e+01   4.2677926163e+01    0.2302818    0.1404924  41.25 0.0006495445    1.721    0.419
       118 -11.3092     75.6142     64.7447   9.4561771274e+01   5.5034012731e+01    0.3082933    0.2207349  49.22 0.0002331685    1.493    0.330
       119  -9.3100    131.3167     63.3273   7.6447253708e+01   4.3552703197e+01     0.160647    0.1226448  13.67 0.0004477134    1.676    0.403
       120 -11.1257     64.7747     61.4756   9.7747602157e+01   5.7538671175e+01    0.4676037    0.3537634  12.57  0.001693795    1.672    0.402
       121 -10.2063    100.7843     61.5844   8.4714571706e+01   5.0883371970e+01     0.270792    0.2062541 -46.61 0.0005562074    1.297    0.229
       122  -9.9514     83.5191     56.5722   8.8913561028e+01   5.5412289133e+01    0.2377259    0.1825857 -49.04 9.226827e-05    1.259    0.206
       123 -11.8918     87.9998     53.5426   8.6204276046e+01   5.5179692380e+01    0.5818352    0.4886121  -2.05  0.002997079    1.410    0.291
       124  -9.4691     71.6133     56.7517   9.3504123763e+01   5.7508561102e+01    0.1985567    0.1323714 -60.50 0.0007567061    1.564    0.361
       125  -9.3054    157.9998     56.4772   6.7968881929e+01   3.8010350643e+01    0.2167645    0.1383848 -88.98 0.0008088478    2.467    0.595
       126 -10.4005     34.0079     54.0129   1.0900050120e+02   6.3164108799e+01    0.3521437    0.1611488 -44.89 0.0009706492    2.182    0.542
       127 -13.5385      6.0390     50.6021   1.2171519840e+02   6.5950047449e+01    0.4995722    0.3309958 -37.37 0.0008648763    1.609    0.379
       128 -10.7390     18.5608     44.9250   1.1436772707e+02   6.6615160616e+01    0.9047153    0.4525588  66.92  0.003873388    3.064    0.674
       129 -10.3549     13.1365     41.1510   1.1636813055e+02   6.7855087880e+01    0.3060761    0.1666805 -71.49  0.001122247    1.554    0.357
       130  -8.9155    174.3101     55.3355   6.4462476425e+01   3.3971480539e+01    0.1603155    0.1159228  21.82 0.0005002941    1.680    0.405
       131 -11.2923    114.8654     53.9008   7.7655055103e+01   4.9242782367e+01    0.3321179    0.3238266  18.85 0.0007964628    1.033    0.032
       132  -9.4022     96.7013     55.3132   8.3842263447e+01   5.3030077190e+01    0.1499254    0.1197686 -82.10 0.0002536388    1.605    0.377
       133  -9.3034     54.2138     55.4233   1.0027856571e+02   6.0470763227e+01    0.1667745    0.1299481  49.70  0.000236365    1.425    0.298
       134 -12.2424     66.0883     52.6676   9.4336984478e+01   5.9329499185e+01    0.5522091    0.2591989  35.03  0.002012311    2.346    0.574
       135  -9.3389    164.0183     54.0000   6.5952605713e+01   3.6837780706e+01    0.2641988   0.08755816  59.24  0.000814626    3.028    0.670
       136 -10.0272    105.9775     53.1519   8.0052495823e+01   5.1432333412e+01    0.2293211    0.2057696  81.03 0.0006616808    1.245    0.197
       137  -9.6221    231.5837     51.3088   5.5082528833e+01   2.0523859573e+01    0.1936537    0.1244607 -12.95 0.0009470559    1.606    0.377
       138  -9.1612     48.3225     58.2741   1.0368453545e+02   6.0568526179e+01     0.135688   0.09954219 -29.39 0.0002064135    1.576    0.366
       139 -10.2578     75.7492     49.3053   8.9223626672e+01   5.8403887291e+01    0.3905142    0.2076441 -35.40  0.001595902    2.114    0.527
       140 -10.1568     78.9994     45.9673   8.6677772670e+01   5.8496646419e+01    0.2426682    0.2073401  38.34            0    1.220    0.181
       141  -9.5647     53.3339     47.9663   9.8236980830e+01   6.2302252176e+01     0.201425    0.1673168 -46.93  0.001142104    1.102    0.093
       142  -9.6243    154.5576     47.5392   6.5654779839e+01   4.0301145391e+01    0.1529503    0.1502107 -63.21 7.538124e-05    1.032    0.031
       143  -8.8628    135.6568     46.3206   6.9374866802e+01   4.5427473706e+01     0.163597    0.1208582 -70.62 0.0007049945    1.725    0.420
       144  -9.8146    104.4985     46.4862   7.7977200144e+01   5.3030845600e+01    0.1498354     0.147916 -30.51 0.0008104479    1.020    0.020
       145  -8.9616     47.6394     46.7064   1.0043764752e+02   6.3349640207e+01    0.1410524    0.0989178 -25.08 0.0007030301    1.701    0.412
       146 -10.1510     35.0916     41.6719   1.0494379707e+02   6.5965355112e+01    0.3183491    0.1663139  15.51  0.001452169    2.517    0.603
       147 -10.0087     30.5681     45.5021   1.0839001633e+02   6.5514417829e+01    0.2527807    0.1821142 -54.66 0.0006655811    1.197    0.165
       148 -10.7090     26.0317     43.5762   1.1017202390e+02   6.6369477669e+01    0.3227172    0.2918611 -68.73  0.002111265    1.074    0.069
       149 -10.6183    181.2783     41.2853   5.8811669338e+01   3.4124636294e+01    0.3790889    0.3309212 -41.99  0.001098022    1.126    0.112
       150 -10.7776      3.9262     41.5480   1.2134961416e+02   6.8205831432e+01    0.4125663    0.1935598 -37.84  0.002084195    2.233    0.552
       151  -9.8909     69.8009     41.7186   8.8684803447e+01   6.1059839379e+01    0.2793516    0.1817295 -25.67 0.0007803634    1.871    0.466
       152  -9.2029    159.6655     41.6953   6.2633121848e+01   3.9808315227e+01    0.1628436    0.1151642  28.68 0.0007038743    1.665    0.399
       153 -10.7532    139.7896     40.1308   6.6127138480e+01   4.5324272243e+01    0.4747108    0.3036915 -41.78  0.001405409    1.588    0.370
       154  -9.5161     51.3882     39.7947   9.6183369015e+01   6.4396104837e+01    0.1928428    0.1160352 -44.61 0.0009315748    1.525    0.344
       155  -9.5969     42.8088     40.6346   1.0069026800e+02   6.5333008349e+01    0.1686985    0.1233066  42.23 0.0004797824    1.549    0.354
       156  -9.6543    131.4875     38.5125   6.7421743289e+01   4.7746953084e+01    0.2450998    0.1835626  28.33 3.473539e-05    1.514    0.339
       157 -10.0084    127.9605     38.6980   6.8348827455e+01   4.8631222145e+01    0.3019234     0.215775  62.88  0.000428099    1.443    0.307
       158 -12.0699    121.7094     37.4183   6.9425076250e+01   5.0432492956e+01    0.4904364    0.4569919 -83.90  0.001388281    1.159    0.138
       159 -10.4877     25.9592     29.6508   1.0589635246e+02   6.9599205554e+01     0.222673    0.1636124 -69.05 0.0004354556    1.338    0.253
       160 -10.6716     22.7593     38.5592   1.1052040368e+02   6.7815551379e+01    0.2319881    0.1849004  68.42 0.0004060457    1.477    0.323
       161 -11.3713     26.6371     35.1492   1.0736223987e+02   6.8284801528e+01    0.4261306    0.2267623 -38.23  0.001534298    1.927    0.481
       162 -10.9860      3.6783     35.2963   1.2037256861e+02   6.9697804495e+01    0.3595014    0.2151105 -25.59  0.001953519    1.894    0.472
       163  -9.7297     38.7021     35.4860   1.0093590519e+02   6.6977093001e+01    0.2286614    0.1512952  -8.71  0.000393888    2.045    0.511
       164 -11.1294     17.8392    249.3966   1.3014165191e+02   2.4186590970e+01    0.1653718    0.1030843  27.32  0.001287486    1.850    0.459
       165 -10.7711    134.3728     34.1253   6.5044042527e+01   4.7650739802e+01    0.2528045    0.1962521  42.39  0.000352493    1.304    0.233
       166  -9.2967    145.0529     33.0009   6.2329535184e+01   4.4958396304e+01    0.1774175    0.1757398  53.00            0    1.003    0.003
       167  -9.4714     50.1961     33.2461   9.4140538637e+01   6.5977562339e+01    0.1715585    0.1511183 -73.23  0.000293483    1.300    0.231
       168 -10.0960    205.4930     31.0026   5.2373295297e+01   2.9129802663e+01    0.3089341    0.1400162 -62.83  0.001034338    3.420    0.708
       169 -10.5269    166.3001     31.0115   5.7752199984e+01   3.9462174193e+01     0.237322    0.2170209  79.32 0.0004004606    1.101    0.092
       170 -11.3678     18.6173     32.3525   1.1105910261e+02   6.9571995617e+01    0.5496258    0.2556922 -18.04  0.001789835    3.430    0.708
       171  -9.5834     69.8319     28.7677   8.3004562389e+01   6.3611023801e+01    0.1869039    0.1671253 -68.67 0.0005707519    1.327    0.246
       172 -10.6755      7.9098     28.5286   1.1640592916e+02   7.1101023941e+01    0.2754029    0.2021901  43.67   0.00172739    1.634    0.388
       173 -10.3582     77.0000     26.9913   7.9205021597e+01   6.2531348213e+01     0.425965     0.161576 -33.00  0.001445667    2.892    0.654
       174 -10.1098     77.3045     17.6654   7.4382353633e+01   6.4026729954e+01    0.2700763    0.1968377 -58.36  0.001099363    1.781    0.439
       175 -10.8791     75.1936     21.8365   7.7375954277e+01   6.3788487500e+01    0.2859802    0.2562137   6.70 0.0004765672    1.103    0.093
       176 -10.7256     78.5082     21.5722   7.5936860527e+01   6.3143872617e+01    0.3281986    0.2174761 -39.16 0.0008874874    1.485    0.327
       177  -9.5206    229.4870     26.0302   4.8504128320e+01   2.3835363775e+01    0.1900365    0.1109443   9.99 0.0008094761    2.478    0.596
       178  -9.7589    147.0093     26.3326   5.9413805031e+01   4.5319412778e+01    0.2099252    0.1856049  65.40 0.0001884003    1.114    0.103
       179  -9.4590     18.3278     26.3172   1.0933734986e+02   7.0977508571e+01    0.1352187   0.07792181 -37.84 0.0007045837    1.678    0.404
       180  -9.7623    153.7962     25.6094   5.7912550898e+01   4.3554276260e+01    0.2198848    0.1455284  82.91 0.0009453569    1.720    0.419
       181 -10.1736    113.8666     24.9186   6.6214510309e+01   5.4323708648e+01    0.3108045    0.2149586  49.02  0.001178796    1.408    0.290
       182 -11.9303      6.1956    241.4384   1.3189362297e+02   2.6399807049e+01    0.2716702    0.1738833 -50.73  0.002020051    2.950    0.661
       183 -10.3955      1.9064     21.9047   1.1858516098e+02   7.2885677338e+01    0.2497012    0.1459952 -76.30 0.0007630085    1.499    0.333
       184 -10.9829     30.6881     20.9729   9.9590320468e+01   7.1036730688e+01     0.272146    0.1896489 -47.28 0.0006233239    1.230    0.187
       185 -11.0571     14.1631     21.2962   1.1029307203e+02   7.2402389227e+01    0.3074152    0.2291151  46.13  0.001899417    1.658    0.397
       186  -9.8177    229.5261    248.0405   9.4395956685e+01  -1.4131053389e+00    0.1217011   0.08596449 -10.48 0.0007126736    1.526    0.345
       187  -9.3706    224.9739    246.5216   9.4895660166e+01  -7.2728272066e-01    0.1449486   0.05920752  23.06   0.00080682    2.341    0.573
       188  -9.7817    136.4877    245.5578   1.0938228707e+02   1.1001567638e+01    0.1085797   0.07463613  40.67 7.238337e-05    1.064    0.060
       189 -10.1007    100.2156     19.1030   6.7339790854e+01   5.8560886962e+01     0.353755    0.2097269 -57.35  0.001415308    2.393    0.582
       190 -10.3193     41.9703     19.7845   9.2346241592e+01   6.9898351644e+01    0.2808548    0.1737431   9.07  0.001105415    2.270    0.559
       191 -10.1272    172.4553     23.4864   5.4206121927e+01   3.8701583348e+01    0.1477074    0.1447593 -70.21 0.0002023132    1.005    0.005
       192  -9.6673     84.7552     21.3555   7.3500568768e+01   6.1829512359e+01    0.2032302    0.1275373  41.07 0.0004501852    1.622    0.383
       193  -9.6600    199.5255     17.4632   4.8934982686e+01   3.2137133392e+01     0.143408    0.1328431 -54.71 0.0002000013    1.022    0.021
       194 -11.5034    108.5325     16.3085   6.3685491242e+01   5.6860804691e+01    0.2445069    0.2355103  28.88 0.0002750299    1.008    0.008
       195  -9.5599     82.2327     17.5784   7.2486027395e+01   6.2973213168e+01    0.1952106    0.1298107  39.57 0.0004389304    1.523    0.344
       196  -9.6720     26.7578     16.7890   1.0016159279e+02   7.2332220298e+01    0.1555365    0.1449649 -86.35 0.0004464596    1.312    0.238
       197  -8.9425     86.6389    245.2900   1.1814153391e+02   1.7405349027e+01    0.1112672   0.05371694  53.36  0.000411692    1.694    0.410
       198 -11.2374     11.6432    244.2212   1.3104573208e+02   2.5505781348e+01    0.1786045    0.1087736  31.80 0.0009879402    1.652    0.395
       199 -10.0671    146.6726    243.6840   1.0742849198e+02   9.8632611698e+00    0.1043846   0.06850283  18.57 0.0007044841    1.674    0.403
       200 -10.1303     60.6385    240.8109   1.2248287072e+02   2.1074429782e+01    0.2318278   0.09052809  34.72  0.001240588    2.033    0.508
       201 -10.0627     50.1449    241.1725   1.2435391713e+02   2.2170983983e+01    0.1481677   0.08145252  57.66  0.001077236    1.378    0.274
       202 -10.1515     20.0134     16.7842   1.0464277427e+02   7.2960517726e+01    0.2527766    0.1772646  36.21 0.0008254719    1.696    0.410
       203  -9.6145    202.4791    240.4521   9.7670708957e+01   2.6975719620e+00    0.1072431   0.07321464  25.89 8.780059e-05    1.013    0.012
       204 -11.4769    234.3969     14.9925   4.5127320562e+01   2.3811163885e+01    0.3127302    0.2088287 -87.81 0.0009590709    1.648    0.393
       205 -10.9987     14.1759    238.7377   1.3049512121e+02   2.6097838851e+01    0.1582136   0.08960287  64.63 0.0004586072    1.320    0.242
       206 -11.7182     26.6500    235.7535   1.2826199983e+02   2.5384656206e+01    0.2741969    0.1862444 -84.65    0.0022672    1.657    0.396
       207  -9.3752     42.6229    236.2574   1.2546617037e+02   2.3702551546e+01    0.1106115   0.04635451  52.46  0.000697123    1.659    0.397
       208  -8.4657     35.5152     21.5713   9.6953018236e+01   7.0361884273e+01    0.2051797    0.1041457 -43.42 8.239149e-05    1.745    0.427
       209 -10.2619    175.6962     14.9159   5.0829573724e+01   3.8761670112e+01     0.241259    0.1946618  56.73 0.0002407134    1.241    0.194
       210  -9.1301    210.6976    235.6998   9.5745274753e+01   2.0588587763e+00    0.1068661    0.0612797  16.82  0.000295469    1.586    0.370
       211 -10.6760    190.5378     13.7632   4.8725733200e+01   3.4877878734e+01     0.257129    0.1985149  74.93 0.0006981636    1.296    0.228
       212 -10.1611    162.3273     13.1699   5.1980535653e+01   4.2623914064e+01    0.2623665    0.1860498  57.72 0.0003374078    1.368    0.269
       213  -9.4205     95.0046     13.3327   6.6037480011e+01   6.0617412802e+01     0.197052    0.1822777  39.64 0.0006945024    1.059    0.056
       214  -9.4485     91.6809    235.6832   1.1656096246e+02   1.8130705402e+01   0.09560575   0.07557537  17.09 0.0005691389    1.657    0.397
       215  -9.9484    249.3186    234.0891   8.9594902117e+01  -2.7144875649e+00    0.1675131   0.09458923  23.17 0.0004497845    1.241    0.194
       216 -11.9928      4.1778    232.4893   1.3206431978e+02   2.7936492932e+01    0.2393946    0.1207889  51.73 0.0002507764    1.269    0.212
       217 -12.5748      9.8489    228.4641   1.3099887817e+02   2.8073783017e+01    0.4071011    0.2275177  63.93  0.001291105    1.305    0.234
       218  -9.2496    209.5113    229.5297   9.5125456645e+01   2.8052754373e+00    0.1090253   0.07696347  24.63 0.0001233835    1.020    0.019
       219 -10.6857    140.3277    227.7927   1.0691397018e+02   1.2702015273e+01    0.2061896    0.1766838  87.34  0.001446118    1.625    0.384
       220 -11.7639      8.5437    218.4437   1.3099610491e+02   2.9804220935e+01    0.2408664    0.1696067  13.90  0.001800461    2.167    0.538
       221  -9.8526     33.6677    225.4412   1.2663634953e+02   2.6307604948e+01    0.2208872   0.01521013  43.02 0.0009595218    3.441    0.709
       222 -10.3898     16.1297    212.6761   1.2943939906e+02   3.0091830099e+01    0.1972145    0.1396014  -8.58  0.001290472    3.000    0.667
       223 -10.1117     20.2309    209.8839   1.2857234309e+02   3.0189483094e+01    0.1685293    0.0946072  56.41 0.0005168346    1.262    0.208
       224  -9.2922    209.6507    211.3234   9.2556709536e+01   4.6280617079e+00    0.1011153   0.08239334  50.39 0.0007048957    1.748    0.428
       225 -10.8569      9.5547    203.4995   1.3042314870e+02   3.2252918004e+01    0.1965095   0.08089941  32.69  0.001190428    2.094    0.522
       226 -10.2340     23.1017    197.3834   1.2754430172e+02   3.2117067909e+01     0.159859    0.1279885  83.90 0.0004580787    1.277    0.217
       227  -9.5427     36.4972     18.5088   9.4901938308e+01   7.0871659805e+01    0.2153199    0.1201915 -59.71 0.0006944665    2.014    0.503
       228 -10.6472     13.8899    193.0429   1.2924696369e+02   3.3744585095e+01    0.1709473   0.09791626  58.65  0.000518395    1.272    0.214
       229 -10.5811      6.4048    191.5058   1.3071203812e+02   3.4664701743e+01    0.1843784    0.1193908  66.34  0.001372821    1.143    0.125
       230  -9.6392     15.4806    185.4315   1.2864878406e+02   3.5016210798e+01    0.2028854   0.07414377  78.98  0.001031446    2.626    0.619
       231  -9.3244     22.6599    179.7154   1.2687558088e+02   3.5457788160e+01   0.09291527   0.08447111 -40.76 0.0003011619    1.634    0.388
       232 -11.2775      5.5190    167.6264   1.3017745244e+02   3.9294423373e+01    0.2826934    0.1343738  71.00  0.001530554    1.699    0.411
       233  -9.4440    226.5091    163.9985   8.1852794655e+01   7.3378899212e+00    0.1709939    0.1098542 -21.06 0.0007001797    1.528    0.346
       234  -9.2829     41.3073    157.6905   1.2119934493e+02   3.8057675827e+01    0.1291148   0.07086098  61.41 0.0003667834    1.615    0.381
       235  -9.8263    247.4762    155.5076   7.6941993251e+01   4.9325214755e+00    0.1223167   0.09437303   6.99 5.020199e-05    1.025    0.024
       236 -10.7357      2.5154    153.5074   1.3039510963e+02   4.2388533813e+01     0.205737   0.09948248  27.22   0.00120343    2.139    0.532
       237 -10.6254     23.9303    150.8216   1.2503329281e+02   4.1223897089e+01    0.1626867    0.1497965 -85.39 0.0005459284    1.277    0.217
       238 -10.4149     22.5144    142.9431   1.2489483900e+02   4.3052990256e+01    0.1776523    0.1009905 -83.50 0.0008617388    1.573    0.364
       239  -9.9632     90.4855     16.4595   6.9057225181e+01   6.1262662725e+01     0.206065    0.1403155 -13.85 0.0004898126    1.609    0.378
       240 -10.5662     12.0088    141.3099   1.2752340329e+02   4.4272357425e+01    0.1590782    0.1246746  63.82 0.0004592754    1.071    0.066
       241 -10.9549      8.9941    135.5241   1.2801677189e+02   4.5763771468e+01    0.2233483    0.1236815  74.53 0.0005751979    1.511    0.338
       242 -10.5009    213.7432    134.5289   7.8102931210e+01   1.3308934207e+01    0.3968987    0.2360085  63.85  0.001743531    2.872    0.652
       243 -10.4686      2.5686    133.0605   1.2960506499e+02   4.6750714107e+01    0.2793877    0.1107993  45.72  0.001490752    2.073    0.518
       244  -9.9729     35.1998    131.0115   1.2052080028e+02   4.4541704278e+01    0.1779311    0.1496774 -66.33 0.0005287465    1.293    0.227
       245 -10.2827     29.0145    128.7476   1.2206434248e+02   4.5646529487e+01    0.3022718    0.1468039  87.00 0.0009545017    2.015    0.504
