#   1 NUMBER                 Running object number                                     
#   2 MAG_AUTO               Kron-like elliptical aperture magnitude                    [mag]
#   3 X_IMAGE                Object position along x                                    [pixel]
#   4 Y_IMAGE                Object position along y                                    [pixel]
#   5 X_WORLD                Barycenter position along world x axis                     [deg]
#   6 Y_WORLD                Barycenter position along world y axis                     [deg]
#   7 A_WORLD                Profile RMS along major axis (world units)                 [deg]
#   8 B_WORLD                Profile RMS along minor axis (world units)                 [deg]
#   9 THETA_WORLD            Position angle (CCW/world-x)                               [deg]
#  10 FWHM_WORLD             FWHM assuming a gaussian core                              [deg]
#  11 ELONGATION             A_IMAGE/B_IMAGE                                           
#  12 ELLIPTICITY            1 - B_IMAGE/A_IMAGE                                       
         1 -10.7231    208.9613     34.0784   4.1523233895e+01   2.8855305311e+01    0.5165234    0.3656505 -11.89  0.002694704    1.936    0.483
         2 -10.6500      1.9191     24.7818   1.0121248901e+02   7.0500588672e+01    0.3157971    0.1452753 -56.16 0.0007082449    1.956    0.489
         3  -9.5450     32.4332     12.9783   7.9618961740e+01   6.9781379032e+01    0.5369541    0.3207696  22.05  0.002638987    1.553    0.356
         4 -11.8279      5.3650     14.1098   9.5144950741e+01   7.2157202077e+01    0.9503713    0.5123226 -31.26  0.003717534    1.434    0.303
         5  -9.8541     23.7087      1.3647   7.8272719607e+01   7.2364028518e+01    0.6500625    0.1055569  35.06  0.001978461    5.976    0.833
         6 -10.9137     16.1232     17.5071   9.0463602774e+01   7.0787469689e+01    0.6523566    0.4251883 -40.57  0.004246721    1.403    0.287
         7 -10.8791     25.2827     22.1249   8.7550450799e+01   6.9192651064e+01     1.044555     0.467713   9.81  0.004739098    2.986    0.665
         8 -11.4779     24.9974      6.8384   8.0460005073e+01   7.1499913804e+01    0.2199412    0.1837172   0.29 0.0002634167    1.256    0.204
         9 -12.2161     20.6064      6.0967   8.2513549613e+01   7.2080405328e+01    0.7140135    0.3845575  12.27  0.003685778    1.828    0.453
        10 -11.3224    165.9065     18.6286   4.3035514201e+01   4.1233076072e+01    0.4537895    0.3124305  30.38 0.0009810893    1.802    0.445
        11 -10.8503    182.9944     17.6554   4.0452115718e+01   3.7076076780e+01    0.7827331    0.4037211  28.73  0.002974793    3.706    0.730
        12 -12.2860    116.9584     22.3282   5.3421882145e+01   5.2906521561e+01    0.3030677    0.2627521  26.56 0.0003537033    1.114    0.102
        13  -9.5264     67.6916     11.2363   6.3340512695e+01   6.4546136404e+01    0.4092372    0.2236005  45.15  0.002158897    1.670    0.401
        14  -9.9848     60.9573     17.3709   6.8773180735e+01   6.5024218346e+01    0.4075872    0.2537682  20.41  0.001457378    1.548    0.354
        15 -11.0197     67.6217     15.4599   6.5319566255e+01   6.4084258010e+01    0.3925111    0.3010187  50.75 0.0006343056    1.527    0.345
        16 -10.1930    225.3346     15.7695   3.5537487894e+01   2.7240901135e+01    0.4626966    0.1970811 -42.84  0.002017004    2.080    0.519
        17 -10.1644    127.6203     19.0201   4.9859768351e+01   5.0710728256e+01     0.529859    0.2829709 -51.57    0.0022779    2.593    0.614
        18 -11.0171    104.9249     21.0076   5.5933980652e+01   5.5823029824e+01    0.2838577    0.2424472  56.26 0.0003552853    1.191    0.160
        19  -9.5270     36.9761     19.9041   8.0634914120e+01   6.8223895501e+01    0.5119898     0.255081  -9.10  0.001989621    3.052    0.672
        20  -8.8106     45.1372     15.7547   7.4805022000e+01   6.7713922429e+01    0.4667762    0.2554919  32.39   0.00258034    1.710    0.415
        21  -9.2014     37.5325      9.7250   7.5450010731e+01   6.9563536849e+01    0.1755251    0.1497232  24.36 0.0006333656    1.410    0.291
        22  -8.5587     55.5719     10.9980   6.7941929602e+01   6.6693524215e+01    0.2377081    0.1918929  -4.33  0.001565132    1.135    0.119
        23  -9.4838     51.6985     13.5278   7.0805541415e+01   6.7014410155e+01    0.3230861    0.1805847 -19.46  0.001742428    1.774    0.436
        24  -8.8541     52.6999      9.2867   6.8305257439e+01   6.7361669830e+01    0.1750706    0.1422484 -27.87            0    1.455    0.313
        25  -9.9342     42.7744     10.4035   7.3282209159e+01   6.8746931763e+01    0.7015119    0.2486157  25.76  0.002157401    4.156    0.759
        26  -9.5630     49.2047      8.1291   6.9232492269e+01   6.8052888195e+01    0.2334544    0.1576049  31.40 0.0004786543    1.322    0.243
        27 -10.5418    217.5934     18.8218   3.6945993054e+01   2.8658421003e+01    0.5065248    0.2689994  79.75  0.002543556    1.821    0.451
        28  -9.1251    219.2915     12.2102   3.5269193084e+01   2.8998840616e+01    0.2481879    0.2022087 -25.30  0.001572007    1.484    0.326
        29 -10.1564    199.3800     18.2169   3.8675076370e+01   3.3015916576e+01    0.3341064    0.2482522 -43.00  0.001945308    1.359    0.264
        30 -10.5965     93.5736     19.6327   5.8544115071e+01   5.8467158108e+01    0.2742519    0.2527575  22.89  0.000929342    1.112    0.101
        31 -11.2909    230.9115     14.8748   3.4860602779e+01   2.6099382267e+01    0.5410358    0.2820797 -50.13   0.00256202    1.705    0.414
        32 -10.3854    242.9851     14.2953   3.3770471082e+01   2.3554838261e+01    0.2675482    0.2319165  -1.64  0.001253929    1.687    0.407
        33 -10.0130    210.1371     13.8087   3.6489193803e+01   3.0942043340e+01    0.4212173    0.2796266  26.15   0.00214204    2.459    0.593
        34  -9.6852    211.9002      9.1687   3.5232374373e+01   3.1021419195e+01    0.3650055    0.2221203  73.28  0.002030842    1.480    0.324
        35 -10.2322    209.1925      4.6222   3.4413685990e+01   3.2112378060e+01    0.3500841    0.2486607  48.87  0.001190727    1.666    0.400
        36  -9.3002    206.4634      1.5853   3.3941669676e+01   3.3045012783e+01    0.2083174     0.157674 -82.22 0.0001176161    1.135    0.119
        37  -9.8059    116.9545     15.1776   5.0784529905e+01   5.3651274685e+01    0.3573177    0.2020625  45.97 0.0008017438    1.541    0.351
        38  -8.9234    112.4066     15.2421   5.1853529839e+01   5.4711105799e+01    0.2553793    0.1269272 -27.60  0.001178585    2.191    0.544
        39  -9.8758    179.3197     13.2714   3.9723002732e+01   3.8440750144e+01    0.2477159    0.1854458  69.81 0.0002421296    1.181    0.154
        40 -10.9055    175.8470     11.1248   3.9566357904e+01   3.9515023688e+01    0.5351133    0.3217878  39.71   0.00165109    1.999    0.500
        41 -10.9966    133.0830     12.7480   4.6611207266e+01   4.9998221157e+01    0.2442118    0.2339885 -54.40 0.0003119635    1.188    0.159
        42  -9.5686    127.8170      8.4457   4.6121351402e+01   5.1673701553e+01    0.4037522    0.1685299  70.26  0.001617541    2.495    0.599
        43 -10.4520    148.1963     12.3734   4.3858551590e+01   4.6293769880e+01     0.619023    0.2006833  62.50  0.002368551    2.498    0.600
        44  -8.6556    145.5557      9.0050   4.3216329989e+01   4.7262701474e+01    0.1797402    0.1345912 -22.01 0.0005878205    1.543    0.352
        45  -7.7233     75.5264     12.3449   6.1093987813e+01   6.2943984639e+01    0.2735493    0.1849011 -28.07  0.001565161    1.602    0.376
        46  -9.2003     78.9090     11.6058   5.9641173534e+01   6.2355155262e+01    0.2253798    0.1544888   2.70 0.0001709446    1.499    0.333
        47  -9.0041     73.9548      8.0846   5.9685843745e+01   6.3685782786e+01    0.2590216    0.1589492  47.18  0.001207462    1.470    0.320
        48  -8.8307     98.1197     11.8913   5.4110339230e+01   5.8281487349e+01    0.2189686     0.177074 -48.88 0.0007450837    1.598    0.374
        49  -9.0368     98.1453      7.0952   5.2150435022e+01   5.8717982239e+01    0.2445429    0.1560716  22.77 0.0007285064    1.628    0.386
        50  -8.8291    201.5423      1.4911   3.4355454559e+01   3.4209248167e+01    0.2583969    0.1234783  63.95 0.0006513768    1.867    0.464
        51 -10.6420    192.0403      7.9977   3.6887445454e+01   3.5852504444e+01    0.3559233    0.3019183 -74.41            0    1.091    0.084
        52 -10.7489    194.1004      3.8544   3.5635560456e+01   3.5756793741e+01    0.6402234    0.2314891  63.70  0.002407193    2.327    0.570
        53  -9.6085    224.7138      9.1026   3.4108319410e+01   2.8105174048e+01    0.2231666    0.1734049 -72.12            0    1.088    0.081
        54 -10.6285    164.9178      7.4523   3.9931423433e+01   4.2580398963e+01    0.3210453    0.2292364 -54.26 0.0004583695    1.502    0.334
        55 -11.3873    160.3233      2.5557   3.9112656653e+01   4.4155502275e+01    0.5977123    0.2533309  65.80  0.000565582    1.936    0.483
        56  -9.4201    119.9683      8.8995   4.7834217677e+01   5.3521931833e+01    0.3446735    0.2168786  43.25  0.001186365    1.424    0.298
        57 -10.5456    202.6806      8.5836   3.5958832265e+01   3.3244738384e+01    0.2671855    0.2041629 -58.84            0    1.235    0.191
        58  -9.0349    138.5299      7.6366   4.3929291668e+01   4.9123150460e+01    0.2855717    0.1345315  -4.63 0.0009906968    3.335    0.700
        59 -10.9258    109.6811      5.7030   4.8845267173e+01   5.6217253207e+01    0.8313494    0.3902221  48.56  0.003502638    1.749    0.428
        60 -10.9221    119.3096      2.0649   4.5483361043e+01   5.4248261862e+01    0.2885045    0.1948643  57.31 0.0004695645    1.234    0.189
        61 -10.5543    115.7317      2.0004   4.6167110144e+01   5.5101404118e+01    0.1771956    0.1523699  46.96 0.0003197121    1.035    0.033
        62  -9.8248     91.9897      8.2181   5.4249930676e+01   5.9965106216e+01    0.3654742    0.1553887  42.81 0.0008991696    2.002    0.501
        63  -9.7444     86.5832      6.6852   5.5121921397e+01   6.1257244323e+01    0.3488908    0.2615947  58.53  0.002069345    1.388    0.279
        64 -11.0280    248.1458      4.6822   3.1444841495e+01   2.3525419817e+01    0.3259491    0.2747842 -15.67 0.0005996067    1.662    0.398
        65 -10.8856    180.2061      2.5947   3.6753014125e+01   3.9243848037e+01    0.4977562    0.3060286 -75.61   0.00144063    1.703    0.413
        66  -9.2737    173.8102      5.3920   3.8237486345e+01   4.0563004688e+01    0.2989033    0.2135687  69.83  0.001713039    1.208    0.172
        67  -9.7996     61.9975      5.4536   6.2697223526e+01   6.6185575564e+01    0.2227193    0.1632165  -4.17 0.0005578819    1.281    0.219
        68  -9.4839     39.3956      4.6895   7.1956388122e+01   6.9924684785e+01    0.2919936    0.2321578  15.15  0.002029204    1.151    0.132
        69 -10.3066     30.9765      3.4312   7.5488141922e+01   7.1217835313e+01    0.2816681    0.2138628 -44.80  0.001139653    2.073    0.518
        70 -10.6220    238.1154      2.8291   3.1751151122e+01   2.5828559379e+01    0.3325822    0.2454264  68.02  0.002189128    1.426    0.299
        71 -10.3126     49.2821      2.5306   6.6343129408e+01   6.8656048634e+01    0.4046471    0.1870915  25.92  0.001968172    2.234    0.552
        72  -9.0714    223.8386      4.1464   3.3087483165e+01   2.8816483338e+01    0.1985031    0.1617544 -35.25 0.0008162549    1.386    0.278
        73 -10.1565    218.0034      2.9847   3.3294811321e+01   3.0249182147e+01    0.2864284    0.2352244  60.70   0.00121487    1.364    0.267
        74  -9.9057    144.9843      3.0566   4.1417860535e+01   4.7917767603e+01    0.4506404    0.1902191  67.59  0.001969809    2.018    0.505
        75  -9.8946     90.5110      1.8286   5.1943849487e+01   6.0835877002e+01    0.3871545    0.2210268  64.50  0.001036263    1.847    0.458
        76  -9.6154     68.8424      2.4335   5.8774470899e+01   6.5206604169e+01    0.2965988    0.1935201   8.11  0.001719795    1.521    0.343
        77 -10.4660     73.8084      1.9204   5.6880748796e+01   6.4287893609e+01     0.393627    0.2108299  54.60  0.002051749    1.801    0.445
        78  -9.3449     81.0595      1.9856   5.4667340919e+01   6.2818840324e+01    0.2611257    0.2032276  77.99  0.001538706    1.790    0.441
        79  -9.5534      3.8756      2.1873   9.0563993993e+01   7.4138280936e+01    0.2931527    0.1437256  -9.82  0.001662259    2.098    0.523
        80  -9.0829    127.9069      1.6145   4.3732110762e+01   5.2218454908e+01    0.2174014    0.1247421  51.14 0.0009028034    1.469    0.319
        81  -9.0135    185.9955      1.3306   3.5810824945e+01   3.7947094161e+01    0.1875178    0.1041466  74.91 0.0009593313    1.558    0.358
        82  -8.4603     35.6488      1.7074   7.2194778155e+01   7.0798373543e+01     0.124881   0.07300434   8.67  0.000702994    1.676    0.403
        83  -8.5629    122.1048    112.3821   8.1177139589e+01   3.5968702065e+01     0.222396    0.1453243  53.64 0.0006176741    1.714    0.417
        84  -9.5729    201.5323    249.5600   9.0026461128e+01  -5.3308968172e+00    0.2210693    0.1619814  23.36 0.0006766362    1.072    0.067
        85  -9.4108    232.1095    110.2677   5.6616043728e+01   1.2037393857e+01     0.326813    0.1925928 -67.26  0.001271703    3.022    0.669
        86  -9.8643     62.9723    110.9081   9.9122635967e+01   4.6464583909e+01    0.2303254    0.1871343 -53.53            0    1.121    0.108
        87  -8.1500     70.0000    109.9265   9.6600063066e+01   4.5745376507e+01    0.2383386   0.07755846 -56.41 0.0006747357    2.856    0.650
        88  -9.7762    128.9933    109.1828   7.8400366066e+01   3.5227896342e+01    0.3616513    0.2089063  50.25 0.0009660982    1.839    0.456
        89 -10.4163    117.8764    106.2391   8.0741978334e+01   3.8217230699e+01    0.5291266    0.2816398 -34.14  0.001580773    2.188    0.543
        90  -9.4748     42.5025     99.7437   1.0365191869e+02   5.1531397767e+01    0.4622659     0.217154 -31.40  0.001820855    2.901    0.655
        91  -9.4101     36.8676    108.4747   1.0726822802e+02   4.9977022873e+01    0.4082158    0.1310346 -53.43  0.001455869    2.466    0.595
        92  -9.7666     37.0755    103.5934   1.0628709301e+02   5.1136157234e+01    0.2852605    0.2111726 -11.70  0.001251966    1.608    0.378
        93 -10.2636    137.3378    107.2828   7.5628967564e+01   3.3819368879e+01    0.3070078    0.2715229 -57.47 0.0007000885    1.205    0.170
        94  -8.9027     95.0023    106.4716   8.7710308002e+01   4.2565735339e+01    0.3530792    0.1795728  50.26   0.00132905    2.400    0.583
        95  -8.9533     91.6643    106.2755   8.8711537377e+01   4.3198227362e+01     0.232769    0.1900814 -67.76 0.0005818994    1.366    0.268
        96  -9.1876     30.0600    107.0854   1.0927673684e+02   5.0915452429e+01     0.294164    0.1479526 -24.85  0.001241906    2.919    0.657
        97  -9.6938     74.5945    104.4136   9.3778792828e+01   4.6395545875e+01    0.2939467    0.2449405 -35.83  0.001572443    1.164    0.141
        98  -9.0367     62.6588    104.9521   9.7894756823e+01   4.7941938267e+01    0.2252852    0.1939348  -2.27 0.0004981055    1.278    0.217
        99  -9.7703     66.4519    103.4592   9.6269314603e+01   4.7789405086e+01    0.3103239    0.2242668   4.64  0.001064581    1.707    0.414
       100  -9.2702     22.7346    105.0574   1.1136297440e+02   5.1980206431e+01     0.317288    0.1562057  35.89  0.001411054    2.311    0.567
       101 -10.5909    101.4876    100.6664   8.4131170664e+01   4.2704711880e+01    0.7305927    0.4979411 -32.93  0.002967923    1.563    0.360
       102  -8.7620     94.2020     86.8735   8.2508232222e+01   4.7105918803e+01    0.3168676    0.2098201   0.58  0.001036488    2.269    0.559
       103 -10.7686    103.8283     90.4985   8.0510558334e+01   4.4494233682e+01    0.5729023    0.3469225  60.12  0.000985672    2.400    0.583
       104 -10.8114    109.9445     99.4194   8.1199085909e+01   4.1339088727e+01    0.5821717    0.3911267  45.77  0.001597563    1.538    0.350
       105  -9.4517    108.9433     95.4741   8.0382749092e+01   4.2404306958e+01    0.3839997    0.2575478  57.15  0.001070647    1.822    0.451
       106  -8.9817    174.9303    102.9762   6.5416022916e+01   2.6034769157e+01    0.2236638    0.2200698  -8.54  0.001195623    1.012    0.012
       107  -9.7151     84.8695    102.3367   8.9874102273e+01   4.5266938303e+01    0.2484062    0.1961653 -56.92 0.0005436796    1.279    0.218
       108  -8.8615     47.8631    102.1924   1.0231656014e+02   5.0381795068e+01    0.3713847      0.15342 -60.62   0.00104166    2.174    0.540
       109  -9.4165     50.6251     99.1861   1.0070629096e+02   5.0792348998e+01    0.2782118    0.1996063 -22.45 0.0003706078    1.575    0.365
       110  -9.4990    139.1780    102.1407   7.3727301620e+01   3.4499015733e+01     0.211051     0.188348 -81.68 0.0002317807    1.305    0.234
       111 -10.4317     57.2444     99.9417   9.8583754030e+01   4.9827557045e+01    0.3480571    0.2082397 -34.91  0.001527885    1.794    0.442
       112  -9.3970     78.0255     99.7447   9.1460081232e+01   4.6968807500e+01    0.2030398    0.1921792  15.88 0.0006663151    1.101    0.092
       113 -10.5563     16.6278     98.0844   1.1227911709e+02   5.4063018867e+01    0.3514431     0.284207 -28.31  0.001125651    1.322    0.244
       114  -9.2034     12.9156     95.2443   1.1309097055e+02   5.4962665057e+01    0.5013245   0.07806943 -60.92  0.001751076    3.442    0.709
       115  -9.8685    124.6708     97.9275   7.6484811900e+01   3.8596563170e+01    0.3779853    0.2890491  -2.07  0.001488352    1.668    0.401
       116  -9.3774     72.1182     99.1989   9.3308213735e+01   4.7990379682e+01    0.1963843    0.1750427  85.96 0.0009116764    1.333    0.250
       117  -8.2980    117.4426     98.4341   7.8700251044e+01   4.0022920610e+01     0.155008    0.1487139  -2.51 0.0001632072    1.023    0.022
       118  -9.8183     33.9830     97.8989   1.0624634039e+02   5.2779675132e+01    0.2103881    0.1643936 -55.26 -0.001320134    1.086    0.079
       119  -9.9477     33.6688     91.4996   1.0505609226e+02   5.4319166179e+01    0.5173385     0.199225 -46.62   0.00188186    2.236    0.553
       120  -9.3216    129.8989     96.8811   7.4732249958e+01   3.7674928732e+01    0.2352466    0.2084312   4.99  0.001170357    1.210    0.174
       121  -9.5120     42.0476     94.7804   1.0275227719e+02   5.2755657796e+01     0.293793    0.1862271 -79.34   0.00101647    1.953    0.488
       122  -9.7794     23.5641     95.3718   1.0941399488e+02   5.4224164646e+01    0.2364506    0.2011807 -54.75 0.0008132525    1.027    0.026
       123  -9.2773     79.9886     95.2694   8.9618666399e+01   4.7691167445e+01    0.3398562    0.1834658  17.89  0.001283712    2.703    0.630
       124  -8.5680    179.3452     93.8038   6.2035194299e+01   2.6726621113e+01      0.22318    0.1434759 -27.15 0.0009431102    1.740    0.425
       125  -8.5203     91.4410     94.5082   8.5614322538e+01   4.5929217177e+01    0.1494465    0.1417409 -27.24 4.979212e-05    1.018    0.018
       126  -9.8736     52.0364     93.9846   9.9012047685e+01   5.1858612551e+01    0.2248351    0.1800005 -45.68  0.001266458    1.106    0.096
       127  -9.6105     47.0713     92.7660   1.0050184715e+02   5.2703210325e+01    0.4167356    0.1822082 -47.62   0.00179075    1.985    0.496
       128 -10.3343     48.9484     88.3874   9.8777512015e+01   5.3514113780e+01     0.431095    0.2648777  51.66            0    2.220    0.549
       129  -9.5649     49.6843     83.7169   9.7331334224e+01   5.4499766473e+01    0.2518296    0.1608239   9.95 0.0005917454    1.871    0.466
       130  -8.8992     47.2247     81.9765   9.7806392150e+01   5.5171065645e+01    0.2384525    0.1757803 -65.96 0.0007400019    1.457    0.314
       131 -10.1486    116.7580     91.8554   7.7001009181e+01   4.1572496645e+01    0.2777447    0.2486352  14.32 0.0002574447    1.145    0.126
       132  -9.3500     35.7403     83.5375   1.0253001629e+02   5.5979353011e+01    0.3101653    0.1923726 -60.44  0.001632804    1.458    0.314
       133  -9.4876     27.6585     91.9213   1.0730778874e+02   5.4723499960e+01     0.193924    0.1778592  41.13 0.0004173152    1.295    0.228
       134 -10.9811     30.3656     85.2560   1.0493513181e+02   5.6055271221e+01    0.4760299    0.2920627 -43.67  0.002575601    1.417    0.294
       135  -9.9070     24.6490     87.3681   1.0749494344e+02   5.6018451042e+01    0.3572154    0.3040586  87.90  0.002265737    1.356    0.262
       136 -10.9507    124.4041     87.8101   7.3605176810e+01   4.0760527681e+01    0.4527367    0.4456113  46.39  0.002211737    1.068    0.064
       137  -9.8610    132.8342     82.1331   6.9584498110e+01   3.9986203125e+01    0.2781024    0.2292101  25.89 0.0006359487    1.277    0.217
       138 -10.4162     87.3505     87.1378   8.4852261175e+01   4.8277892773e+01    0.6747041    0.3284967 -49.54  0.002232169    2.037    0.509
       139  -9.4681     16.0805     86.8146   1.1052431815e+02   5.6735421795e+01    0.3875889    0.2440213 -37.85  0.002224301    1.496    0.332
       140  -9.3215      7.2647     89.3276   1.1411262295e+02   5.6655082149e+01    0.2344179    0.1632108  47.08 0.0008404452    1.788    0.441
       141  -9.0377     11.0590     86.1960   1.1223786131e+02   5.7175652756e+01    0.2941696    0.1084107 -53.26  0.001370588    2.004    0.501
       142  -7.9335     58.6407     89.7297   9.5596324854e+01   5.2040509708e+01    0.1444296    0.1002056 -20.71  0.000699712    1.646    0.393
       143 -10.0559     43.4029     88.1667   1.0075980603e+02   5.4163904583e+01    0.2805289    0.2047929  23.49 0.0004148169    1.523    0.343
       144  -9.9752     80.5372     83.6793   8.6155239968e+01   5.0187228715e+01    0.5251877    0.3802797 -21.42  0.002565834    1.521    0.343
       145  -9.5252     70.3119     86.8861   9.0662101420e+01   5.1079021728e+01    0.2087351    0.1967418 -54.23     0.000824    1.141    0.124
       146 -10.5337     73.7280     81.0316   8.7765132172e+01   5.1852879351e+01    0.6615368    0.3776759 -35.71  0.002947704    1.775    0.437
       147  -8.7471     54.4578     86.7708   9.6352767387e+01   5.3240558168e+01    0.2558807     0.105674 -45.82 0.0003254977    2.155    0.536
       148 -10.7145     59.3792     83.5458   9.3689287338e+01   5.3349768743e+01    0.4209976    0.2476188  34.47   0.00202093    1.832    0.454
       149  -9.0293    180.9958     85.4955   5.9458684129e+01   2.7838425443e+01    0.2066241    0.1355213  85.80 0.0005736558    2.340    0.573
       150 -10.3289    155.6754     84.4526   6.4592321624e+01   3.4151138111e+01    0.4036399    0.2889865 -46.57 0.0002861471    1.448    0.309
       151 -10.7387    150.8449     80.3616   6.4527500452e+01   3.6071517185e+01    0.4940456    0.3292424  56.39  0.002184889    1.533    0.347
       152 -10.0719    129.9710     85.3292   7.1321006851e+01   4.0014568984e+01    0.3840462    0.3283829  57.55  0.001428918    1.240    0.194
       153  -9.4645     20.5453     80.7678   1.0768396101e+02   5.7832739728e+01    0.4059922    0.2476485 -68.70  0.001674927    1.543    0.352
       154 -10.8341     17.6462     74.0376   1.0738371698e+02   5.9547760482e+01    0.3709979    0.2819633 -44.72  0.000644954    1.082    0.076
       155  -9.5094     42.1681     81.1134   9.9505033857e+01   5.5906167428e+01    0.3097153    0.2428402 -40.22  0.001815331    1.108    0.097
       156  -8.4680     38.4377     79.5027   1.0053174183e+02   5.6642390728e+01    0.1844677    0.1562244  61.84 0.0005477889    1.529    0.346
       157 -10.6034    167.2093     79.1764   6.0519807649e+01   3.2308253815e+01    0.4216796    0.3058448 -57.31  0.001939844    1.559    0.358
       158  -9.2909      1.9536     79.4308   1.1442550650e+02   5.9171099170e+01    0.2903368    0.1432595 -67.84  0.001557801    1.628    0.386
       159 -10.3960    110.6227     76.9610   7.4278241519e+01   4.5898955013e+01     0.327382    0.3155576 -16.42 0.0008925307    1.055    0.052
       160 -10.8506     89.3026     73.2892   7.9928960098e+01   5.0834424390e+01    0.4513086    0.3294731 -41.77  0.002257979    1.349    0.259
       161 -10.6148     94.3014     71.8197   7.7778347721e+01   5.0190734513e+01    0.7805502    0.3418677 -42.58  0.003007969    2.260    0.558
       162  -9.7349     68.9680     74.2278   8.7438631319e+01   5.4035052617e+01    0.2580768    0.2106539 -26.86 0.0005454912    1.139    0.122
       163  -9.7366     65.6654     76.3375   8.9301617125e+01   5.4071112903e+01    0.5457848    0.3426168  62.27  0.002088145    2.988    0.665
       164  -9.1335     61.4425     76.7954   9.1012726521e+01   5.4563551336e+01    0.2488036    0.1877645 -43.95 0.0006469843    1.210    0.174
       165 -10.4358    158.2217     76.7206   6.1761397980e+01   3.4939620360e+01    0.2890414    0.2518932  21.23 0.0003673634    1.255    0.203
       166  -8.5804     13.1679     79.2854   1.1019164775e+02   5.8638260710e+01    0.1621122    0.1342465  88.77 0.0005937024    1.397    0.284
       167 -12.2077     53.0408     75.0953   9.3715292612e+01   5.6020717394e+01     0.316237    0.2937096   5.84 0.0003442958    1.151    0.131
       168 -10.0913     53.2539     70.6260   9.2327190989e+01   5.6957083769e+01    0.3240517    0.1955726 -54.92 0.0008805001    1.657    0.397
       169 -10.7089     82.5180     74.7829   8.2741801950e+01   5.1735744430e+01    0.7625006    0.3205524  32.13  0.001409234    2.665    0.625
       170 -11.8441     79.8403     69.9676   8.2137325238e+01   5.3172449877e+01    0.3256967    0.2643251   5.36 0.0003142908    1.264    0.209
       171  -8.9406     28.4393     75.3096   1.0340941960e+02   5.8475689212e+01    0.2596758   0.09550397 -54.49  0.001124881    2.115    0.527
       172 -11.1805    171.1276     73.5034   5.8096710387e+01   3.2329967461e+01    0.6147321    0.3245843  63.97  0.002399463    2.141    0.533
       173  -9.4286    173.5708     69.2627   5.6409401240e+01   3.2436457346e+01    0.3304975    0.2208681  34.55   0.00107209    1.784    0.440
       174 -10.9698    143.7509     66.4053   6.1976374782e+01   4.0256610448e+01     0.542038    0.3570855 -13.21  0.002024453    2.039    0.510
       175  -9.3164    147.5350     64.4710   6.0491662548e+01   3.9659261192e+01    0.2421293    0.1861917  -0.51 5.468842e-06    1.628    0.386
       176  -9.4131    142.2407     73.8067   6.4629692245e+01   3.9328567647e+01    0.3726086    0.1829532 -27.32   0.00133177    2.556    0.609
       177  -9.7252    145.8866     70.8494   6.2841182602e+01   3.8974486484e+01    0.5071051    0.2650948  39.58  0.001639211    2.089    0.521
       178 -10.8633    152.0548     72.7558   6.1979283036e+01   3.7142691720e+01    0.2954935    0.2692471 -46.64 0.0007166155    1.136    0.120
       179  -9.0076      1.4560     73.4343   1.1358857321e+02   6.0539782229e+01    0.2367887   0.09717948 -68.25  0.001141285    1.993    0.498
       180 -10.9339    199.6844     71.8631   5.2453828647e+01   2.5655439210e+01    0.2735887    0.2510663 -20.53 0.0004014149    1.188    0.158
       181  -9.5974    181.7915     72.1643   5.5658324659e+01   2.9934411617e+01    0.2028749    0.1765965   8.02 0.0006472293    1.357    0.263
       182 -10.6985     46.1885     68.0460   9.4367573857e+01   5.8345274364e+01    0.5649253    0.2901912 -30.34  0.001658723    2.146    0.534
       183  -8.7621    101.2782     69.8500   7.4869031637e+01   4.9201102459e+01    0.2478139    0.1970278  47.96 0.0006595636    1.330    0.248
       184  -9.2926     10.2047     69.5066   1.0938620428e+02   6.0996351070e+01    0.2628512    0.1026741 -49.62 0.0008358579    1.895    0.472
       185  -8.8997     63.7925     69.5034   8.7907503913e+01   5.5782212398e+01     0.251533    0.1358585  26.25  0.001130523    2.013    0.503
       186 -10.4159     39.8449     57.9922   9.3932778443e+01   6.1131081714e+01    0.3066923    0.2769445   6.46  0.001482063    1.207    0.171
       187 -11.5954     32.5987     64.5295   9.8935618293e+01   6.0477708294e+01    0.6989725    0.3933292 -12.90 0.0001551195    2.207    0.547
       188 -10.1733     31.4642     58.4805   9.7680319729e+01   6.1852796677e+01    0.3315481    0.2644818 -56.87  0.001339596    1.314    0.239
       189  -9.0182      1.5014     55.4768   1.1000421732e+02   6.4446347521e+01    0.3841805    0.1536999  17.66  0.001952785    2.865    0.651
       190  -9.3143     14.9348     64.3669   1.0630155343e+02   6.1850507933e+01     0.288826    0.2399685  23.99  0.001944347    1.456    0.313
       191 -10.8788      2.1547     67.2429   1.1217074456e+02   6.1881316317e+01    0.3663112    0.2333003 -60.15  0.002276734    1.232    0.188
       192  -9.9999      9.3525     61.6028   1.0801085820e+02   6.2767123946e+01    0.4432414    0.2724858 -72.95  0.002529783    1.723    0.420
       193 -10.1467      5.2241     63.6041   1.1018205372e+02   6.2539762223e+01    0.2556323    0.1605235 -35.66  0.001202354    1.398    0.285
       194 -10.8004      1.7589     61.9323   1.1127580500e+02   6.3055028661e+01    0.3176103    0.1649405 -46.70 0.0009307885    1.469    0.319
       195 -10.3793      6.0173     59.2164   1.0889002722e+02   6.3448065729e+01    0.2702733    0.2109846  -4.84  0.001003874    1.406    0.289
       196 -10.0513    120.4408     66.2104   6.7937138818e+01   4.5766070597e+01    0.5048606     0.348305 -25.91  0.002339065    1.568    0.362
       197 -10.8784    135.3102     64.9232   6.3572241643e+01   4.2537484478e+01    0.4633023    0.3491575  45.00  0.001364184    1.272    0.214
       198  -9.7063    106.3431     66.2838   7.2098370347e+01   4.8825662563e+01    0.3577926    0.2301284  33.95 0.0005536687    1.584    0.369
       199  -9.6524     75.0954     65.9184   8.2514421139e+01   5.4771087167e+01    0.2373077     0.186874 -24.20 0.0003647928    1.208    0.172
       200 -10.0760    203.8111     63.6922   4.9691574505e+01   2.5953749014e+01    0.4580393     0.286274  81.92  0.001307759    1.967    0.492
       201 -10.2135     82.7149     63.1502   7.8833307583e+01   5.4004742431e+01    0.4101542    0.2806027 -57.43   0.00193646    1.919    0.479
       202  -9.8263     25.0377     54.2246   9.9240729467e+01   6.3280377504e+01    0.3366263    0.1716608 -47.63 0.0005539333    1.577    0.366
       203 -10.5842     23.1170     63.0564   1.0252858191e+02   6.1576561655e+01    0.5572633    0.2437013 -29.75  0.001782614    2.558    0.609
       204  -9.8453     22.1181     58.9796   1.0187132743e+02   6.2517542638e+01    0.3345046    0.1886603 -54.12 0.0007661037    1.488    0.328
       205  -9.5870     97.7763     63.9281   7.4001690526e+01   5.1013102061e+01    0.3888417    0.1793971  45.42  0.001167668    2.182    0.542
       206  -8.7957     98.7535     60.4501   7.2488149322e+01   5.1445921881e+01    0.2298918    0.1667407   5.28 0.0007179237    1.642    0.391
       207  -9.2597     66.1677     63.2819   8.4979634166e+01   5.6695771482e+01    0.3306942    0.2535112 -53.40   0.00135234    1.472    0.321
       208  -9.9898    160.0886     60.5946   5.6579821169e+01   3.7184168593e+01    0.3149337    0.2150716 -35.17  0.001474969    1.516    0.340
       209 -10.4131    162.9038     56.6608   5.4838233662e+01   3.7092387055e+01    0.4822092    0.2317912 -30.21  0.001688474    2.273    0.560
       210  -9.6911    193.9980     60.2971   5.0334700435e+01   2.8830571617e+01     0.260475    0.2088751 -37.70            0    1.256    0.204
       211  -8.3496    115.9691     61.2021   6.7532216742e+01   4.7643790322e+01    0.2002134    0.1145594  48.32 0.0008494369    1.695    0.410
       212 -10.5481     70.4115     59.7959   8.2175926010e+01   5.6717956178e+01    0.2827779    0.2657734 -67.34 0.0008967131    1.382    0.276
       213  -9.1875     53.5460     60.6227   8.9077457790e+01   5.8989972192e+01    0.3282104    0.2762321  59.03 0.0009799313    1.687    0.407
       214  -8.9149     48.4523     57.8265   9.0250305010e+01   6.0187394848e+01    0.2251689    0.1372212 -31.92 0.0009578955    1.531    0.347
       215  -9.5486     52.7708     54.2145   8.7230882035e+01   6.0350339646e+01    0.3832143    0.2618463 -27.65  0.002095444    1.351    0.260
       216  -9.6443     53.7471     50.1189   8.5372339844e+01   6.0995257950e+01    0.2032253    0.1704995   3.19 0.0003431519    1.114    0.103
       217 -10.3853    150.5327     59.6494   5.8325998190e+01   3.9705334064e+01    0.3673278    0.2582178  70.00  0.001263456    1.583    0.368
       218  -9.0403     15.9058     59.9447   1.0481132269e+02   6.2740724150e+01    0.1994791     0.161505 -65.36 0.0007064947    1.302    0.232
       219  -9.6025     14.2358     54.6425   1.0417504099e+02   6.3963763428e+01    0.5127327     0.262635 -72.99  0.002440626    2.595    0.615
       220 -10.9943      6.8158     50.6828   1.0648831142e+02   6.5204485648e+01    0.3839963    0.3078244 -24.49  0.002110165    1.175    0.149
       221  -9.2521      8.3968     43.7386   1.0387331208e+02   6.6533155951e+01    0.2102782    0.1577956 -48.10 0.0002746509    1.136    0.119
       222 -11.0705      5.4350     37.8408   1.0359296211e+02   6.7856118673e+01    0.4583003    0.3886648  57.94  0.003213284    1.791    0.442
       223 -10.0848      4.9664     32.0005   1.0201084286e+02   6.9001295101e+01    0.3458103    0.2103629 -14.74  0.001704765    1.551    0.355
       224 -10.9349     12.2997     44.3704   1.0219349297e+02   6.6178667045e+01    0.5828162    0.1282052 -54.63  0.002312719    3.108    0.678
       225 -11.5508     14.4938     39.4897   9.9621883693e+01   6.6993329563e+01    0.5162598     0.427776 -77.64  0.002511902    1.717    0.417
       226 -10.3406    105.1748     57.7587   6.9538816456e+01   5.0583921129e+01    0.2731557     0.226595 -29.19 0.0002943139    1.220    0.180
       227  -8.7955    181.3064     58.3685   5.1923379501e+01   3.2241725054e+01    0.2306325    0.1720786  27.75  0.001107563    1.686    0.407
       228 -10.4882    167.9978     56.5212   5.3811115927e+01   3.5839434603e+01    0.5086352    0.2947199  64.09  0.001602955    1.745    0.427
       229  -9.2434    172.0473     53.6846   5.2236879629e+01   3.5250187779e+01    0.2059215    0.1770294  63.27  0.000441436    1.111    0.100
       230  -9.5011    128.7162     57.4308   6.2810060647e+01   4.5345148642e+01     0.402258     0.223861  64.81 0.0009877188    2.291    0.563
       231 -10.0031    136.4657     56.1513   6.0458605714e+01   4.3699510305e+01    0.3825626     0.308856   8.05  0.001726045    1.430    0.301
       232  -8.7977     60.4900     57.1158   8.5099380180e+01   5.8733270756e+01    0.2115829    0.1250055 -44.38  0.001037566    1.612    0.380
       233  -9.9331    225.9210     55.4352   4.4623471444e+01   2.2058059310e+01    0.2436402    0.1831705 -41.78 0.0003088824    1.248    0.199
       234 -10.7896    124.1628     31.2078   5.4925712844e+01   5.0166293855e+01     1.378564     0.380262  52.52  0.004676419    2.962    0.662
       235  -9.1892    128.0147     40.6837   5.7317837617e+01   4.8014582938e+01    0.2432901    0.2140906 -23.15 0.0006915912    1.212    0.175
       236  -9.0661    128.1163     50.8602   6.0763974179e+01   4.6519305830e+01    0.3087736     0.231255   5.40  0.001144505    1.620    0.383
       237 -11.2185    125.0895     45.6701   5.9756650579e+01   4.8008273503e+01    0.4704735    0.3499235  23.28 0.0008529468    1.477    0.323
       238 -10.6329    131.1287     35.8156   5.4918314760e+01   4.7909444692e+01    0.4161991    0.3597029  32.63 0.0005790677    1.128    0.113
       239 -10.9520    117.9450     52.5228   6.4008991184e+01   4.8630285543e+01    0.4380746     0.279796 -28.88 0.0003475483    1.658    0.397
       240  -9.8164    122.5130     52.2573   6.2686129795e+01   4.7620067072e+01    0.4982097    0.2844598  34.36  0.001904436    1.933    0.483
       241  -9.7185     41.6155     21.9323   7.9333688568e+01   6.7328244028e+01    0.2353878    0.1697787  30.07 0.0006975383    1.446    0.309
       242 -10.1204     61.6454     52.0786   8.2851485379e+01   5.9514155264e+01    0.6256976    0.4350516 -76.74  0.002640824    3.411    0.707
       243 -10.0917     51.8642     28.9316   7.7782837621e+01   6.4855242655e+01    0.2163518    0.1786336  32.50 0.0003038622    1.382    0.276
       244 -10.0728     48.3741     25.0530   7.7627280699e+01   6.5940350639e+01     0.448591    0.2118796  33.53  0.001178212    2.054    0.513
       245 -10.8185     71.1358     51.8334   7.9056131721e+01   5.8073774360e+01    0.4233128    0.3092206   6.90 0.0003868552    1.435    0.303
       246 -10.8757     56.4371     33.8266   7.7896251836e+01   6.3419238643e+01    0.9344814    0.3923731  49.20  0.003421467    4.166    0.760
       247  -9.0329     55.5617     29.4687   7.6421674690e+01   6.4224309780e+01    0.2237828    0.1653594 -16.14 0.0005826692    1.217    0.178
       248 -12.4896     61.8941     44.0269   7.9735344811e+01   6.0910366471e+01    0.4678298     0.372127 -30.94 0.0004931481    1.213    0.176
       249 -10.1417     65.5974     49.2286   8.0233534726e+01   5.9427974116e+01    0.3271025    0.1983503 -30.22  0.001631329    1.596    0.373
       250 -11.3689     68.9756     47.9645   7.8441809151e+01   5.9109758403e+01    0.5878195    0.2756173 -37.87   0.00259834    2.059    0.514
       251  -9.6255     32.0130     41.7156   9.1959922859e+01   6.5108281496e+01    0.3222477    0.2627748 -60.10  0.001497987    1.593    0.372
       252 -10.0138     44.8537     55.3003   9.0927680184e+01   6.1116245805e+01      0.46236    0.2799484 -13.18  0.002097809    1.945    0.486
       253 -11.4810     40.8258     38.5395   8.6688153380e+01   6.4726990384e+01    0.5162512    0.2769863 -13.02  0.001146018    2.455    0.593
       254  -9.9703     46.9443     47.5445   8.7335074815e+01   6.2355044240e+01    0.3363355    0.2065947 -25.06  0.001056513    1.588    0.370
       255  -9.3081     42.5196     44.4541   8.8152943817e+01   6.3461332973e+01    0.2230618     0.199679 -21.44 0.0006554609    1.173    0.148
       256 -10.3594     42.4044     49.7429   9.0094101796e+01   6.2480733523e+01    0.4369687    0.1991549 -40.66  0.002017087    1.918    0.479
       257 -10.6874     37.9325     46.2405   9.0852748328e+01   6.3644803879e+01    0.3456841    0.3111175  66.87  0.002208899    1.707    0.414
       258 -10.4625    191.5295     54.1574   4.9086567061e+01   3.0345692826e+01    0.3212288     0.261358 -24.25 0.0009389314    1.370    0.270
       259 -10.4397    149.0319     54.4721   5.7043339413e+01   4.0882701626e+01    0.4493161    0.3311252  64.37 0.0003428782    1.369    0.270
       260 -10.5974    153.8067     49.1865   5.4392959466e+01   4.0478787332e+01    0.4941817    0.3501913  75.66  0.001549404    1.574    0.365
       261  -9.6706     91.0073     41.0275   6.7888417472e+01   5.6203077292e+01    0.3556221    0.3145983 -73.50  0.001801654    1.600    0.375
       262 -11.1697     94.5399     49.6472   6.9982866821e+01   5.4141552954e+01    0.5317731    0.3988878   2.60  0.001517727    1.461    0.316
       263 -10.5949     89.2266     49.4148   7.1657452950e+01   5.5233121189e+01    0.7337985    0.4630182 -59.41  0.003104959    2.707    0.631
       264 -11.0235     93.9599     45.1513   6.8497224052e+01   5.4975433941e+01    0.3466124    0.2569587  25.40 0.0002740851    1.315    0.239
       265  -9.7162     83.1671     52.0898   7.4739599917e+01   5.5928896046e+01    0.5225568     0.368879 -18.44   0.00266891    1.476    0.322
       266  -8.7354     79.5891     48.8118   7.4797274189e+01   5.7140812998e+01    0.2975029    0.1297636 -44.51  0.001188464    2.532    0.605
       267 -10.6091     31.1392     52.8723   9.6111890793e+01   6.3027936464e+01    0.4851208    0.2364451  28.02  0.002164287    2.227    0.551
       268  -8.6049    106.5117     52.9376   6.7435873431e+01   5.1103421860e+01    0.2246642    0.1774381  40.45 0.0003011294    1.201    0.167
       269  -9.0635     25.3593     47.7651   9.7110076286e+01   6.4554534972e+01    0.2159625    0.1782689 -50.91            0    1.279    0.218
       270  -9.3200     27.3623     44.2337   9.5016681981e+01   6.5069741526e+01    0.2182261    0.1482461 -39.78 0.0007278719    1.217    0.178
       271  -9.7186     19.9939     50.6813   1.0046957123e+02   6.4391005887e+01    0.3344727    0.1863176 -35.34 0.0009597485    1.522    0.343
       272 -10.1757     17.3682     46.6817   1.0049006795e+02   6.5383972341e+01    0.3750166    0.2667319  -2.22  0.002397416    1.432    0.301
       273  -8.1738    212.4662     51.5821   4.5409603361e+01   2.5690244958e+01    0.1352142    0.1254195 -79.00 0.0001077521    1.038    0.037
       274  -9.4638    175.2885     50.2233   5.0670846383e+01   3.4942101784e+01    0.2568367    0.2547809  75.33 0.0007556318    1.077    0.072
       275  -8.2426    212.2417     61.3012   4.7852070992e+01   2.4330489880e+01    0.1268657    0.1093431  10.83 0.0001489303    1.485    0.327
       276  -8.6179    224.4455     48.7643   4.3228428805e+01   2.3326399674e+01    0.1686873    0.1282087 -22.84  0.000492167    1.541    0.351
       277 -10.3833    181.1516     48.2010   4.9116574489e+01   3.3764507827e+01    0.3574826    0.2606981 -54.85   0.00155257    1.430    0.301
       278 -10.0060    114.5210     45.9704   6.2649559777e+01   5.0414949196e+01    0.3166589    0.2369476 -21.24 0.0008733528    1.420    0.296
       279  -9.3159    203.6648     46.4953   4.5310365236e+01   2.8485118886e+01    0.3622918    0.2047842  40.68  0.001535921    2.328    0.571
       280  -8.7212    196.7929     48.1831   4.6709675214e+01   2.9911640355e+01    0.1868917    0.1620404  36.74 0.0004796327    1.340    0.254
       281  -9.8724     31.8140     47.8712   9.4185676726e+01   6.3954411841e+01    0.1859757    0.1546225 -11.83 0.0005422689    1.111    0.100
       282  -8.5847    234.6898     47.3057   4.1723823307e+01   2.1249705777e+01    0.1378865   0.08690193 -64.69 0.0001859488    1.614    0.380
       283 -11.9916    103.9546     39.3017   6.3214006412e+01   5.3736362911e+01    0.5031387    0.3654129 -34.92   0.00063556    1.476    0.322
       284  -8.6493    164.9560     46.0433   5.1289430638e+01   3.8126294272e+01    0.2275157    0.1656486  30.78 0.0005456653    1.631    0.387
       285  -9.2496     83.0990     45.1233   7.2148427587e+01   5.7104283039e+01     0.300825    0.1928511 -58.40  0.001311662    2.633    0.620
       286  -8.7255    139.2539     44.6552   5.6050083662e+01   4.4734802846e+01    0.2495122    0.1786394   2.85 0.0008136128    1.808    0.447
       287 -10.2474    245.6174     43.1328   3.9667127146e+01   1.9469403370e+01    0.3364662    0.2180734  -9.44   0.00164162    2.627    0.619
       288  -8.9105    185.5828     44.1153   4.7288224241e+01   3.3226694408e+01    0.2948674    0.1601603  48.12 0.0009631885    1.937    0.484
       289  -9.4403    175.9071     43.7880   4.8733661008e+01   3.5684701832e+01    0.3210309    0.2361168 -75.02   0.00121495    1.540    0.351
       290  -9.2159    149.9625     44.0415   5.3568095683e+01   4.2166351974e+01    0.2247528    0.1635337  29.76 0.0003386604    1.568    0.362
       291  -9.5061    135.6105     36.2277   5.4057338045e+01   4.6763420159e+01    0.3019885    0.2277301 -46.91  0.001360855    1.496    0.332
       292  -8.5566     53.3128     43.2087   8.2979260623e+01   6.2304059733e+01    0.1721442    0.1119295 -45.42 0.0005019796    1.616    0.381
       293  -9.1656    191.2939     39.7977   4.5280563083e+01   3.2391351319e+01    0.3428623    0.2217841  -7.86   0.00122429    2.315    0.568
       294 -10.8080    228.2725     37.9804   4.0288666647e+01   2.3905926068e+01    0.3541607    0.2152826 -52.52 0.0006047726    1.513    0.339
       295 -10.8966    185.9466     30.2059   4.3451463100e+01   3.4919010738e+01    0.6103607     0.395423  77.17  0.001905214    1.499    0.333
       296  -9.7245    186.4899     36.8490   4.5173878877e+01   3.3959186871e+01    0.4075644    0.2465406  79.53  0.001853323    1.752    0.429
       297 -10.0758    182.1692     39.1807   4.6450911132e+01   3.4732026601e+01    0.3469613    0.2014134 -40.74 0.0007461904    1.736    0.424
       298 -10.2006    177.5197     37.0124   4.6557967771e+01   3.6173528150e+01    0.4542437    0.2952701 -89.05  0.001533349    1.798    0.444
       299  -8.7377    171.3939     40.3173   4.8486091681e+01   3.7282026115e+01    0.1806044    0.1299847 -45.37  0.000255424    1.442    0.307
       300  -9.2505    158.2129     39.0489   5.0418524862e+01   4.0767356713e+01    0.3271022    0.2310686 -57.62 0.0009222687    1.621    0.383
       301  -9.9308     25.1860     38.9236   9.4210950422e+01   6.6268546817e+01    0.2366397    0.1890426 -20.61 0.0006518603    1.044    0.042
       302  -8.6176    165.7856     39.5889   4.9226940753e+01   3.8789433350e+01    0.1915413    0.1314676  76.88 0.0004220935    1.520    0.342
       303  -8.4881    120.6187     38.8574   5.8504672708e+01   5.0017945206e+01    0.2013877    0.1278737 -42.46 0.0009419119    1.781    0.439
       304  -8.8251     82.2954     38.5614   6.9872723326e+01   5.8277749210e+01    0.2230305    0.1545569 -39.63 0.0006617135    1.590    0.371
       305  -9.0105    238.2662     37.6238   3.9186288452e+01   2.1754149331e+01    0.1753068    0.1409931 -60.22  0.001091232    1.071    0.066
       306 -10.1086    115.9058    248.6460   1.0687034952e+02   7.8516508577e+00    0.2487684    0.1879079  34.10 0.0007326152    1.205    0.170
       307  -8.2352    202.6526     38.3475   4.3369698301e+01   2.9815970304e+01      0.15125    0.0932385 -66.91  0.000704173    1.810    0.448
       308 -10.8341    116.6484     33.6314   5.7637709939e+01   5.1634735894e+01     0.475133    0.2961358  18.29  0.000532189    2.077    0.518
       309  -9.9703     86.3206     35.6238   6.7325022397e+01   5.7928797601e+01     0.629158    0.3631332 -32.23  0.002914056    1.776    0.437
       310  -9.9052     71.3123     29.8797   7.0294315203e+01   6.1563315204e+01    0.3016624    0.2450301  43.45  0.001040988    1.374    0.272
       311 -10.2486     76.9848     34.8054   7.0249961139e+01   5.9828149592e+01    0.7703212    0.3061033  39.50  0.002489319    2.391    0.582
       312 -10.1297     75.8011     27.2139   6.7515490418e+01   6.1110698832e+01    0.4058789    0.3492257  74.13  0.001192349    1.766    0.434
       313  -9.3038    199.9715     43.2492   4.4979904559e+01   2.9815699606e+01    0.2170606    0.1949484 -45.30 0.0004206053    1.145    0.127
       314  -8.5329    163.3497     36.4084   4.8702879791e+01   3.9813724552e+01    0.3035913   0.08318514  50.30 0.0009560095    3.405    0.706
       315 -10.4503    217.1172     34.2004   4.0616844153e+01   2.6929528478e+01    0.4439678    0.2064583 -81.65  0.001615962    3.543    0.718
       316  -9.7523    153.0752     31.7768   4.9114326657e+01   4.2975308819e+01     0.748935    0.2526904  51.34  0.002718214    2.623    0.619
       317  -9.2540    144.5524     34.4861   5.1607453036e+01   4.4774326481e+01    0.4277282    0.1889531  36.86  0.001514686    3.047    0.672
       318 -10.1016    142.6015     32.1862   5.1250414780e+01   4.5543984825e+01    0.3810961    0.3013617  -7.17   0.00165862    1.474    0.321
       319  -9.7943    145.9196     28.7620   4.9490894241e+01   4.5126914050e+01    0.4138344    0.2773867 -55.44  0.002023001    1.787    0.441
       320  -9.3455     47.4528     34.3952   8.2034540768e+01   6.4601886616e+01    0.2125107    0.1436269   7.49  0.000313575    1.469    0.319
       321 -12.1333    107.5613     29.2478   5.8397816157e+01   5.4267405151e+01    0.4825392    0.3719101 -16.10  0.002666032    1.380    0.275
       322  -9.1195    100.2321     26.8491   5.9511325541e+01   5.6188196221e+01     0.362507    0.1381109  41.78 0.0008597629    2.468    0.595
       323  -8.8206     75.6774     31.3008   6.9279190177e+01   6.0572635837e+01    0.1824333    0.1664305  49.85 0.0004059172    1.381    0.276
       324  -8.8713    203.0215     31.9774   4.1711627350e+01   3.0533750854e+01    0.1998549    0.1826069 -68.76 0.0005991526    1.069    0.065
       325  -8.5357     43.9613     31.9656   8.2609196660e+01   6.5458551139e+01    0.1503525    0.1205599 -12.40 0.0004027465    1.023    0.023
       326  -8.5557    192.2935    248.3365   9.1617700947e+01  -3.8032049163e+00    0.1249552   0.08200491   6.05 0.0004890523    1.645    0.392
       327 -10.1995    163.5832    246.4250   9.7002760109e+01   8.6231623765e-01    0.2280804    0.1754532  20.96 0.0008281922    1.181    0.153
       328  -8.8229      1.4475    244.0505   1.2792435960e+02   2.2884356585e+01    0.1463386   0.08114821 -89.49 0.0003829483    1.529    0.346
       329  -9.9489    202.7410    242.5010   8.8705653138e+01  -4.5513723017e+00    0.2179653    0.1381715  19.05 0.0005226558    1.401    0.286
       330  -9.0607    102.1925    240.7924   1.0877815360e+02   1.1275451959e+01    0.2420461    0.1004779 -69.79  0.001021447    3.511    0.715
       331  -8.5314     36.4678    239.5594   1.2152935671e+02   2.0133287066e+01    0.1125477   0.08727464  65.60 0.0001015089    1.039    0.038
       332 -11.4138     19.1216     29.0818   9.3607083150e+01   6.8573805101e+01    0.3192057    0.2305861  15.79 0.0004375785    1.452    0.311
       333  -8.9637    247.3197    238.6636   7.9855751873e+01  -1.0271704685e+01   0.09786351   0.09187803  19.44 5.269859e-05    1.705    0.414
       334  -9.7004    221.3635    237.3567   8.4342425312e+01  -6.5697953759e+00    0.2511767    0.1512847 -10.12 0.0009637842    1.799    0.444
       335  -9.3413    247.6467     30.5473   3.6791382911e+01   2.0655086494e+01    0.1995539    0.1675059  61.63 0.0007587678    1.401    0.286
       336  -9.2631    158.9542     29.8782   4.7490258578e+01   4.1723946650e+01    0.3800152    0.2432288 -10.99  0.001373298    2.054    0.513
       337  -8.9086    159.1226     24.6545   4.5876759285e+01   4.2283991276e+01    0.2158358    0.1790926 -50.37 0.0006214231    1.294    0.227
       338  -9.0959     94.6949     29.8208   6.2324410867e+01   5.7005868031e+01    0.2733697    0.1503251  32.77  0.001119011    1.848    0.459
       339 -10.6853    222.0137     26.5333   3.8298029495e+01   2.6747460028e+01     0.403045    0.3226877  29.85  0.001268704    1.750    0.429
       340  -8.2815    195.7917     29.0258   4.1850083822e+01   3.2642122687e+01    0.1647503    0.1061168 -33.90  0.000428234    1.619    0.382
       341  -9.1852    207.9387     26.5053   3.9779824849e+01   3.0023693340e+01    0.1949693    0.1808524  59.85 0.0005483646    1.223    0.183
       342  -9.8319    206.1359     22.7961   3.9069613617e+01   3.0885262488e+01    0.3730336    0.2308694  64.35  0.001750672    1.523    0.343
       343  -9.8354    165.4316     26.3634   4.5375749652e+01   4.0502688349e+01    0.4488567    0.2888372 -89.72  0.001881072    1.793    0.442
       344  -8.2720    139.7079    236.6977   1.0054573749e+02   6.2105679862e+00    0.1226848   0.09442545   7.32 0.0004132061    1.570    0.363
       345  -8.4059     32.2644    232.6571   1.2188027544e+02   2.1926850383e+01    0.1198759   0.06470855  66.77 0.0002381101    1.600    0.375
       346  -9.4559    170.5372     23.6956   4.3823446711e+01   3.9521577815e+01    0.3478658    0.2112587  84.04 0.0008613732    1.775    0.437
       347  -9.9507    175.2612     21.9356   4.2648639083e+01   3.8534215962e+01     0.395929    0.2627632  66.54  0.001325238    1.348    0.258
       348  -9.4592    186.5240    231.4947   9.0154250113e+01  -4.5985910166e-01    0.1312951    0.1065006  19.13 0.0008100611    1.024    0.023
       349  -9.3572    124.3495     23.2574   5.2061094331e+01   5.1047407224e+01    0.3397803    0.2096713 -79.41  0.001176318    2.904    0.656
       350 -10.8417    153.7742     22.9737   4.6251215498e+01   4.3814425659e+01    0.2645155    0.2322868  58.20 0.0003318593    1.049    0.047
       351  -9.8444     62.0102     23.2470   7.1022310017e+01   6.4084489109e+01    0.4662828    0.2191152  34.84  0.001441275    2.003    0.501
       352  -8.8132    162.3738    224.9598   9.4098384520e+01   4.5263586009e+00    0.3095294    0.2146797 -79.99  0.001467943    2.787    0.641
       353  -8.8220    223.5637    225.0384   8.1848586488e+01  -5.2102625863e+00    0.1957245    0.1395968  22.06 0.0006754839    1.186    0.157
       354  -8.5837    132.0237    225.3436   1.0062457282e+02   9.4667223081e+00    0.1878613    0.1522946  41.10 0.0004843197    1.054    0.051
       355  -8.8527    214.8097     22.8564   3.8167780932e+01   2.8839857273e+01    0.1862435    0.1303132 -67.11 0.0005107328    1.347    0.258
       356  -9.3311    188.9961     21.6502   4.0769897184e+01   3.5160574894e+01    0.3375666    0.2210377  19.64  0.001598963    2.430    0.589
       357  -8.4731     86.0067     22.7057   6.2141275302e+01   5.9690317617e+01    0.1883592    0.1476537  31.80  0.000538859    1.108    0.097
       358  -8.5316     80.4432     23.2190   6.4194010421e+01   6.0737107767e+01    0.1682071    0.1220866 -34.43 0.0004823504    1.549    0.354
       359  -9.2472    226.2364     21.4076   3.6721181971e+01   2.6396874006e+01    0.2490675    0.1336115 -54.31 0.0006521698    1.734    0.423
       360  -8.1443      1.7254    224.3013   1.2704978278e+02   2.6595783979e+01    0.1125877   0.05781459  65.49 0.0002080701    1.536    0.349
       361  -9.7545    132.2178     21.4592   4.9758218779e+01   4.9334479046e+01    0.3122917    0.2288368  59.54 0.0009499686    1.220    0.180
       362  -9.3946    196.7539    222.2022   8.6568091785e+01  -6.5977965462e-01     0.187947    0.1362078   5.22  0.001069174    1.373    0.272
       363  -9.2790     88.7311    221.0378   1.0943012134e+02   1.7035081120e+01    0.2254062    0.1652935  41.97 0.0005833316    1.220    0.181
       364 -11.0653     24.1964     30.9509   9.1736877046e+01   6.7803561976e+01     0.298495    0.2199611  20.88  0.001950767    1.472    0.320
       365 -11.0499     34.4305     28.8517   8.5809362024e+01   6.7120350932e+01    0.8447042    0.4479868  16.57  0.004444453    1.994    0.498
       366  -9.0277    203.1189    217.8503   8.4548896741e+01  -1.0065975873e+00     0.182268    0.1571623  21.31 0.0002747981    1.139    0.122
       367  -8.3172      2.3062    211.7131   1.2635195638e+02   2.9059382641e+01    0.1162248   0.06045856  64.01            0    1.568    0.362
       368  -9.1246    231.0329    209.1583   7.7616961598e+01  -4.0563074044e+00    0.1964198     0.142227   4.49 0.0004399577    1.235    0.190
       369  -9.2794     35.0642    201.0437   1.1906575586e+02   2.8144106808e+01    0.2096976    0.1141762  63.68  0.001003534    1.718    0.418
       370  -8.4877    120.3936    199.1946   9.9413704732e+01   1.6552557856e+01    0.1815596     0.134147 -75.24 0.0007059088    1.625    0.385
       371  -8.9287      7.0637    194.6078   1.2448716910e+02   3.2236787296e+01    0.2456109    0.1194394  58.78  0.001386421    1.811    0.448
       372  -8.0304     92.4475    188.4467   1.0446082820e+02   2.3445962238e+01    0.1377001    0.1261558  64.53 0.0002649178    1.010    0.010
       373  -9.1870     55.4026    181.3118   1.1252275489e+02   3.0252640382e+01    0.2076083    0.1911229  64.75 0.0003990892    1.118    0.106
       374  -9.5871      7.4993    174.9436   1.2312022122e+02   3.6539498674e+01    0.1838002   0.09644318 -81.57 0.0009312759    1.575    0.365
       375  -9.4012     17.4898    174.5161   1.2082275300e+02   3.5806439959e+01    0.1224884   0.09879164  86.09 -1.479983e-05    1.002    0.002
       376  -9.3795     17.0429    169.3739   1.2050483880e+02   3.7028298097e+01    0.2064466    0.1221435  11.30  0.001100253    2.501    0.600
       377 -10.4470      7.0371    167.0056   1.2265208641e+02   3.8379587733e+01    0.3256717    0.2046592  -2.03  0.001825487    2.614    0.617
       378 -10.1872     14.1876    166.6116   1.2094901540e+02   3.7906096118e+01    0.2510062    0.1318128 -48.81 0.0005720806    2.222    0.550
       379  -8.8248    152.0481     18.3091   4.5089952544e+01   4.4743130596e+01    0.1951066    0.1609719  64.56 0.0004012691    1.070    0.066
       380  -9.9689    144.6599     17.2720   4.6015355778e+01   4.6694838814e+01    0.3444655    0.2199424  51.25  0.001348175    1.402    0.287
       381  -9.0429     73.4049     17.3113   6.4056796431e+01   6.2798323595e+01     0.220959    0.1063262 -39.14  0.001009365    2.518    0.603
       382  -9.8121     17.9735    165.0000   1.1990916064e+02   3.7965099904e+01     0.237198    0.1417318  47.11  0.001226574    1.663    0.399
       383 -11.6554     37.7110    159.2514   1.1440014680e+02   3.7485737428e+01    0.5801103    0.3648821  62.91  0.002521544    1.649    0.393
       384 -12.0903     30.7101    154.9416   1.1572555359e+02   3.9211439070e+01    0.6590863    0.4490995  61.05   0.00291851    1.482    0.325
       385 -10.5302     24.3154    162.6559   1.1814679854e+02   3.7961350137e+01    0.3035225    0.1949554  43.21  0.001766575    1.591    0.371
       386 -10.8085     12.5136    152.0808   1.2009904569e+02   4.1436504840e+01    0.3640239    0.2668373  66.17  0.002237811    1.318    0.241
       387  -9.8525      5.5449    141.4281   1.2091566077e+02   4.4442228863e+01    0.2679395      0.18363 -65.12 0.0007275813    1.259    0.206
       388 -11.0051      2.3499    152.5912   1.2266521454e+02   4.2038848590e+01    0.7548618    0.1055584 -70.22  0.002572297    4.177    0.761
       389  -9.0558    109.4657     21.5173   5.4955128746e+01   5.4735492832e+01    0.2344118     0.177023  -9.06 0.0007666983    1.444    0.307
       390 -10.6681      4.3188    146.5695   1.2168327521e+02   4.3313245161e+01    0.4283403    0.2154347  66.88  0.001419978    2.116    0.527
       391  -9.0801    249.0053    153.5135   6.3395700313e+01   1.6947304413e+00    0.1831961    0.1057647  17.72 0.0004984343    2.474    0.596
       392  -8.7415    154.8489     13.8652   4.3272134417e+01   4.4488156019e+01    0.1926283    0.1628953  47.71 0.0005108276    1.172    0.147
       393  -9.1674    139.4863     13.7106   4.5765673678e+01   4.8330017449e+01    0.2619282    0.1591717  61.88 0.0008445724    1.421    0.296
       394  -9.8749     45.9782    151.4368   1.1123811563e+02   3.8504603656e+01    0.2352136    0.1724548 -71.31 0.0001954388    1.217    0.178
       395  -8.9820    230.1521    147.8341   6.5400662634e+01   5.9613720602e+00    0.1939521    0.1540683  -1.34 0.0004807333    1.305    0.234
       396 -11.2045     13.2770    144.2065   1.1915530313e+02   4.3246854806e+01    0.5005328    0.2284034 -42.79  0.002322863    2.708    0.631
       397  -9.5872     54.1603    146.0394   1.0821173586e+02   3.8895016548e+01    0.2030086    0.1952888  52.03  0.000273012    1.141    0.124
       398  -9.6190     89.0411     13.1466   5.7173191143e+01   6.0118870670e+01    0.1933972    0.1634253  30.24  0.000515065    1.016    0.016
       399  -9.3347    236.0379    136.9676   6.1996849446e+01   6.7267802867e+00    0.2119185    0.1901296 -25.29 0.0004688633    1.040    0.038
       400  -9.7252     34.3716    136.6671   1.1247923175e+02   4.3310480990e+01    0.2696665    0.2242366  35.48 0.0009390713    1.355    0.262
       401 -10.4755      8.5048    132.7552   1.1928380726e+02   4.6306866372e+01    0.2880765     0.159932 -30.37  0.001483507    2.449    0.592
       402 -10.6761     15.0160    135.4205   1.1777251904e+02   4.5221956709e+01    0.2578358    0.1806798 -50.84  0.001119903    1.418    0.295
       403 -10.7185     42.9114    131.0144   1.0916325640e+02   4.3857942120e+01    0.6213029    0.2385824 -48.18  0.002468897    2.586    0.613
       404  -8.4511     22.7117     12.2818   8.4421418504e+01   7.0976712286e+01    0.0957147    0.0891011  -3.12 0.0003641761    1.525    0.344
       405 -11.3843     28.7122    132.0187   1.1348234661e+02   4.4959387278e+01    0.2371993    0.2115971 -80.59 0.0003369733    1.057    0.054
       406 -10.0230     34.1239    128.6009   1.1141542060e+02   4.5312358123e+01    0.2650283    0.2405289 -34.12 0.0007445559    1.234    0.190
       407  -8.5808     23.7153    133.3852   1.1509421421e+02   4.5045687548e+01    0.1492693    0.1243411  -5.39 0.0003091931    1.524    0.344
       408  -9.6945     20.3396    130.9561   1.1575850281e+02   4.5901580708e+01    0.2350181    0.1563371  84.33  0.001167637    1.513    0.339
       409 -10.7079      2.4248    135.7445   1.2121873083e+02   4.5978481503e+01    0.4281149     0.229578 -73.38   0.00179937    1.469    0.319
       410  -9.5727     61.6814    131.0748   1.0354412858e+02   4.1674241069e+01    0.2273335    0.1868014  55.39 0.0005328166    1.305    0.234
       411  -9.4316     12.8075    127.3773   1.1749096792e+02   4.7308236345e+01      0.14805    0.1172859 -13.83 0.0009311432    1.610    0.379
       412  -8.9015     29.9988    125.6277   1.1221762490e+02   4.6409885526e+01    0.1693793     0.154733 -64.01  0.001091869    1.090    0.083
       413 -10.4835     32.8231    121.8668   1.1080080519e+02   4.7081106647e+01    0.3602561    0.3457533  24.20  0.002381536    1.216    0.178
       414  -8.7936    217.9877    124.9946   6.2420619904e+01   1.2353722807e+01    0.1822827    0.1635926 -28.70  0.001012721    1.029    0.028
       415  -8.6941     59.6342    125.3171   1.0310555191e+02   4.3358071158e+01    0.1973174    0.1180146 -54.29 0.0009288492    1.508    0.337
       416 -10.9457      7.0863    123.7458   1.1872440983e+02   4.8542753636e+01    0.3210414     0.188176 -48.14  0.001194541    1.658    0.397
       417  -9.2436     95.1503    123.8172   9.1914746267e+01   3.8427971078e+01    0.2054007    0.1753791 -17.72            0    1.314    0.239
       418  -9.6263     71.9674    123.8551   9.9001595466e+01   4.2071408434e+01     0.234997    0.2020335 -78.16 0.0003310626    1.197    0.165
       419  -9.0034    241.4754    123.4854   5.8125174954e+01   7.9785845293e+00    0.1382693    0.1216089 -31.02 9.385467e-05    1.014    0.014
       420  -9.0725    123.6724    121.0403   8.2967730259e+01   3.3680272004e+01    0.2440829    0.2115422  54.39 0.0004303212    1.214    0.176
       421 -10.7200     21.1964    119.8454   1.1406451996e+02   4.8528425670e+01    0.4921247    0.3119428  69.47   0.00262945    1.854    0.461
       422 -11.0412     27.6343    116.0389   1.1151861994e+02   4.8947476118e+01    0.4104118    0.3709804  74.04  0.001283131    1.198    0.166
       423 -10.5316     13.4491    113.6682   1.1560616231e+02   5.0555284287e+01    0.4337952    0.2007151  25.15  0.002175647    2.490    0.598
       424 -10.5476     19.9462    110.6239   1.1313565152e+02   5.0845905653e+01    0.5046464    0.2994969 -77.20  0.002690799    1.558    0.358
       425  -9.8407     93.4830    119.2222   9.1346572292e+01   3.9819374472e+01    0.2867279    0.2641157 -14.76 0.0009859636    1.142    0.124
       426  -9.1261     44.3771    119.8042   1.0686485499e+02   4.6468492111e+01    0.2731796    0.1828689  24.69  0.001190758    1.705    0.414
       427  -9.0127     83.7535    117.5374   9.3954376427e+01   4.1837097143e+01    0.2293183    0.1719345 -61.45 0.0004355571    1.338    0.253
       428  -8.6049     71.6751    118.6716   9.8001967778e+01   4.3384003947e+01     0.152259    0.1070088 -27.49 0.0007049941    1.698    0.411
       429 -10.4520     54.7075    118.0098   1.0325893317e+02   4.5759304499e+01    0.2195892    0.2038757  29.33 0.0002347136    1.191    0.161
       430 -10.3611      6.1794     97.4479   1.1570825410e+02   5.4820201608e+01    0.5135383     0.390346 -67.36  0.003349943    1.066    0.062
       431  -9.6005      1.9419     92.8988   1.1648835333e+02   5.6085690052e+01    0.1865829    0.1680945  73.07 0.0007641637    1.291    0.226
       432  -9.3208      7.8594    106.8001   1.1644668059e+02   5.2527248969e+01    0.3885853    0.1563489 -67.33 0.0004592401    1.905    0.475
       433 -10.6295      2.3858    114.5910   1.1908273990e+02   5.0980167272e+01    0.4431293    0.2385272  77.17  0.002282378    2.130    0.530
       434 -10.6031      4.3292    110.8753   1.1806215827e+02   5.1755655027e+01    0.4018643    0.2668945  81.25  0.002384215    1.567    0.362
       435  -9.1625      3.4503    104.6755   1.1756999160e+02   5.3263290081e+01     0.472786    0.1848559 -86.73  0.001913734    3.115    0.679
       436  -8.7292     47.0588    115.1086   1.0516097906e+02   4.7336313619e+01    0.3336571    0.1600982  36.19  0.001489959    2.243    0.554
