#   1 NUMBER                 Running object number                                     
#   2 MAG_AUTO               Kron-like elliptical aperture magnitude                    [mag]
#   3 X_IMAGE                Object position along x                                    [pixel]
#   4 Y_IMAGE                Object position along y                                    [pixel]
#   5 X_WORLD                Barycenter position along world x axis                     [deg]
#   6 Y_WORLD                Barycenter position along world y axis                     [deg]
#   7 A_WORLD                Profile RMS along major axis (world units)                 [deg]
#   8 B_WORLD                Profile RMS along minor axis (world units)                 [deg]
#   9 THETA_WORLD            Position angle (CCW/world-x)                               [deg]
#  10 FWHM_WORLD             FWHM assuming a gaussian core                              [deg]
#  11 ELONGATION             A_IMAGE/B_IMAGE                                           
#  12 ELLIPTICITY            1 - B_IMAGE/A_IMAGE                                       
         1 -12.4730    208.0518     17.3997   1.9213820723e+01   3.2665381419e+01    0.6930671    0.5366599 -81.40  0.004616294    1.114    0.102
         2 -12.6253    226.8109     10.5058   1.6856731222e+01   3.0133515747e+01    0.7125325    0.4555402  89.07  0.005604652    1.340    0.254
         3 -11.6086     57.9924      5.4827   3.8778262957e+01   6.5537334242e+01    0.2566358    0.2145093  43.81  0.001782659    1.095    0.087
         4 -11.7200    208.1726      2.3209   1.6544844172e+01   3.4188792337e+01     1.100451    0.2236189  76.46   0.00464981    4.501    0.778
         5 -11.0135     46.7450      3.3813   4.1828886438e+01   6.8000092729e+01    0.2781099    0.1374043  29.71   0.00138407    2.319    0.569
         6  -9.1963     73.0653    231.9296   8.8737795983e+01   1.4539626025e+01     0.219141     0.158714 -58.22 0.0006619923    1.517    0.341
         7 -15.5901     23.0002    137.8725   9.2644583407e+01   4.4492601060e+01     9.365298     4.606433  34.32   0.03851457    2.038    0.509
         8 -10.7041     65.2362    204.7739   8.7673242095e+01   2.2014496345e+01    0.2252525    0.2178936 -52.84 0.0005548284    1.100    0.091
         9 -12.3032    242.9944    196.1075   4.6145093567e+01   1.0693181289e+00     0.298701    0.2262701 -44.01  0.002173515    1.315    0.240
        10  -8.1064     70.4850    199.9694   8.5507381210e+01   2.2574918328e+01    0.3339401    0.1995687 -35.91  0.001368293    1.911    0.477
        11  -8.9960     70.7012    196.3283   8.4944438793e+01   2.3471702514e+01    0.2142147    0.1550979 -70.65 0.0001932414    1.540    0.351
        12  -9.9198    191.4182    192.4487   5.4161301959e+01   7.4890773277e+00    0.4914591    0.2477875 -64.34  0.001565826    5.735    0.826
        13  -9.0117    177.2344    190.7479   5.6662651344e+01   9.6671154271e+00       0.1912    0.1404976 -14.91  0.001060624    1.366    0.268
        14 -10.8898     66.3625    189.2116   8.5253423909e+01   2.5856565477e+01    0.4234642    0.2566392 -34.37  0.001046921    1.900    0.474
        15 -12.3529     33.3006    186.6066   9.5166958893e+01   3.0296778023e+01    0.6248236    0.2310395  25.72  0.002178151    2.454    0.593
        16 -12.4696    219.2311    185.1651   4.8031949230e+01   5.4060405226e+00    0.4042351    0.3257446  -9.28  0.002784097    1.234    0.189
        17 -12.3482     77.5457    175.0236   7.9630773251e+01   2.8048792429e+01    0.9825146    0.8965377 -74.40  0.004960983    1.200    0.167
        18  -8.8096     29.5341    182.5044   9.5905986867e+01   3.1756513918e+01    0.1552588    0.1270742  55.70 0.0002210245    1.248    0.198
        19  -9.3606    183.6185    179.2263   5.3344609443e+01   1.1029271788e+01    0.2554634    0.1162279 -49.21  0.001127137    2.093    0.522
        20 -10.7805     71.7796    178.1805   8.1935789551e+01   2.8022674929e+01     0.439808    0.4086314  65.17  0.001200314    1.172    0.147
        21 -13.9471     68.4499    142.9290   7.6852467633e+01   3.7765759357e+01     1.430331    0.9980869 -65.83  0.003462051    1.571    0.363
        22  -8.5311     25.2451    177.2247   9.6709264327e+01   3.3572190070e+01    0.1339372    0.1040314 -32.23 0.0002872305    1.375    0.273
        23  -9.5577    180.1248    175.6762   5.3390851987e+01   1.2210486625e+01    0.2265674    0.1696825 -50.80 0.0006045538    1.350    0.259
        24 -17.9735     34.8568    231.2036   9.8890404023e+01   1.8873858766e+01     3.906765     2.644272  20.22   0.01532125    1.396    0.284
        25  -9.2709     68.8255    217.6061   8.8230275005e+01   1.8414321771e+01    0.2635072    0.1812009  81.84  0.001226286    1.932    0.482
        26 -11.9483     34.6036    171.0738   9.2949765310e+01   3.4352194048e+01    0.3594447    0.2222628  22.97 0.0005903488    1.586    0.370
        27 -11.2538    145.8382    171.0364   5.9974394074e+01   1.8371649286e+01    0.3056129    0.2588312  24.53  0.001227483    1.194    0.163
        28 -11.6771     75.5226    248.2570   8.9869357859e+01   1.0641337734e+01    0.5165983    0.1456713 -56.23  0.001894557    3.513    0.715
        29 -13.6470    114.5925    153.2533   6.4509635654e+01   2.7650160222e+01     1.131762    0.8679441 -77.52  0.005276314    1.692    0.409
        30 -12.3479     98.8271    135.7303   6.5402811663e+01   3.4608956449e+01    0.6662444    0.5156716 -53.96  0.000611132    1.337    0.252
        31 -10.2829     94.5913    154.4050   7.0599832863e+01   3.0735319209e+01    0.2765716    0.2493283  -7.45 0.0004099921    1.119    0.106
        32 -13.3209    100.5402    148.0413   6.7507573953e+01   3.1319799812e+01     1.361997    0.8313824   0.52  0.004945589    2.687    0.628
        33 -13.2515    109.6604    136.4877   6.2354366321e+01   3.2484308033e+01     0.968527     0.637558 -49.00  0.003109002    1.530    0.346
        34 -12.7335    133.8640    146.0576   5.7907666122e+01   2.5922083074e+01     1.304503    0.3430768 -54.72  0.003291576    5.322    0.812
        35 -11.3458    142.1146    146.8173   5.6048299478e+01   2.4291677295e+01    0.4228292     0.298008 -19.36  0.001834368    1.793    0.442
        36 -12.0030    120.3313    131.4520   5.8262000818e+01   3.1668635724e+01    0.5216284    0.2781982 -42.83   0.00146007    1.929    0.481
        37 -11.5745    135.7467    128.3217   5.3617233793e+01   2.9444162003e+01    0.5413683    0.1799311 -51.41  0.001753749    3.221    0.690
        38 -11.2863    116.1211    128.1879   5.8674347530e+01   3.3193611781e+01    0.3446936    0.2936874   0.13 0.0009118064    1.333    0.250
        39 -11.9147    121.4597    122.9810   5.6036245173e+01   3.3328500254e+01    0.5325588    0.3639804 -25.57  0.002367279    1.871    0.465
        40 -11.3622    104.3014    123.2806   6.0927985652e+01   3.6533230206e+01    0.3408454    0.2918896 -12.13 0.0006393808    1.302    0.232
        41 -10.6818    111.2180    117.9415   5.7662902528e+01   3.6412684550e+01    0.2565395    0.2137581  41.85 0.0004265711    1.174    0.148
        42 -15.6316    117.8228    237.7240   7.7887303134e+01   7.8345956350e+00     5.031645     4.075285 -29.01   0.02921175    1.236    0.191
        43  -9.0599     76.3737    212.1652   8.5430741822e+01   1.8806372421e+01    0.1888908     0.143124 -83.72 0.0009258485    1.624    0.384
        44 -11.7812     11.5191    206.4932   1.0338242303e+02   2.7045973114e+01    0.3803673    0.2278318  28.09   0.00102496    1.565    0.361
        45 -12.4992     15.8263    207.1981   1.0222346252e+02   2.6514035634e+01    0.2789648    0.2552929 -37.72  0.001175248    1.194    0.162
        46  -8.7516     93.4364     73.4398   5.1170667973e+01   4.8974026716e+01    0.1425059    0.1298933  47.11 7.380739e-05    1.011    0.011
        47 -10.7026    169.2157     60.9292   3.1883313406e+01   3.4756806934e+01      0.29704    0.2460807  86.50 0.0007681093    1.084    0.078
        48 -11.7926    184.2771     47.1806   2.7061181974e+01   3.3624054173e+01    0.5559549    0.4830916 -75.20  0.002596809    1.126    0.112
        49 -11.1273    189.5723     40.6528   2.5177622899e+01   3.3425432234e+01    0.3708256    0.3150018  -5.97  0.001463919    1.988    0.497
        50  -9.8994    166.9478    223.1181   6.4242021521e+01   4.7356106304e+00    0.2177502    0.1680702 -31.04 0.0004201237    1.183    0.155
        51 -11.6356     68.5238    243.8963   9.1216138429e+01   1.2378712800e+01    0.2327027    0.1958632 -15.01 0.0005206982    1.267    0.211
        52 -10.8901    248.7082    244.1439   5.2494415557e+01  -6.6004632212e+00     0.211297    0.1175696   5.57  0.001288297    1.810    0.448
        53 -12.7163    243.6437    217.2567   4.9304579518e+01  -2.2602447412e+00    0.5543472     0.359965  -9.60  0.003849698    1.476    0.323
