#   1 NUMBER                 Running object number                                     
#   2 MAG_AUTO               Kron-like elliptical aperture magnitude                    [mag]
#   3 X_IMAGE                Object position along x                                    [pixel]
#   4 Y_IMAGE                Object position along y                                    [pixel]
#   5 X_WORLD                Barycenter position along world x axis                     [deg]
#   6 Y_WORLD                Barycenter position along world y axis                     [deg]
#   7 A_WORLD                Profile RMS along major axis (world units)                 [deg]
#   8 B_WORLD                Profile RMS along minor axis (world units)                 [deg]
#   9 THETA_WORLD            Position angle (CCW/world-x)                               [deg]
#  10 FWHM_WORLD             FWHM assuming a gaussian core                              [deg]
#  11 ELONGATION             A_IMAGE/B_IMAGE                                           
#  12 ELLIPTICITY            1 - B_IMAGE/A_IMAGE                                       
         1 -14.6945     68.4412    144.3104   1.0041636178e+02   3.7020845510e+01     4.983835     2.679319  73.30  0.007740593    3.898    0.743
         2 -14.4882    203.6503     39.8991   4.1371192907e+01   2.9818774314e+01     1.924185     1.424638  30.14   0.00723921    1.860    0.462
         3 -14.3464    216.1828     27.9793   3.7149204461e+01   2.8517590894e+01     1.129871    0.9131027  27.32  0.006926285    1.739    0.425
         4 -12.6192    244.5464      4.3255   2.9814356022e+01   2.5259581314e+01    0.4422339    0.4377355  34.35  0.003367645    1.443    0.307
         5 -12.4689    238.4990      3.9159   3.0136620097e+01   2.6503337585e+01    0.4614154    0.3239303 -57.83  0.002761946    1.184    0.156
         6  -9.9495     53.9887      5.0000   6.1669415190e+01   6.6657931148e+01    0.1932547    0.0603713  47.29 0.0008024041    2.942    0.660
         7  -9.8154     99.4551    180.7789   9.8389857883e+01   2.3605518793e+01    0.2417257    0.1917397  37.89 0.0005657201    1.252    0.201
         8 -11.0570    140.3867    249.4421   9.9210622019e+01   3.5062500402e+00      0.24254    0.2024832  43.92  0.001605067    1.157    0.136
         9 -16.9467     27.7956    180.5634   1.1590528931e+02   3.2771085698e+01     12.15095     4.911694  61.12   0.04937289    3.131    0.681
        10 -10.3633    189.1816    177.5714   7.6813051197e+01   8.6079336197e+00    0.4226678     0.274112 -54.85   0.00195398    1.955    0.488
        11 -12.2532     65.2546    174.4351   1.0603681421e+02   3.0023115517e+01    0.4933806     0.313163 -43.26   0.00242717    1.799    0.444
        12 -12.1218     69.8338    169.5920   1.0416757194e+02   3.0592898269e+01    0.3557556    0.2702334 -35.43  0.001240227    1.555    0.357
        13  -9.0783    148.6757    175.3533   8.5385902569e+01   1.6396463798e+01      0.21247     0.157474 -65.47 0.0008238999    1.682    0.406
        14 -10.3276    146.5055    171.9847   8.5227537527e+01   1.7518679233e+01    0.2929015    0.2434477 -77.62 0.0007412116    1.526    0.344
        15  -9.6881     90.1239    213.1244   1.0522945543e+02   1.7791746602e+01    0.2175224    0.1431933  65.95  0.001121083    1.709    0.415
        16 -13.6031     66.6636    156.1790   1.0293042173e+02   3.4305636048e+01    0.5977207    0.4349331 -50.19   0.00134232    1.343    0.255
        17  -9.6298    230.3158    166.6396   6.6572341056e+01   3.5200795675e+00    0.1298463    0.1060905 -62.77 0.0007042811    1.757    0.431
        18 -14.7431     19.7207    220.4496   1.2077411962e+02   2.4722492741e+01     1.002359    0.8650677  71.56  0.004362372    1.141    0.124
        19 -11.6820     32.7325    155.5463   1.1197199782e+02   3.8311471097e+01    0.3882892    0.2580586 -83.15  0.001405882    1.403    0.287
        20 -12.2391     86.2938    153.8757   9.7163527041e+01   3.2093120142e+01    0.6302624     0.441779 -21.97  0.002076019    1.930    0.482
        21  -9.1510    153.0064    153.2539   7.9715398133e+01   2.0374170373e+01    0.2621616    0.1700028 -82.34 0.0008829602    3.494    0.714
        22 -10.9680    134.1262    146.7341   8.2920079171e+01   2.5488352176e+01    0.8498589    0.2075628 -50.40   0.00223508    4.335    0.769
        23 -10.8674    133.0000    140.4892   8.1786925412e+01   2.7133519167e+01     0.629431    0.1971454 -50.48  0.001874621    3.327    0.699
        24 -11.7314     54.1234    146.9336   1.0492091834e+02   3.8169349329e+01    0.7088094    0.4338636 -58.44  0.003510258    1.453    0.312
        25 -10.4431    107.6761    203.8157   9.9977109846e+01   1.7167164485e+01    0.2474439    0.2006669  55.50  0.000447732    1.221    0.181
        26 -10.3024    198.2425    139.7774   6.6722007370e+01   1.4203360127e+01    0.3085356    0.2216487 -59.50 0.0009820648    1.743    0.426
        27 -10.9247    100.7881    139.5803   9.0277066380e+01   3.3254842045e+01    0.5682046    0.3553013 -21.61   0.00222426    2.436    0.589
        28 -12.4246     87.9446    139.2004   9.3840523934e+01   3.5448813790e+01     0.303676    0.2558829 -45.24 0.0004219561    1.144    0.126
        29 -10.9780     78.7862    139.0800   9.6455118937e+01   3.6869235544e+01    0.2937904    0.2436143  74.37 0.0002732209    1.382    0.276
        30 -15.5786      9.6343    207.3024   1.2192143184e+02   2.8436370632e+01       1.5621    0.8802106 -61.54  0.009367052    1.813    0.449
        31 -10.5801    174.6714    149.0004   7.3773802372e+01   1.7017511570e+01    0.2809662     0.263092  22.38 0.0007940446    1.089    0.082
        32 -10.2361    149.5288    187.6348   8.7547224496e+01   1.3650987411e+01    0.2744069    0.2473629 -83.44 0.0008831612    1.356    0.263
        33 -10.5350    105.9696    131.0149   8.6898333346e+01   3.4412814690e+01    0.3935134     0.302742 -52.54  0.001586593    1.264    0.209
        34 -10.3177    110.0451    130.1818   8.5555563904e+01   3.3876330127e+01    0.3597935    0.2664205   3.17  0.001098358    1.775    0.437
        35 -10.7672    135.4315    128.1297   7.8204889758e+01   2.9454884246e+01    0.5079218    0.1830909 -47.78  0.001637709    2.754    0.637
        36 -10.9626     44.4173    129.7625   1.0492345286e+02   4.3543004028e+01     0.239228    0.2029564  25.27  0.001399962    1.347    0.257
        37 -16.8970     16.5705    246.7040   1.2289137720e+02   1.9843004196e+01      6.18783       1.9244  28.14   0.01597105    4.134    0.758
        38 -10.1472    161.0910    127.8575   7.1840418239e+01   2.4209523797e+01     0.240857    0.2179417 -80.02  0.001082033    1.301    0.231
        39 -11.1747     97.6276    126.1161   8.8155613171e+01   3.7043472774e+01    0.3224801    0.2548955 -20.62  0.001067995    1.437    0.304
        40 -11.0421     47.4214    124.5922   1.0309372548e+02   4.4506838737e+01    0.2702779    0.2216774 -42.27 0.0009370476    1.184    0.156
        41  -9.8298    116.7582    124.2335   8.2247178091e+01   3.4017552593e+01    0.2196496    0.1811635 -11.45  0.001057782    1.376    0.273
        42 -11.4059     24.5868    119.9515   1.0938716999e+02   4.7817774113e+01    0.4647142    0.2365137  51.95  0.002112654    2.565    0.610
        43  -9.7222    135.0000    119.9624   7.6263050336e+01   3.1362431052e+01    0.2649763   0.08722506 -45.17  0.000803959    2.953    0.661
        44  -9.6959    107.0584    118.9610   8.3681175668e+01   3.7061096541e+01    0.2175113    0.2068055 -24.92            0    1.019    0.019
        45  -9.7155     83.7105    117.9737   9.0412439842e+01   4.1293145815e+01    0.2502127    0.2020775  68.56 0.0006574893    1.549    0.355
        46 -10.3015     39.8977    113.3215   1.0337705847e+02   4.8074425585e+01    0.2256147    0.1723645 -71.80 0.0003954263    1.270    0.212
        47  -9.6487    135.0000    112.4756   7.4311375202e+01   3.3000617885e+01    0.3538116   0.08712502 -44.23  0.000936813    3.951    0.747
        48 -10.1893    205.4722    110.2664   5.8399041252e+01   1.8282061915e+01    0.2944162    0.2286044  39.61  0.001045456    1.418    0.295
        49 -11.0052     33.2514    109.6085   1.0485234783e+02   4.9612286814e+01    0.3395793    0.1968723 -73.25 0.0006995768    1.755    0.430
        50  -9.9026    134.5556    105.2580   7.2483630862e+01   3.4638651672e+01    0.3939038    0.1493356 -41.18   0.00130576    2.604    0.616
        51 -11.6712    249.1660    103.4741   5.0072386899e+01   1.0912587724e+01     0.456001    0.1527866 -37.43  0.001796843    2.510    0.602
        52  -9.7566     44.8105    104.8969   1.0004549745e+02   4.9617382629e+01    0.2499295    0.1658114  56.42  0.001116787    2.024    0.506
        53 -10.8431     39.1500    102.1425   1.0138821736e+02   5.0860584488e+01    0.4065026    0.2132374  51.82  0.001726559    2.807    0.644
        54 -11.0159    242.0045    101.5176   5.0624148242e+01   1.2546660911e+01    0.1838463    0.1344107  55.19 -8.375314e-06    1.596    0.374
        55 -10.2839    121.0179     98.9911   7.4375175897e+01   3.8798249693e+01    0.1888163    0.1816285  -0.79 0.0004997557    1.024    0.023
        56  -9.8611     32.9279     96.9123   1.0244641230e+02   5.2695855598e+01     0.200714    0.1565733  75.82  0.000698431    1.662    0.398
        57 -12.6820     79.0149    160.5564   1.0031413447e+02   3.1527738890e+01    0.8401246    0.4636072  49.05  0.000381887    1.982    0.496
        58 -10.6206     52.9989     90.9897   9.3936879648e+01   5.1967034574e+01    0.2991334    0.1781258 -52.42  0.001121354    1.493    0.330
        59 -10.4080    247.7968     85.3997   4.6353045618e+01   1.4018711356e+01    0.1628416    0.1213097  45.92 0.0008028449    1.635    0.388
        60 -10.3108     73.3968     83.8477   8.4779486618e+01   5.0748886920e+01    0.2407921    0.2136105  62.46 0.0006544194    1.439    0.305
        61  -9.4923    151.0194     82.9492   6.2163370977e+01   3.5403139620e+01    0.2358291    0.1839753 -76.15 0.0006575122    1.674    0.403
        62  -9.6650    159.8874     82.5105   6.0078095425e+01   3.3446190100e+01    0.2230899    0.1477068  51.92 0.0006729966    1.531    0.347
        63  -8.8540    184.3694     77.2866   5.3848065754e+01   2.8706557614e+01    0.1476099    0.1119788  22.24 0.0007020493    1.706    0.414
        64 -10.5593      4.5023     70.4972   1.0750379323e+02   6.0757146810e+01    0.2156574     0.108817 -76.20  0.001035933    2.299    0.565
        65  -9.0577     94.6418     68.2869   7.2802343970e+01   5.0203974303e+01    0.1390553    0.1185665  84.24 0.0005175272    1.680    0.405
        66  -9.7808     50.4626     63.5110   8.6978247958e+01   5.8220551480e+01    0.3137664    0.2011948  52.72  0.001483559    2.490    0.598
        67 -10.7731     13.4552     59.8873   1.0128300160e+02   6.2531315098e+01     0.247579    0.1892894 -52.58  0.000414404    1.177    0.151
        68 -12.5301    194.3487     46.4622   4.4225673774e+01   3.1068851547e+01    0.6043492    0.5184467  40.77  0.001151739    1.339    0.253
        69 -13.6436     56.8671    238.8367   1.1486862340e+02   1.6923192511e+01    0.4492981    0.3176129 -82.98 0.0005810593    1.408    0.290
        70  -9.2865     53.0596     44.6862   7.9318366404e+01   6.1384903583e+01     0.199753   0.09816347  51.99 0.0007032438    4.472    0.776
        71 -10.2968    137.6680     36.0732   5.0762557810e+01   4.5811611948e+01    0.2321382     0.184677  55.51 0.0003830584    1.169    0.144
        72  -8.7157     77.3084     56.6405   7.4572919099e+01   5.5479913053e+01    0.1316141    0.1140854 -78.29 0.0007041123    1.735    0.424
        73 -10.5041    183.6126    207.1977   8.3680841854e+01   4.0900712895e+00    0.1909009    0.1195244 -29.66 0.0007411082    1.660    0.398
        74 -10.6465    197.9759     24.0811   3.8171089085e+01   3.3024943307e+01    0.3014399    0.1943986 -16.36    0.0010528    2.043    0.511
        75  -9.4402    189.5205     14.9706   3.6859086045e+01   3.5947717444e+01    0.1787391    0.1210467 -33.25 0.0008054522    1.561    0.359
        76  -9.9899    138.4225     44.3645   5.3252587224e+01   4.4548503700e+01    0.3828505    0.2301978 -74.59  0.001448841    3.224    0.690
        77  -9.5431    112.4709    205.9046   9.9181230737e+01   1.5976579092e+01    0.2103019    0.1697765  40.62 0.0004681209    1.158    0.136
        78 -11.8106    193.4825    195.4771   7.9463752055e+01   4.5594256196e+00     1.073702    0.5871307 -63.28   0.00337682    5.447    0.816
