#   1 NUMBER                 Running object number                                     
#   2 MAG_AUTO               Kron-like elliptical aperture magnitude                    [mag]
#   3 X_IMAGE                Object position along x                                    [pixel]
#   4 Y_IMAGE                Object position along y                                    [pixel]
#   5 X_WORLD                Barycenter position along world x axis                     [deg]
#   6 Y_WORLD                Barycenter position along world y axis                     [deg]
#   7 A_WORLD                Profile RMS along major axis (world units)                 [deg]
#   8 B_WORLD                Profile RMS along minor axis (world units)                 [deg]
#   9 THETA_WORLD            Position angle (CCW/world-x)                               [deg]
#  10 FWHM_WORLD             FWHM assuming a gaussian core                              [deg]
#  11 ELONGATION             A_IMAGE/B_IMAGE                                           
#  12 ELLIPTICITY            1 - B_IMAGE/A_IMAGE                                       
         1 -11.6348     81.9320     36.3654   9.3519770684e+01   5.8087489813e+01     0.358631    0.2711056  11.19  0.001329559    1.251    0.201
         2 -11.6887      8.9262     26.3442   1.1916677843e+02   6.8511715535e+01    0.6699576    0.1948872 -44.49  0.003341218    2.497    0.600
         3 -10.9577      3.9702     19.2161   1.1896028861e+02   6.9939543088e+01    0.3137329    0.1589007 -27.64  0.002021883    1.566    0.361
         4 -10.6722     20.0238     16.1687   1.1010505592e+02   6.9165380743e+01    0.3425398    0.1897434 -24.23  0.001706785    1.497    0.332
         5 -11.8216     23.3524     21.6924   1.1078764873e+02   6.8078909904e+01    0.4954829    0.2003355 -30.25  0.002572981    2.269    0.559
         6 -12.0240    132.8965     15.9958   7.2944438565e+01   4.9695285305e+01    0.5148486    0.4026063 -86.27  0.002956462    1.548    0.354
         7 -10.8733    216.8522     16.6569   6.0908010221e+01   2.9208859122e+01    0.5801701    0.1484809  55.66  0.002040762    3.821    0.738
         8 -10.6822     75.4697     17.0899   8.8219703249e+01   6.1586662533e+01    0.4473209    0.2315852   1.84  0.002007089    2.860    0.650
         9 -11.5630     79.0184     10.6858   8.4518666769e+01   6.1601900539e+01    0.3430379    0.2170288  32.80  0.001168474    1.327    0.247
        10 -11.7503     81.2500      6.0380   8.1977159858e+01   6.1616121492e+01    0.2412383    0.1896331  19.95  0.000312913    1.092    0.085
        11 -10.2284     70.8325     14.6577   8.8779141149e+01   6.2651808266e+01    0.2039804    0.1608641 -16.71 0.0003807478    1.310    0.236
        12 -12.5137     25.9336     13.6219   1.0629557464e+02   6.8942182394e+01    0.3172897    0.2287835 -33.29  0.000356712    1.468    0.319
        13 -11.8892     26.7200      3.6987   1.0153008873e+02   7.0080007369e+01    0.4984845    0.2515322   8.83  0.002463155    2.162    0.537
        14 -11.3819     31.5728      2.4980   9.8765771183e+01   6.9658389331e+01    0.2298188    0.1645522  20.99 0.0006388534    1.277    0.217
        15 -10.7048     99.1065     12.7578   7.9583497226e+01   5.7485853906e+01    0.2665191    0.1944875 -31.75  0.000854982    1.609    0.378
        16  -9.7939     50.4355     13.3659   9.5697137812e+01   6.5986663033e+01    0.3441765    0.1612846 -15.45  0.001687403    2.556    0.609
        17 -10.4130    114.8130     12.6702   7.5704597228e+01   5.4134187541e+01    0.3278047    0.1862513  74.66  0.001224772    2.371    0.578
        18 -10.3995     56.2385     12.8692   9.3245623129e+01   6.5194176730e+01    0.2033172    0.1452554   0.76 0.0006829142    1.214    0.176
        19 -11.4589     61.9141     11.4202   9.0539799931e+01   6.4468485243e+01    0.3236671    0.2404993  57.62  0.001993724    2.021    0.505
        20 -10.1031    175.6252     11.9418   6.4691272035e+01   3.9725652713e+01    0.2223089    0.1540913  59.91 0.0004771141    1.263    0.208
        21 -11.3900     75.0431      5.0670   8.3471312195e+01   6.2844711781e+01    0.4574358     0.213864  -9.43  0.001952424    2.666    0.625
        22  -9.6726    122.3386      8.7673   7.2741595499e+01   5.2796286724e+01    0.1560279    0.1175359   2.33 0.0004200471    1.540    0.351
        23  -9.7318     37.1605      8.5053   9.9046450831e+01   6.8306134281e+01    0.1497567   0.09278346  25.42 0.0004220092    1.431    0.301
        24 -10.1403      9.2201      7.7551   1.1182183626e+02   7.1220578067e+01    0.2815155    0.1384403  -7.85  0.001658794    2.144    0.534
        25 -10.1911      3.7578     10.6779   1.1578528635e+02   7.1211766322e+01    0.1930828    0.1273956 -50.38 0.0009027479    1.925    0.481
        26  -9.9475     15.3270      6.3098   1.0815757253e+02   7.0899653323e+01    0.1937789    0.1753162  11.24  0.001583187    1.691    0.409
        27  -8.9780    155.6786      6.2967   6.6031907786e+01   4.5139788534e+01    0.1301819   0.09171291 -77.81   0.00025041    1.618    0.382
        28 -10.3710    114.7872      4.1875   7.2787997165e+01   5.4871654409e+01    0.2302417     0.210494  84.73  0.001093853    1.300    0.231
        29  -9.1475     92.2976      4.2808   7.8191244112e+01   5.9619300985e+01    0.1273569   0.07516178  31.03  0.000248277    1.540    0.351
        30 -10.1444    129.4429      3.1675   6.9516474554e+01   5.1634680312e+01    0.2412054    0.1528328 -75.00 0.0009640439    2.364    0.577
        31  -9.9396    139.7129      1.7757   6.7264903185e+01   4.9345275921e+01    0.2045703   0.09513949  76.04 0.0008813512    2.355    0.575
        32  -9.0874    124.4518      1.4276   6.9899273539e+01   5.2917178335e+01    0.1272975    0.1045555  55.82 1.680287e-05    1.036    0.035
        33 -10.5825     18.9347      4.0239   1.0536836543e+02   7.0848282755e+01    0.1887245    0.1209407   6.60 0.0003430093    1.291    0.225
        34 -10.1414     87.9263    227.1110   1.3438423833e+02   1.6151997483e+01    0.2327123    0.1676969  42.02   0.00134887    1.369    0.270
        35 -11.1041    246.9102    250.1546   1.0600577242e+02  -1.4333114341e+01    0.4392988    0.1752662  29.01  0.002089059    2.359    0.576
        36 -12.3658    226.2695    246.0457   1.0913000799e+02  -1.0749375997e+01    0.6353643    0.4099505   7.09  0.003615864    1.651    0.394
        37  -9.8342    127.9967    249.5235   1.2900457441e+02   5.2736324727e+00     0.182368    0.1664947 -88.41  0.001217862    1.240    0.193
        38 -10.0149     72.6275    250.1221   1.3967457917e+02   1.3915438600e+01    0.1779138    0.1636181  29.74  0.001252724    1.589    0.371
        39 -10.0682     31.4707    250.2857   1.4692643067e+02   1.9296392305e+01    0.1549087     0.082336  84.37  0.000943354    1.641    0.391
        40 -11.5171     14.2697    244.5864   1.4943282844e+02   2.2316274349e+01    0.4204324    0.1506549 -80.44   0.00223165    2.465    0.594
        41 -10.2807      1.4036    244.9901   1.5151665501e+02   2.3568155296e+01    0.1486488   0.07768084 -85.65 0.0003771156    1.530    0.346
        42 -12.1053     18.8001    238.2316   1.4830929464e+02   2.3046953934e+01    0.5031971    0.2813709  55.42  0.003319581    1.445    0.308
        43 -10.7502     10.5714    250.3215   1.5033642523e+02   2.1634714647e+01    0.3444463    0.1585181  41.91  0.002154734    2.047    0.511
        44 -12.3076     21.2671    248.9748   1.4853797840e+02   2.0720537711e+01      0.51732    0.2385605  55.30  0.003182134    1.673    0.402
        45 -11.4687     27.8947    246.3578   1.4727780991e+02   2.0459489264e+01      0.44209    0.1724007 -76.48  0.002388354    2.336    0.572
        46 -11.3945      5.8856    244.6112   1.5078782910e+02   2.3188072299e+01    0.3370194    0.1755034  78.85 0.0009700556    1.483    0.326
        47 -11.6876      9.1264    242.2487   1.5014264758e+02   2.3301883892e+01    0.4616961    0.1761943  74.28  0.002393644    2.497    0.600
        48 -10.3835     66.4643    226.3222   1.3861267760e+02   1.9506388778e+01    0.2769645    0.1453763  45.63   0.00102673    1.678    0.404
        49 -10.2821    180.9415    224.2340   1.1442783015e+02   3.1067176804e-01    0.2302062    0.1720406 -22.87 0.0006295351    1.594    0.372
        50 -10.0949     81.2422    224.5769   1.3546262734e+02   1.7703886446e+01    0.2535845    0.1504661  89.90  0.001263389    1.878    0.468
        51 -10.9596    141.2007    221.5038   1.2240473307e+02   8.1544065570e+00    0.3167005    0.2371329  20.57  0.001173255    1.640    0.390
        52 -10.8577    123.3341    221.5524   1.2624589295e+02   1.1369236011e+01    0.2804187    0.2341842  58.20 0.0009947845    1.046    0.044
        53  -9.4961     51.4967    222.5493   1.4119013573e+02   2.2321834741e+01    0.1234102   0.09774044  75.35 0.0001309031    1.026    0.026
        54 -10.5876     13.2240    221.9404   1.4826049295e+02   2.6874342833e+01    0.1763632    0.1436252  63.65  0.000408781    1.269    0.212
        55  -9.8348    174.1466    219.8980   1.1511296218e+02   2.3341267290e+00    0.2101734    0.1794364  54.70 0.0006136879    1.218    0.179
        56  -9.6521     22.0160    220.2435   1.4656649657e+02   2.6301116887e+01    0.1325437    0.0859881  46.25 0.0004858745    1.525    0.344
        57  -9.7475    250.3301    219.0589   9.9878993454e+01  -1.0673673065e+01    0.1755736    0.1395064 -12.34 0.0005215419    1.122    0.109
        58 -10.3635    191.5652    217.2234   1.1100122630e+02  -4.2056108097e-01    0.2438414    0.1984597 -22.75  0.001296771    1.336    0.252
        59 -10.8380      9.9221    217.0681   1.4853752723e+02   2.8198535906e+01    0.2754889    0.1464086  65.58 0.0008875902    1.565    0.361
        60  -9.3242     37.5774    217.4894   1.4344130689e+02   2.5115504766e+01    0.1205897   0.09329604  80.40 0.0001345916    1.026    0.026
        61 -10.7368    234.6747    216.3335   1.0227289968e+02  -7.8065290670e+00    0.1849177    0.1658763  80.79 0.0008819419    1.793    0.442
        62  -9.6912    201.4793    215.7098   1.0869046755e+02  -1.9711265400e+00    0.1741988    0.1273544 -20.51 0.0009214684    1.518    0.341
        63 -10.0784     31.1086    215.8313   1.4454274655e+02   2.6215579121e+01    0.1947548    0.1278889  73.04  0.001237489    1.244    0.196
        64  -8.9091    179.6712    215.6963   1.1321831408e+02   2.0612192299e+00    0.1423914    0.1050191   9.50 0.0007034797    1.650    0.394
        65  -9.3903    137.1952    215.6299   1.2236421008e+02   1.0054497953e+01    0.2029074     0.123349  33.57 0.0009398537    1.692    0.409
        66  -9.5507    170.4031    213.2245   1.1475876197e+02   4.2680177634e+00    0.1809613    0.1387763 -61.01 0.0008833975    1.593    0.372
        67  -9.4791    142.8060    213.3943   1.2078321098e+02   9.4608495093e+00    0.1980755    0.1257115  33.44 0.0005278231    1.599    0.375
        68 -10.9851     20.7426    211.6871   1.4618605779e+02   2.8219239397e+01    0.3079434    0.1610552  70.99 0.0009162708    1.706    0.414
        69  -9.4658    212.8715    211.8931   1.0568461412e+02  -3.3770193131e+00    0.1704459    0.1615998  54.51 0.0005247522    1.313    0.238
        70 -10.3370    208.9667    212.0743   1.0650210405e+02  -2.7088638878e+00    0.2095932    0.1834691  16.26 0.0004767711    1.008    0.008
        71 -12.1464      4.2928    207.6617   1.4895490896e+02   3.0676192589e+01     0.466887    0.2721237 -89.11   0.00304978    1.324    0.245
        72 -10.0792    240.6464    210.6919   1.0009035394e+02  -7.9170059130e+00    0.1382383   0.09037287   4.98 0.0007042945    1.719    0.418
        73  -9.9041    223.2784    201.3079   1.0160228925e+02  -3.4620010264e+00    0.3220325      0.23611  89.64  0.001403812    3.113    0.679
        74  -9.7379    175.2006    202.4095   1.1177779108e+02   5.4032235831e+00    0.2075125    0.1276899  50.19 0.0005724638    1.630    0.387
        75  -9.3111    238.3676    201.3049   9.8711848813e+01  -6.0730422779e+00    0.1417367   0.09403068   5.28 0.0003807519    1.747    0.428
        76  -9.6230    218.2723    201.3589   1.0259840861e+02  -2.5732751598e+00    0.1420546    0.1003989  -2.14 0.0007000776    1.649    0.394
        77 -10.0159    205.9760    201.2583   1.0505637428e+02  -2.9400361764e-01    0.2076584      0.14805 -13.32 0.0006840723    1.643    0.391
        78  -9.4107     34.5286    200.6373   1.4258303862e+02   2.9099660814e+01    0.1206006   0.09563226  78.89 2.933065e-05    1.038    0.037
        79  -9.9950    227.0102    196.9806   1.0002720229e+02  -3.3990021159e+00    0.2108227    0.1848966   2.80  0.000600947    1.021    0.020
        80 -11.4855    192.6234    195.1073   1.0664115085e+02   3.3856557596e+00      0.33635    0.2738506 -52.27  0.001787492    1.406    0.289
        81  -9.6755    202.9854    196.0011   1.0464647388e+02   1.2149716022e+00    0.2242189    0.1660691   4.14 0.0007826466    1.588    0.370
        82 -10.2442    184.4256    208.7310   1.1096164565e+02   2.4329667409e+00    0.2414834    0.1633314  21.16 0.0007711977    1.673    0.402
        83 -10.6629    215.3191    194.1543   1.0176997542e+02  -7.8354318571e-01    0.3692327    0.1605804 -41.47  0.001498364    2.366    0.577
        84 -10.5185    232.3900    191.4152   9.7887364406e+01  -3.4170162198e+00    0.2617004    0.1894027   0.28  0.001371055    1.527    0.345
        85  -9.2152     56.6480    197.7061   1.3764186050e+02   2.7051092054e+01    0.1180875   0.09960282 -37.49 0.0006266677    1.681    0.405
        86  -9.5252    250.4017    190.1823   9.4314704695e+01  -6.2999077185e+00    0.1802053    0.1160443 -43.57 0.0004666495    1.664    0.399
        87  -9.3767    205.5055    190.4495   1.0302323418e+02   1.7458217872e+00    0.1443228    0.1316432  14.10 0.0001318193    1.013    0.013
        88 -10.1057    226.3472    188.3283   9.8426375843e+01  -1.8010275471e+00    0.1481872    0.1025803   3.38  0.000704976    1.755    0.430
        89  -9.4395     61.6403    184.8045   1.3500130106e+02   2.9341231146e+01    0.1947869    0.1126176 -80.11 0.0009500777    1.720    0.419
        90 -11.6271     16.0829    182.8018   1.4480969047e+02   3.4951919518e+01    0.4107835    0.2073061  87.42  0.002193269    1.844    0.458
        91 -11.0198    248.5600    182.7245   9.3148406716e+01  -4.7803756628e+00    0.4033129    0.2089661  18.83  0.001560629    3.217    0.689
        92  -9.9454    166.9707    183.4978   1.0997683016e+02   1.0858798238e+01    0.2361687    0.1426824  42.55 0.0007047911    1.560    0.359
        93  -9.4769    236.4844    182.4982   9.5310414017e+01  -2.6325131223e+00     0.137757    0.1238251  -6.38 0.0008104494    1.014    0.014
        94 -10.5752      2.3991    180.3863   1.4742893991e+02   3.6670296749e+01    0.2808674    0.1432459  66.54  0.001329342    1.876    0.467
        95 -11.1308    244.6181    177.9290   9.2880252611e+01  -3.2991466930e+00    0.3092731    0.1565822 -27.18  0.001334835    2.162    0.537
        96 -11.1578    224.2976    178.3786   9.6783042687e+01   3.3719468280e-01    0.2774328    0.2476791  14.42 0.0004599303    1.071    0.066
        97  -9.5505     36.1051    178.5085   1.4006096609e+02   3.3911115851e+01    0.1599095    0.1192885  43.32 0.0004726293    1.453    0.312
        98 -10.2978    200.1665    176.8073   1.0133353126e+02   5.3817714762e+00    0.2062659    0.1709147   2.84 0.0005095797    1.321    0.243
        99  -9.5145     70.2199    177.6133   1.3203214968e+02   2.9838721177e+01    0.1648864    0.1324848  28.18 0.0004699436    1.514    0.339
       100  -9.6380     74.5030    171.4737   1.3009826079e+02   3.0678242759e+01    0.1392988    0.1245751 -88.58 9.911434e-05    1.023    0.023
       101  -9.2272     59.5270    171.4970   1.3375153775e+02   3.2750058426e+01     0.136758    0.1153309  87.75 0.0008096804    1.043    0.042
       102 -11.3696     12.6430    170.3101   1.4443728064e+02   3.8058287057e+01    0.2912956    0.1440013  85.19  0.001209612    2.004    0.501
       103  -9.9864    196.6864    169.3185   1.0047773027e+02   7.5691832502e+00     0.148556    0.1219342  89.99 0.0005444824    1.649    0.393
       104  -9.8400      4.6280    168.2043   1.4598837730e+02   3.9184537921e+01    0.1757995   0.08108851 -67.69 0.0009608964    1.712    0.416
       105  -9.8699     37.4010    158.4600   1.3741558299e+02   3.8450687039e+01    0.2395904    0.1718471 -56.03 0.0008813202    1.363    0.266
       106  -9.7682     36.0257    166.0273   1.3867211730e+02   3.6817743650e+01    0.2374396     0.151525 -56.59  0.000429855    1.521    0.342
       107 -10.5273     36.4391    162.5414   1.3815570995e+02   3.7591239084e+01    0.2369312    0.1622393 -67.19 0.0008034906    1.258    0.205
       108 -10.5209     51.5991    164.5294   1.3473106449e+02   3.5406056042e+01    0.4935159     0.237181 -37.32  0.001829302    3.898    0.743
       109  -9.5870    209.8404    166.3970   9.7114112488e+01   5.4186323211e+00    0.2065137    0.1352934  32.14 0.0005383501    1.630    0.387
       110 -10.3697     45.1518    163.7838   1.3620640080e+02   3.6342626843e+01    0.2678706    0.1373796 -83.10  0.001219862    2.097    0.523
       111 -10.2193    246.5051    162.4884   8.9334664237e+01  -9.8942133560e-01    0.1377738    0.1243954 -21.72 0.0001153565    1.022    0.022
       112  -9.4486    200.0869    162.7731   9.8338124740e+01   8.1569635332e+00    0.1967631    0.1232874  46.33 0.0005227861    1.599    0.375
       113 -10.8023    248.1176    159.1023   8.8340023892e+01  -6.9502026377e-01    0.2663663    0.2260692 -66.65  0.001507127    1.495    0.331
       114 -10.0968    238.7880    158.1436   8.9783054445e+01   1.2142852299e+00    0.2031619    0.1598171  -7.96  0.001073751    1.390    0.281
       115  -9.9030     48.3380    158.6947   1.3473928342e+02   3.7183630626e+01    0.1380815   0.09007214  71.77  0.000278102    1.675    0.403
       116 -10.8387     22.2581    155.8684   1.4077340939e+02   4.0524302774e+01    0.3536329    0.2368615  47.62  0.002161464    1.607    0.378
       117  -9.0606    235.6811    154.6759   8.9597244490e+01   2.4372116871e+00    0.1461106    0.1084115  -0.08 0.0004542136    1.674    0.403
       118  -9.4920    216.9860    155.0000   9.3192358770e+01   6.1352848489e+00    0.2447691   0.08405001  46.48 0.0008089594    2.988    0.665
       119  -9.9920    205.2433    152.7233   9.5035732312e+01   9.0559203971e+00     0.243886    0.1226156 -30.97 0.0008925339    2.385    0.581
       120  -9.3258    151.6765    153.3425   1.0722744077e+02   2.0684770389e+01    0.1650137    0.1255143  85.33 0.0005908821    1.730    0.422
       121  -9.5955     23.6998    152.6616   1.4005717486e+02   4.1139982812e+01    0.1912637   0.09629452 -57.02 0.0006002656    1.754    0.430
       122 -10.5146     10.5592    152.7167   1.4320913874e+02   4.2219857681e+01    0.3588421    0.1520501  44.50  0.001836228    2.526    0.604
       123 -10.4463    178.0516    151.4398   1.0059824426e+02   1.5287020448e+01    0.3837742    0.2794688  62.16  0.001714069    1.568    0.362
       124  -9.3609     92.9827    148.0033   1.2126734097e+02   3.3443659272e+01    0.1801061    0.1705378 -89.06  0.001003904    1.019    0.019
       125  -9.3447    233.5408    146.5436   8.8209438161e+01   4.3462307922e+00    0.1431385     0.133195 -25.81 8.162418e-05    1.007    0.007
       126 -10.2365    207.0088    146.0089   9.3155465145e+01   1.0005184424e+01    0.2299003    0.2245103   0.88 0.0006502634    1.019    0.019
       127 -10.8770      8.9515    145.1309   1.4279851547e+02   4.4069664804e+01    0.2413109     0.175469  63.27  0.001588129    1.446    0.308
       128 -10.2701      2.9684    144.0397   1.4412632811e+02   4.4735677293e+01    0.1886388    0.1097696 -51.25  0.001127954    1.693    0.409
       129  -9.7978    212.9886    141.5143   9.0939872991e+01   9.5907640106e+00    0.3148436    0.1931655  -4.04  0.001047347    3.553    0.719
       130  -9.9442     49.4163    141.9322   1.3197486080e+02   4.1067433863e+01    0.2025509    0.1701328 -43.56 0.0003717057    1.284    0.221
       131 -10.8360     14.3460    140.1112   1.4089898393e+02   4.4817261025e+01    0.3617258    0.1469812  10.63  0.001480428    4.629    0.784
       132 -11.1371      2.7594    137.7868   1.4352885656e+02   4.6160538173e+01    0.3578564    0.1319332 -68.50 0.0009911066    1.994    0.498
       133 -12.0492      9.1782    136.7707   1.4181384910e+02   4.5959380061e+01    0.2895321    0.2014854 -53.90 0.0002403215    1.351    0.260
       134 -10.6517      5.7133    133.7082   1.4234085494e+02   4.6890351425e+01    0.2138226    0.1509859 -39.84 0.0007028329    1.607    0.378
       135 -10.5477    236.6097    138.8919   8.5976744414e+01   5.1333809465e+00     0.239523    0.2078623  59.02 0.0003556109    1.284    0.221
       136 -10.4619     57.5677    138.6443   1.2920891317e+02   4.0883842521e+01    0.2999604    0.2173852  80.44 0.0006105339    1.577    0.366
       137 -10.5542     40.4683    135.5607   1.3339879645e+02   4.3557379176e+01    0.2098532    0.1951426 -81.15 0.0006716616    1.104    0.095
       138 -10.3994     21.7564    136.0053   1.3847899941e+02   4.5179712756e+01    0.2561557    0.1699045  59.97  0.001325053    1.703    0.413
       139  -9.9159    137.9982    135.4741   1.0653982782e+02   2.7720323302e+01    0.2471912    0.1554646  41.55  0.001025917    1.593    0.372
       140 -11.9519     36.6981    130.4543   1.3363650313e+02   4.5139939825e+01    0.3875271    0.3230859 -88.35  0.002356289    1.181    0.154
       141 -10.1236     73.9514    129.2705   1.2281887436e+02   4.0936417152e+01    0.2527942    0.1930246 -56.89 0.0008193259    1.202    0.168
       142  -9.4070    243.1603    128.3938   8.2545877839e+01   5.7161546700e+00     0.178099    0.1367756  68.35 0.0004604436    1.562    0.360
       143  -9.8814     60.0176    127.0255   1.2640159190e+02   4.3356389545e+01    0.2032685    0.1844904 -60.48 0.0003461214    1.025    0.024
       144 -10.4785      1.8792    125.9457   1.4243337925e+02   4.8880267181e+01    0.2842483    0.1316974 -69.51  0.001550465    1.629    0.386
       145 -10.0182    219.7944    124.6632   8.5758934132e+01   1.1350398901e+01    0.2454266    0.1984573 -29.76 0.0006006777    1.270    0.213
       146  -9.9363    226.3301    124.2964   8.4497683194e+01   9.9903532059e+00    0.1460125    0.1162748   8.16 0.0004621506    1.637    0.389
       147 -11.1200     10.5637    122.6367   1.3970531226e+02   4.9080256275e+01    0.2644613    0.2067166 -72.32  0.001599712    1.043    0.041
       148  -9.3712     20.3031    121.5701   1.3686195730e+02   4.8627332638e+01     0.145803    0.1160416 -15.48 0.0009368926    1.571    0.364
       149  -9.4975    221.6251    120.1651   8.4381112880e+01   1.1796338620e+01     0.213586    0.1371907 -29.69 0.0009098811    1.705    0.413
       150 -10.8623     10.4702    102.6831   1.3683925267e+02   5.3555928089e+01    0.3077606    0.2073365  63.06  0.001862746    1.930    0.482
       151 -11.2475     17.3229    117.2597   1.3706700966e+02   4.9832950165e+01    0.4094914    0.2046287 -47.72  0.002177336    1.805    0.446
       152 -10.2356     19.6709    113.2285   1.3577172722e+02   5.0576987039e+01    0.2290634    0.1510558 -64.50 0.0007104173    1.221    0.181
       153 -12.3645     16.4335    108.4688   1.3597137006e+02   5.1881136157e+01    0.4009281    0.3189406   2.75            0    1.564    0.361
       154 -10.2201     86.0746    116.6685   1.1649561559e+02   4.2054824757e+01     0.193468    0.1902241  -5.03 0.0005079854    1.066    0.062
       155  -9.8505    179.1725    116.4956   9.1926690161e+01   2.2386914962e+01    0.2350114    0.1552703  50.71 0.0006864603    1.502    0.334
       156 -11.5686     36.0672    110.9226   1.3047602987e+02   4.9739167600e+01    0.4963055    0.2698392 -59.04  0.001656393    1.518    0.341
       157  -8.7225    212.5140    112.4825   8.4221763294e+01   1.5308037017e+01    0.1497907    0.1444313 -59.54 0.0003463976    1.016    0.016
       158  -9.4258     66.5074    112.5875   1.2147792942e+02   4.5902718875e+01    0.1362682    0.1268917 -61.04  7.26654e-05    1.060    0.056
       159 -10.0679     55.3741    109.8148   1.2430818703e+02   4.7952198955e+01    0.2785621    0.1566529  -3.62  0.001090658    3.401    0.706
       160  -9.5394    167.2563    109.0208   9.2678853597e+01   2.6775014238e+01    0.2051375     0.137832 -41.49 0.0005837529    1.515    0.340
       161 -10.1054    242.1526    108.3721   7.8264413614e+01   9.4999512218e+00    0.1930147    0.1336941  71.59 0.0006026116    1.718    0.418
       162  -9.3745    133.3927    107.7672   1.0073756159e+02   3.4911065015e+01    0.2232469    0.1485068 -33.34 0.0009094499    1.663    0.399
       163 -11.7304     23.3008    106.2806   1.3353594475e+02   5.1873075315e+01    0.4291348    0.2818823  67.57  0.002383811    2.066    0.516
       164 -10.6175     62.0173    107.0852   1.2163414725e+02   4.7755999545e+01    0.2054768    0.1790906 -41.95  0.000331456    1.058    0.055
       165 -10.8477      3.7982    100.7729   1.3855532837e+02   5.4357558417e+01    0.2584074    0.2298469  85.02  0.001151668    1.279    0.218
       166 -10.1178      6.4052    106.2259   1.3859274308e+02   5.3014842464e+01    0.2581348    0.1363369 -58.96  0.001070801    1.428    0.300
       167 -10.6005      2.9464    105.2624   1.3946642697e+02   5.3419945737e+01    0.2286734    0.1686644 -73.62  0.001039065    1.159    0.137
       168 -10.3688    243.4893    104.4807   7.7193815363e+01   9.9016408181e+00    0.1403899    0.1284246 -51.33  0.000810029    1.035    0.034
       169  -9.9016    223.3304    103.9899   8.0301399057e+01   1.4411241996e+01    0.2126929    0.1767526 -47.25 0.0005453161    1.139    0.122
       170  -9.4020     93.6400    103.7416   1.1100919577e+02   4.3719314955e+01    0.2046337    0.1430458 -35.24 0.0004770446    1.474    0.322
       171  -9.3043     91.6980    101.3069   1.1096080064e+02   4.4592957295e+01    0.1567547     0.139462 -18.75 0.0003205106    1.146    0.127
       172 -10.9099     69.6731    102.4749   1.1813531483e+02   4.7772058403e+01    0.2741083    0.2382343  34.71 0.0007488703    1.253    0.202
       173 -10.5816    247.9949    102.3017   7.6043168429e+01   9.3346720050e+00    0.1933492    0.1795986 -81.14 0.0006183634    1.097    0.088
       174 -10.3864     27.8470    101.0186   1.3116753411e+02   5.2692184640e+01    0.2121722    0.1479378 -42.33            0    1.299    0.230
       175  -9.7560    120.2014    101.2140   1.0255887630e+02   3.9154415276e+01    0.2545532    0.1678998  -0.06 0.0008860674    2.716    0.632
       176 -10.8386     63.2875     98.7022   1.1925930580e+02   4.9476406414e+01    0.4438509    0.3083131  15.67   0.00232061    1.695    0.410
       177 -10.5161     35.7616    101.1249   1.2867497644e+02   5.1984489814e+01    0.2468959    0.1834044  29.64   0.00102303    1.566    0.362
       178 -11.1088     20.6922     97.4950   1.3277700723e+02   5.4020666696e+01    0.4704044     0.185513 -71.70   0.00161833    2.831    0.647
       179  -9.5451     50.4156     99.2300   1.2355151196e+02   5.0919267522e+01     0.174364    0.1181669 -65.42 0.0003360879    1.498    0.332
       180 -11.1832     10.7193     92.0221   1.3497628207e+02   5.5867601945e+01    0.5030992     0.226018 -35.99  0.002561849    2.301    0.565
       181 -10.2907      1.6792     93.9456   1.3815132815e+02   5.5946138128e+01    0.2941617   0.07876839 -55.49  0.001343914    2.393    0.582
       182  -9.2793    227.4488     93.4908   7.7174607654e+01   1.5352041912e+01    0.1450402    0.1330707 -64.65 0.0001178071    1.006    0.006
       183  -9.7855    171.3905     91.1985   8.7018810667e+01   2.9281109584e+01    0.2225312    0.1443245 -49.75  0.000949786    1.622    0.384
       184 -10.1560     26.8994     90.9586   1.2948265576e+02   5.4979763794e+01    0.2531968    0.1684157   6.78 0.0007557466    1.819    0.450
       185 -10.1744    103.4197     88.6638   1.0389030082e+02   4.5141240195e+01     0.241627    0.1729309  50.36 0.0006473166    1.519    0.342
       186 -10.1623     97.4666     89.4773   1.0593299772e+02   4.6090157830e+01     0.145615    0.1374807 -13.05 0.0002768085    1.008    0.008
       187  -9.9352     72.9971     88.6797   1.1350270115e+02   5.0300593850e+01    0.1811499    0.1675278   7.23 0.0002821134    1.108    0.098
       188 -10.2679     40.1470     80.7330   1.2261875454e+02   5.5987023400e+01    0.2293148    0.1604669  47.62   0.00130156    1.898    0.473
       189 -11.3258     48.3063     85.3999   1.2095542352e+02   5.4159643968e+01     0.482044    0.3572268  84.51  0.001131179    2.128    0.530
       190 -10.0045     45.1941     87.5351   1.2254646587e+02   5.4038974341e+01    0.1821934    0.1636417 -38.11   0.00041029    1.060    0.057
       191  -9.5096      7.1324     88.4086   1.3549675371e+02   5.6847113371e+01    0.1288596    0.1061388  40.73 0.0001397923    1.553    0.356
       192 -10.1007     23.7370     85.7610   1.2945816641e+02   5.6340297309e+01    0.2814217    0.1353239 -34.89  0.001404231    2.124    0.529
       193 -10.7326    117.7256     83.6277   9.8230702065e+01   4.3259077073e+01    0.2556964    0.2360003   5.24 0.0006130213    1.090    0.083
       194  -9.2724     28.6737     84.7263   1.2754799607e+02   5.6174575001e+01    0.1264337   0.07795472 -32.38 0.0002747053    1.583    0.368
       195 -11.6541     20.1982     80.7840   1.2961095843e+02   5.7648190623e+01    0.6986637    0.3430038   8.50  0.003311157    2.632    0.620
       196 -10.8415     85.3536     80.8494   1.0723860111e+02   4.9965994533e+01    0.2922177    0.2406092 -32.66 0.0009942901    1.151    0.131
       197 -11.1577     78.2956     72.0335   1.0690188264e+02   5.2837454044e+01    0.3594907    0.2065532  41.51  0.001054104    1.859    0.462
       198 -11.9854     71.9004     78.7936   1.1108346836e+02   5.2496504110e+01    0.5388623    0.3319147 -10.91  0.001336659    2.353    0.575
       199 -10.3760     75.5231     79.4484   1.1005780371e+02   5.1821494286e+01    0.3169755    0.1839773 -31.65 0.0009844339    1.819    0.450
       200 -11.9996      4.4864     65.3465   1.3188726203e+02   6.1736058114e+01    0.5868398     0.363012  73.61  0.003101874    3.180    0.686
       201 -10.0378      2.6595     71.7708   1.3389019441e+02   6.0537954880e+01    0.3161063    0.1569125 -40.71  0.001866398    1.652    0.394
       202 -10.5829      7.5570     73.5211   1.3251143949e+02   5.9932695955e+01    0.2397753    0.1687162 -42.10 0.0009110796    1.150    0.130
       203 -11.8198      3.3716     78.2343   1.3489590823e+02   5.9179775751e+01    0.3737821    0.2971605 -64.20  0.002062152    1.168    0.144
       204 -10.1860      6.8525     76.6199   1.3338539219e+02   5.9334969264e+01    0.1709227    0.1605695 -13.09  0.001327427    1.275    0.216
       205 -10.9388    150.4266     77.8419   8.8030301115e+01   3.6878778754e+01    0.3089162    0.2649291 -65.69 0.0008698927    1.298    0.230
       206  -9.3968     81.2944     78.9937   1.0801182921e+02   5.1003671715e+01    0.1878708     0.164636 -26.64 0.0003317022    1.060    0.057
       207 -11.6124     58.4460     75.4291   1.1474996575e+02   5.5015944962e+01    0.4023458    0.2954147  87.98  0.001977244    2.549    0.608
       208 -11.9382     62.3398     72.1053   1.1241299348e+02   5.5164004382e+01    0.4265662     0.311999 -39.28  0.001724098    1.236    0.191
       209  -9.8340    121.5233     76.4842   9.5022336088e+01   4.3796197146e+01    0.1487895    0.1416543  22.06  0.000218316    1.001    0.001
       210 -10.5789     51.6220     62.4375   1.1335941402e+02   5.8366979756e+01    0.2911289    0.1860938 -27.44 0.0008449949    1.486    0.327
       211 -10.8447     46.3832     74.3792   1.1874337616e+02   5.6646127202e+01     0.349252    0.1926358  11.65 0.0009576711    2.294    0.564
       212 -12.0611     49.4752     69.2712   1.1618926488e+02   5.7314384882e+01    0.4827501    0.3142693 -13.52  0.002331715    1.734    0.423
       213 -11.0610     40.3411     72.8071   1.2049956717e+02   5.7590097808e+01    0.3088385    0.2293685 -55.78 0.0007881514    1.344    0.256
       214 -10.2031    219.8902     73.9317   7.3749120450e+01   2.0441135681e+01    0.2090305    0.1911355 -75.78  0.000321866    1.022    0.022
       215 -10.3623     27.3538     70.5423   1.2466100489e+02   5.9212767024e+01    0.4513974    0.1582293 -61.91  0.001812828    3.220    0.689
       216 -10.4990     21.5238     66.1335   1.2571700283e+02   6.0537147275e+01    0.2205703    0.1880564  16.61 0.0007439021    1.382    0.276
       217 -10.7052     16.9403     72.5345   1.2893887235e+02   5.9572085427e+01    0.2324034    0.1527399 -66.88 0.0008118951    1.547    0.354
       218 -10.3595     16.0441     67.2764   1.2804366123e+02   6.0688256013e+01    0.2517161    0.2029057  79.10   0.00167066    1.820    0.451
       219  -9.3584    244.7008     72.6927   7.0006262633e+01   1.4977958320e+01    0.1239423    0.1094136  16.51  0.000288636    1.594    0.373
       220 -10.4308    175.0874     71.7267   8.0960396335e+01   3.1843879658e+01    0.2622976    0.2192544 -33.84 0.0002973571    1.294    0.227
       221 -10.0062    152.3192     72.3222   8.5992398580e+01   3.7390012153e+01    0.1561502    0.1175479  20.63 0.0007044264    1.670    0.401
       222 -10.1561    145.3038     71.3818   8.7359196792e+01   3.9248382574e+01    0.3393315    0.1926564 -37.56  0.001435399    1.853    0.460
       223 -11.3012     95.2125     67.6375   1.0001552207e+02   5.0726691096e+01    0.5212559    0.2804867 -34.99  0.002324482    1.894    0.472
       224 -10.9329     68.8157     67.6903   1.0879950645e+02   5.5103382973e+01    0.3839561    0.1679054 -41.61   0.00091851    2.131    0.531
       225 -10.5034    159.9466     69.3527   8.3436599026e+01   3.6020055796e+01    0.5142114    0.2087324  64.44  0.001545495    3.342    0.701
       226 -11.2877     36.2983     68.1603   1.2072724245e+02   5.8905456986e+01     0.367806    0.2230386 -22.33  0.002027346    1.737    0.424
       227  -9.3373     43.2969     68.6334   1.1826996247e+02   5.8116176159e+01    0.1163764   0.09933209 -89.41 0.0007031142    1.724    0.420
       228  -9.4851    146.7346     65.9707   8.5417778816e+01   3.9817288668e+01    0.1988901     0.189863 -42.11 0.0002299303    1.115    0.103
       229  -9.8756    119.1812     65.7892   9.2357761945e+01   4.6200124447e+01    0.2036691    0.1651229  15.29 0.0004757652    1.329    0.247
       230 -10.0486    129.8509     64.3714   8.9069296409e+01   4.4057476125e+01    0.2653747     0.101768 -38.71  0.000690244    2.719    0.632
       231 -10.4579    106.3788     64.3869   9.5566433066e+01   4.9127498746e+01    0.3462048    0.1293702 -43.43  0.001247275    2.883    0.653
       232 -10.7053     77.0885     65.2646   1.0518094124e+02   5.4289091868e+01    0.2444341     0.188689  51.47  0.001338256    1.629    0.386
       233 -10.2631    174.0243     63.8137   7.9000682569e+01   3.3408913735e+01    0.2348687    0.2183485 -58.52 0.0004906304    1.116    0.104
       234 -11.4001     83.6353     62.3339   1.0203131466e+02   5.3731896561e+01    0.3581381    0.3220505  56.55  0.001333392    1.401    0.286
       235 -10.2900     86.1613     58.1966   9.9827429935e+01   5.4006129490e+01    0.3183119    0.2019678 -40.49 0.0006267212    1.610    0.379
       236 -11.0215     31.0717     66.2470   1.2216030353e+02   5.9753895689e+01    0.2886664    0.1759488 -51.78 0.0005825431    1.434    0.303
       237 -11.1396     56.6260     61.9282   1.1135577392e+02   5.7841685472e+01    0.3354264    0.2204207 -17.09   0.00131386    1.617    0.382
       238 -11.5023     10.6943     62.3597   1.2887909648e+02   6.1987588510e+01      0.30814    0.2421356  53.35 0.0005942637    1.870    0.465
       239  -9.0028    202.3144     62.3540   7.3653585039e+01   2.6560748826e+01    0.1444379    0.1134511  26.30 0.0007045566    1.737    0.424
       240 -10.4773    121.9178     61.8280   9.0359185419e+01   4.6261431048e+01    0.2263241    0.1880174  22.30  0.000531793    1.227    0.185
       241  -9.9678     46.3672     46.8332   1.1029428536e+02   6.1754798472e+01    0.2397919    0.1015703 -41.09 0.0002958383    2.097    0.523
       242 -10.7045     44.8432     51.8786   1.1258035556e+02   6.1063447358e+01    0.2310857    0.1857688 -23.26 0.0003767636    1.035    0.034
       243 -12.0250     37.5015     52.4493   1.1564306917e+02   6.1743875872e+01    0.7331678    0.3656272 -35.62  0.003156517    1.756    0.431
       244 -11.2131     27.2274     61.2924   1.2227319176e+02   6.1038357268e+01    0.3671449    0.1874296  15.43  0.001983233    2.235    0.553
       245  -9.1446    160.3341     61.3046   8.1047728887e+01   3.7233050877e+01    0.1536136    0.1120233  28.52 0.0007038448    1.664    0.399
       246  -9.8398     93.0266     61.2235   9.8621914382e+01   5.2254526488e+01    0.1894653     0.170998   9.58 0.0003590687    1.015    0.015
       247  -9.5913     77.1578     61.2198   1.0384439542e+02   5.5001565242e+01    0.1661047     0.158515 -55.13 0.0002807872    1.327    0.246
       248 -10.7375     70.3194     59.1433   1.0553031133e+02   5.6433132598e+01    0.3826487    0.2481382 -38.60  0.002057074    1.468    0.319
       249 -10.8993     64.3363     59.8953   1.0790486458e+02   5.7173472225e+01    0.3254317    0.1793885  36.63  0.001029671    1.902    0.474
       250  -9.0439    183.6734     60.7150   7.6370231255e+01   3.1470032264e+01    0.1470465    0.1112562  33.67 0.0003338589    1.606    0.377
       251 -11.6913     33.5940     59.7986   1.1939754360e+02   6.0768869015e+01     0.258637    0.1880709 -18.44  0.000325049    1.271    0.213
       252 -10.6341    137.0000     57.9324   8.5290147941e+01   4.3431649209e+01    0.2195751    0.1973921  35.13  0.001209477    1.072    0.067
       253 -11.1787    123.0414     56.5690   8.8381995145e+01   4.6852879321e+01    0.2988446    0.2532516 -85.54 0.0009065791    1.533    0.348
       254 -10.5582     44.3864     57.3980   1.1452177853e+02   6.0126495526e+01    0.2753019    0.2003195  32.77  0.001284412    1.581    0.367
       255 -10.1848    113.4541     57.4932   9.1288446115e+01   4.8799209797e+01    0.4073491    0.1237163  45.30  0.001357303    3.060    0.673
       256  -9.2513     80.9623     56.9856   1.0114606023e+02   5.5104910196e+01    0.1601335    0.1397189 -10.46 0.0003827013    1.048    0.046
       257 -10.8092    100.7495     55.8045   9.4429232485e+01   5.1675601757e+01    0.6036791     0.203113  45.82  0.002182661    2.845    0.649
       258 -12.0024    128.1355     51.4475   8.5432170862e+01   4.6477404487e+01    0.4541691    0.3410116 -10.57  0.000525067    1.564    0.361
       259 -10.4997     72.7110     51.1417   1.0198021546e+02   5.7419453938e+01    0.3779444    0.2640097  40.24  0.002117083    1.523    0.344
       260 -10.2874     76.5211     50.5276   1.0044367597e+02   5.6906008866e+01    0.2007689    0.1415957   4.36 0.0007210448    1.524    0.344
       261 -10.9481     13.0398     50.2550   1.2483463755e+02   6.4141758707e+01    0.5546094    0.1806411 -55.52  0.002307218    2.577    0.612
       262 -11.4879     10.1818     44.6941   1.2444225459e+02   6.5328237789e+01    0.6028176    0.2500006 -21.86  0.002925229    2.881    0.653
       263 -11.6233      7.0126     41.0766   1.2473409186e+02   6.6157885505e+01    0.4092897    0.1296269 -48.29 0.0004854952    2.207    0.547
       264  -9.6335    157.5230     52.0634   7.8954742337e+01   3.9335514894e+01    0.2009466    0.1470698 -33.31 0.0003316324    1.497    0.332
       265 -10.4262     86.4316     52.2505   9.7718854961e+01   5.4934104484e+01    0.3798341    0.1693182  52.89  0.001443434    3.199    0.687
       266  -9.3665     50.2400     51.9635   1.1052468052e+02   6.0418025064e+01    0.1708415    0.1246916 -14.96 0.0002140881    1.258    0.205
       267 -10.7971     51.1600     48.2840   1.0892758566e+02   6.0932982951e+01    0.2203365    0.2025295 -50.00 0.0004159391    1.462    0.316
       268  -9.3083    250.4537     51.6139   6.4823865184e+01   1.6939253347e+01    0.1302451    0.1085128 -75.11 8.180171e-05    1.023    0.022
       269 -10.7892    114.5438     49.3697   8.8308912606e+01   4.9811110049e+01    0.3600914    0.2569517 -22.33  0.001861579    1.519    0.342
       270 -10.9734    101.9612     48.4599   9.1578151925e+01   5.2569893999e+01    0.4636533     0.308969   2.42  0.001770831    1.918    0.479
       271  -9.3377    196.9700     48.0524   7.0891679818e+01   3.0024602759e+01    0.1678973    0.1500102  89.66 0.0003022848    1.017    0.017
       272 -10.9321    142.6566     46.2109   8.0365129291e+01   4.3808445146e+01    0.3041267    0.2515976 -39.54 0.0009560146    1.329    0.247
       273 -11.0298      5.0349     53.0003   1.2878426645e+02   6.4092984399e+01     0.286211    0.1714486 -25.60  0.001866598    1.518    0.341
       274 -10.8756     69.5226     46.1126   1.0133900838e+02   5.8722142303e+01    0.2272555    0.1935926  10.98 6.798915e-05    1.077    0.071
       275  -9.6416     62.7586     47.2410   1.0419153297e+02   5.9551632514e+01    0.1756417    0.1280088  -3.54  0.000472188    1.336    0.251
       276 -11.3251    157.4272     45.9996   7.7205459302e+01   4.0221668245e+01    0.2898567    0.1963873  76.91  0.001370782    1.641    0.391
       277 -11.0135     23.8618     41.9814   1.1784709527e+02   6.4823146910e+01    0.2346485    0.1818962 -28.15 0.0006014721    1.048    0.046
       278  -9.3603     28.7169     40.6959   1.1537814372e+02   6.4619211680e+01    0.2021485   0.09517691   7.90 0.0008351455    2.755    0.637
       279  -9.9357     19.7638     38.0112   1.1829177184e+02   6.5825577476e+01    0.2182836    0.1415798  -8.78 0.0006934917    1.451    0.311
       280 -11.4629     24.7178     35.5639   1.1532207341e+02   6.5822443440e+01    0.3026906    0.2290345  26.27  0.001271453    1.577    0.366
       281  -9.1404    233.2932     45.3102   6.5410114480e+01   2.1679990809e+01    0.1211588    0.1043737  36.77 0.0003827041    1.588    0.370
       282  -9.6545     22.9588     46.4831   1.1965304462e+02   6.4113040713e+01    0.1558348    0.1197065 -20.40 0.0002237321    1.089    0.081
       283 -10.8510    122.5872     44.1505   8.4464860756e+01   4.8780019200e+01    0.4244797     0.330339 -39.92  0.001664794    1.437    0.304
       284 -10.3787     86.4466     44.9093   9.5144159952e+01   5.6061759099e+01    0.2621638    0.1378111  35.35 0.0006732144    1.830    0.453
       285  -9.6317     99.0363     43.9811   9.0897717534e+01   5.3806923597e+01    0.2103133    0.1483281  14.10 0.0004568056    1.554    0.357
       286 -10.6093    163.0894     42.3858   7.5071766071e+01   3.9303646170e+01    0.2112739    0.1980792  18.14 0.0003390906    1.214    0.176
       287 -10.2638     64.1493     41.5392   1.0163306170e+02   6.0243043613e+01    0.2518719    0.1637039 -36.88  0.001216114    1.536    0.349
       288 -10.6943     80.6807     41.9231   9.5970697154e+01   5.7522793798e+01    0.3073423    0.2106216  30.54  0.001716668    1.353    0.261
       289 -10.2953    180.9952    250.0000   1.1854301397e+02  -3.9150203084e+00    0.2185882   0.06172447  40.50 0.0007974394    2.908    0.656
       290  -9.2183     52.3130     42.2850   1.0637493398e+02   6.1767453157e+01     0.126241   0.08266429  -6.67 0.0002403526    1.578    0.366
       291 -10.3111    226.3655     40.2266   6.5096060368e+01   2.3994770644e+01    0.2366386    0.1875972 -88.56 0.0004202478    1.108    0.098
       292 -11.4441     95.7442     39.4792   9.0296896487e+01   5.5084233267e+01    0.4108972    0.3023569 -26.76  0.001874078    1.409    0.290
       293 -10.5498    135.7698     38.4542   7.9480015979e+01   4.6489386322e+01     0.312108    0.1928324 -23.06  0.001497507    1.890    0.471
       294  -9.9591     89.7864     40.1888   9.2387568502e+01   5.6126621371e+01    0.2008167    0.1498434 -78.95 0.0009454833    2.790    0.642
       295  -9.9862     44.1117     39.4210   1.0858562354e+02   6.3228901900e+01    0.2290537    0.1415511 -49.88 0.0009254504    1.974    0.494
       296 -11.3862     70.3781     36.4639   9.7504373609e+01   6.0027063034e+01    0.4290899    0.2362519 -11.40  0.001319041    2.407    0.585
       297 -10.3378      1.4772     37.9566   1.2621264428e+02   6.7003066450e+01    0.1707198   0.08878732 -41.93   0.00038277    1.391    0.281
       298  -9.6934    102.4005     36.9957   8.7460103239e+01   5.4084492100e+01    0.2252654    0.1580528  44.43  0.001224054    1.296    0.229
       299  -9.2042    146.2557     35.9801   7.6468894487e+01   4.4285557496e+01    0.1646013    0.1233558 -29.84 0.0008690974    1.500    0.333
       300 -10.2894     56.9309     35.6700   1.0215789639e+02   6.2158680753e+01    0.2132065    0.1439354 -18.99  0.001234122    1.364    0.267
       301  -9.9909    106.0861     34.1780   8.5434004564e+01   5.3682666972e+01    0.2348899    0.1760418 -61.73  0.001175729    2.004    0.501
       302  -9.9473     32.5513     33.9830   1.1139837057e+02   6.5341482365e+01    0.2183255    0.1477314  24.76  0.001423127    1.556    0.357
       303  -9.4643    129.3495     33.3128   7.9287723791e+01   4.8635860364e+01    0.1485184   0.09445006  30.90 0.0005710222    1.721    0.419
       304  -9.3995    235.5757     40.5584   6.4116436168e+01   2.1819879368e+01    0.1310869    0.1120929 -80.01 0.0002657251    1.043    0.041
       305 -10.4881     77.2079     33.5954   9.4060798066e+01   5.9287380040e+01    0.1857679    0.1039165  30.71 0.0007969084    1.706    0.414
       306 -11.3073      2.1245     31.9042   1.2411188569e+02   6.8007150994e+01    0.2666704    0.2058695  37.68  0.001971223    1.954    0.488
       307 -10.1965    137.0222    247.7060   1.2698099208e+02   4.0530727234e+00    0.1877639    0.1453178  46.12 0.0004592324    1.063    0.059
       308 -11.0678    250.4432    244.8309   1.0446165687e+02  -1.4164188808e+01    0.5805848    0.1878267 -37.02  0.002570808    3.261    0.693
       309  -9.7150    178.8043     31.7794   6.9462968651e+01   3.6727491729e+01    0.1935043    0.1481371 -80.19 0.0003980537    1.356    0.263
       310 -10.0077    162.5032     30.5899   7.1815384311e+01   4.0941349306e+01    0.2430142    0.1877922  17.93 0.0006586189    1.658    0.397
       311  -9.2925     90.0727     31.5448   8.9143632676e+01   5.7220346223e+01    0.1849091    0.1159501  43.85 0.0003242345    1.459    0.315
       312  -9.9030    111.0744     35.0629   8.4392616024e+01   5.2512631425e+01    0.1967679    0.1784265  33.72 0.0004255552    1.058    0.055
       313  -9.1612    140.4710     29.5136   7.5665069472e+01   4.6460101777e+01    0.1399029    0.1207855  50.23 0.0001420388    1.030    0.029
       314 -10.2582     56.6028     42.0963   1.0465841594e+02   6.1229435305e+01    0.2313535    0.1552507 -52.50  0.001026562    2.070    0.517
       315 -10.7016    124.9363     27.9537   7.8546191770e+01   5.0282716806e+01    0.2024477    0.1695731  40.64            0    1.059    0.055
       316  -9.2913    101.0229     28.7365   8.4903337811e+01   5.5395784963e+01     0.164983    0.1032944  48.28  0.000353788    1.440    0.306
       317 -10.2321     50.3985     27.3704   1.0149492702e+02   6.4227539334e+01    0.2548108    0.1199439 -23.88  0.001251344    2.263    0.558
       318 -10.3270    238.4823    246.5067   1.0692896976e+02  -1.2654201169e+01    0.1220385   0.09740351  13.74 0.0004428696    1.040    0.039
       319 -11.9024     24.6175     27.1873   1.1233409407e+02   6.7148784582e+01    0.2144698    0.1661636  -5.69 0.0003188947    1.113    0.102
       320  -9.6060    156.6697    245.7238   1.2276947227e+02   9.8122490417e-01    0.1278461   0.09472869  18.36 0.0002345016    1.596    0.374
       321 -10.5170     27.3432     19.5790   1.0813319086e+02   6.7995073768e+01    0.1995789    0.1596738   7.84   0.00113963    1.251    0.201
       322 -10.1278     89.7004     26.3697   8.7330411949e+01   5.7921773437e+01    0.3083838    0.1979911  53.78  0.001663391    1.669    0.401
       323 -10.9596     70.5937     25.9133   9.3375324595e+01   6.1395178478e+01    0.5067382    0.2138971  35.77  0.002366506    2.211    0.548
       324 -10.5141    129.7338     24.6284   7.6382445807e+01   4.9545583759e+01    0.4013306    0.2257126 -59.97  0.001664394    3.070    0.674
       325 -11.3886     60.9271     23.5853   9.5928909298e+01   6.3220997636e+01    0.3537985    0.2541107 -50.74  0.002045156    2.262    0.558
       326 -10.7648     65.0396     21.6868   9.3659316422e+01   6.2813922415e+01    0.3124774     0.170572  29.50 0.0007708251    1.685    0.407
       327  -9.4399     16.6779     25.9561   1.1546057345e+02   6.8011215363e+01    0.2234577   0.06997447 -41.04  0.001088733    2.484    0.597
       328  -8.9766    119.0000     23.9907   7.8605113352e+01   5.2067184866e+01    0.1939602   0.07674107 -26.66 0.0005881996    2.855    0.650
       329 -10.6825     54.1580     23.4163   9.8432217652e+01   6.4236526619e+01    0.2175258    0.1707602  -1.68 0.0003836421    1.042    0.041
       330 -10.8141     84.4322     22.4088   8.7443712482e+01   5.9374470305e+01    0.2372609    0.1801041  18.33  0.000571333    1.174    0.148
       331 -10.1344    124.1301     21.8468   7.6705214681e+01   5.1134912165e+01    0.1890814    0.1337224  36.80 0.0004158342    1.325    0.245
       332 -10.0758     99.9951     21.5347   8.2573318356e+01   5.6419240931e+01    0.2670125     0.152551  33.69  0.001361469    1.652    0.395
       333 -10.0361    104.1968     18.9435   8.0512042004e+01   5.5817389318e+01    0.2104293    0.1501223  21.99  0.001203636    1.393    0.282
       334  -9.1300     34.6791     22.6560   1.0613661532e+02   6.6794821690e+01    0.1231898   0.07175062  -9.01 0.0007049915    1.728    0.421
       335  -9.4789     35.5586     19.5131   1.0447328016e+02   6.7125128710e+01    0.1875041    0.1234056 -17.24  0.001232483    1.274    0.215
       336  -9.6297    137.0057     20.0281   7.3401393344e+01   4.8323258339e+01    0.1894571    0.1568693  54.75 0.0003231711    1.030    0.029
       337  -9.9294    148.0000    244.9436   1.2440633732e+02   2.6294763078e+00    0.1883363   0.07690539 -51.67 0.0008043871    2.956    0.662
       338  -9.6288    115.3847    244.5103   1.3089088642e+02   8.2988090228e+00    0.1851534    0.1234321 -63.60  0.001047295    1.724    0.420
       339  -9.6774    129.2978     19.3177   7.4752058267e+01   5.0205348068e+01    0.1386221   0.08881108  33.43 0.0003105204    1.613    0.380
       340 -11.7031     73.9785    238.3529   1.3832706475e+02   1.5991554754e+01    0.5719461    0.3595796  60.89  0.003372256    1.332    0.249
       341 -10.0235    109.9566    242.9773   1.3178671835e+02   9.4841242701e+00    0.2161219     0.132508  66.39 0.0009164445    1.705    0.413
       342  -9.4484     24.4516    232.4797   1.4696911419e+02   2.3554920733e+01    0.1894878    0.1175804  57.75 0.0009410985    1.321    0.243
       343  -9.0637     50.3073     18.7310   9.8017765302e+01   6.5366013361e+01   0.09730455   0.09186537  21.19 0.0001978119    1.538    0.350
       344  -9.6976    108.5045     17.4826   7.8893645480e+01   5.5048751152e+01    0.1309697    0.1107787  39.38 8.099286e-05    1.020    0.020
       345  -9.8055     81.8566     16.3880   8.5903574412e+01   6.0507203793e+01    0.1748303   0.09484114  37.34  0.000446302    1.583    0.368
       346 -10.0526      9.8261     15.9942   1.1490126708e+02   7.0023704266e+01    0.1768516    0.1200251  -7.09 0.0007057556    1.215    0.177
       347 -10.0082    164.3397     14.6742   6.7052436779e+01   4.2231187915e+01    0.2345309    0.1426471  77.63 0.0005517097    1.576    0.365
       348 -11.0828     31.4270    237.6924   1.4609911351e+02   2.1724697674e+01    0.3308599    0.2083482 -69.65  0.001673593    1.623    0.384
       349  -9.3451     30.5489     12.4813   1.0370898661e+02   6.8599801357e+01    0.1139316   0.08335687  -4.92 8.847159e-06    1.023    0.023
       350 -10.1820     29.0625    233.0152   1.4619239439e+02   2.2925602557e+01     0.276591    0.1392775  56.49  0.001294934    1.625    0.385
       351 -10.8771    156.3431    240.9309   1.2214386137e+02   1.8540991057e+00     0.192004    0.1651081  89.26  0.001171931    1.422    0.297
       352  -9.8929     88.6381    241.1655   1.3577807949e+02   1.3238582571e+01    0.1609138    0.1102919 -57.57 0.0009346882    1.739    0.425
       353  -9.3223     50.3027    240.3231   1.4292491308e+02   1.8871359444e+01    0.1002053   0.09067797 -57.06 0.0004095503    1.635    0.388
       354 -11.1469    177.5863    234.8126   1.1686561437e+02  -8.8739309784e-01     0.330944    0.2224192   8.62  0.001533808    2.061    0.515
       355 -11.5061     34.7702    241.5121   1.4577875077e+02   2.0581110937e+01    0.4342087    0.2227666  44.35  0.002610936    1.758    0.431
       356  -9.8694    195.7118    238.5522   1.1381470466e+02  -4.6660008593e+00    0.2559992    0.1101886  35.65  0.001121441    2.054    0.513
       357 -10.2394    159.9169    235.8546   1.2065623195e+02   2.0982754897e+00      0.20934    0.1687925  24.72 0.0006738107    1.270    0.213
       358 -10.6606     73.8381    232.8597   1.3781369810e+02   1.7109503313e+01    0.2585678    0.1410466  52.73  0.000885954    1.543    0.352
       359  -9.1139     90.2705     13.2621   8.2188267878e+01   5.9216507122e+01    0.1241982   0.07929308  26.66 0.0002168119    1.463    0.316
       360 -10.0688      5.7954    226.7852   1.4984151165e+02   2.6643448164e+01    0.2699137   0.05104351  53.83  0.001066773    4.227    0.763
       361 -10.3227    167.0267    233.7800   1.1887038749e+02   1.1813558621e+00    0.2101158    0.2010243 -25.76 0.0007580013    1.213    0.176
       362 -10.0212     79.5814    231.4895   1.3654196811e+02   1.6536221256e+01     0.237012    0.1087724  42.15 0.0006670956    1.938    0.484
       363 -10.3354     12.0042    238.0527   1.4943846829e+02   2.3806885032e+01     0.203554    0.1177513  62.93 0.0007338002    1.329    0.248
       364  -9.1512    168.6470    250.6964   1.2109124805e+02  -1.9091104942e+00    0.1307353   0.09210665  15.81 0.0007040185    1.707    0.414
       365 -10.6497    153.4590    233.6995   1.2166646664e+02   3.6407616642e+00    0.2432189    0.1936343  -1.19  0.000868195    1.690    0.408
       366 -10.3547    190.5307    226.8475   1.1289704286e+02  -1.8717546173e+00     0.307911    0.1348967 -43.01  0.001040368    2.585    0.613
       367  -9.1048    249.3351    227.2715   1.0156400098e+02  -1.1680103200e+01    0.1275087   0.08158486   7.27 0.0003477872    1.597    0.374
       368  -9.8136     86.1208    233.1113   1.3541474560e+02   1.5214833982e+01    0.1870998    0.1278851  70.52 0.0008027874    1.345    0.257
       369  -9.5662    139.9801    227.2217   1.2352504513e+02   7.2741531940e+00    0.1905641   0.09928139  42.31 0.0008694289    1.655    0.396
       370 -10.2624    129.6806    226.7834   1.2563907061e+02   9.2056669686e+00    0.4278577    0.1684438  53.13   0.00159865    2.775    0.640
       371 -10.7086    116.1215    226.2381   1.2842440029e+02   1.1689046628e+01    0.2476618    0.1585571 -76.12  0.001107906    1.878    0.467
