#   1 NUMBER                 Running object number                                     
#   2 MAG_AUTO               Kron-like elliptical aperture magnitude                    [mag]
#   3 X_IMAGE                Object position along x                                    [pixel]
#   4 Y_IMAGE                Object position along y                                    [pixel]
#   5 X_WORLD                Barycenter position along world x axis                     [deg]
#   6 Y_WORLD                Barycenter position along world y axis                     [deg]
#   7 A_WORLD                Profile RMS along major axis (world units)                 [deg]
#   8 B_WORLD                Profile RMS along minor axis (world units)                 [deg]
#   9 THETA_WORLD            Position angle (CCW/world-x)                               [deg]
#  10 FWHM_WORLD             FWHM assuming a gaussian core                              [deg]
#  11 ELONGATION             A_IMAGE/B_IMAGE                                           
#  12 ELLIPTICITY            1 - B_IMAGE/A_IMAGE                                       
         1 -14.2018    221.5415      5.9297   3.7376913902e+01   2.8940298441e+01     1.896907    0.9293454  69.21  0.005321926    1.896    0.472
         2 -15.2079    195.3690     36.0871   4.7989578116e+01   3.1802654986e+01     3.289834      1.95252  25.08   0.01321681    2.895    0.655
         3 -11.0294    189.5554     14.9036   4.2847654212e+01   3.5775918830e+01    0.2651296    0.2153552  72.88 0.0007073653    1.139    0.122
         4 -11.1123     68.1320      2.8717   6.2710113608e+01   6.5415331174e+01    0.1840428    0.1700601  -2.59  0.001269159    1.255    0.203
         5 -10.8019    158.5492    235.6139   1.0099866022e+02   3.7661497040e+00    0.2460035    0.2157668   3.12      0.00128    1.290    0.225
         6 -12.3119    248.8621    246.8287   8.6358349260e+01  -1.1342883360e+01    0.4892644    0.2848572 -25.71  0.003183164    1.739    0.425
         7 -16.6391     69.4541    145.2039   1.0731682964e+02   3.7013929471e+01     9.086399     5.002592  71.78   0.03683614    2.681    0.627
         8 -11.3643     56.7748    209.9435   1.1824117825e+02   2.4018850073e+01    0.3147525    0.1950888 -61.29  0.001171074    1.747    0.428
         9  99.0000     42.6007    208.9886   1.2096477084e+02   2.5949550958e+01    0.4296629    0.1746281  77.97    0.0017841    3.348    0.701
        10 -10.7173     50.2892    224.5348   1.2071508145e+02   2.1912413204e+01    0.1990223    0.1098492  82.82 0.0007841417    1.760    0.432
        11  -8.5980     70.5196    199.9919   1.1442275323e+02   2.4278907548e+01    0.2561574    0.1680609  63.26  0.001186167    1.390    0.281
        12  -9.4962     62.5742    210.6276   1.1714200218e+02   2.3127729343e+01     0.287158    0.1921197   0.10  0.001276466    4.039    0.752
        13 -11.4744     66.2342    204.6268   1.1580695545e+02   2.3884196449e+01    0.3025666    0.1714324 -56.91  0.001002638    1.957    0.489
        14  -8.9342     28.7683    209.6243   1.2368108391e+02   2.7373853231e+01    0.1444604   0.07789219  56.53 0.0007429331    1.543    0.352
        15 -13.1723     31.3327    206.0149   1.2293314136e+02   2.7837491053e+01    0.3714387    0.1544562  53.69  0.001947577    2.061    0.515
        16 -10.7678     97.0435    201.8510   1.0898232426e+02   1.9984505614e+01    0.4457328    0.3388512 -28.99  0.002433266    2.012    0.503
        17 -11.9175    193.9823    196.4108   8.7652347518e+01   4.0394210195e+00      1.16966    0.7154334 -65.00  0.004745486    3.451    0.710
        18 -11.5409    204.8223    200.2037   8.6238631580e+01   1.5120446073e+00    0.3472479    0.2180479  28.97  0.001809389    1.508    0.337
        19 -13.4111     54.5871    199.4604   1.1771053885e+02   2.6491440674e+01    0.4261357    0.3019876 -61.98  0.002216741    1.526    0.345
        20 -10.2959     57.9004    192.1950   1.1628475256e+02   2.7639582277e+01    0.2129874    0.1578167 -87.86 0.0005872239    1.197    0.164
        21 -13.3429     64.6171    186.2919   1.1417092077e+02   2.8062642725e+01    0.7605504    0.6621782 -49.92   0.00484801    1.439    0.305
        22  -9.9452     35.9392    223.5420   1.2329519369e+02   2.3804219673e+01    0.1965686     0.100999  65.93 0.0009587074    1.665    0.399
        23  -9.3864     38.4033    199.2215   1.2100670345e+02   2.8475708288e+01    0.1328656   0.09092697  79.57 7.127169e-05    1.215    0.177
        24 -11.5472    206.8190    194.8168   8.4847767498e+01   2.0199508873e+00    0.2488806    0.2112753  13.93  0.001268133    1.046    0.044
        25 -11.5401    151.6276    195.2469   9.6194804242e+01   1.1970555681e+01     0.460256     0.180772  39.19   0.00178942    2.378    0.579
        26 -10.2962     81.9915    194.7853   1.1135370423e+02   2.3760554380e+01    0.2325601    0.1864353  79.34 0.0006001884    1.134    0.118
        27 -10.9873     95.5830    188.9563   1.0757908585e+02   2.2950011872e+01    0.4465907    0.2889608  82.71  0.001478099    1.859    0.462
        28 -11.2667    150.9304    187.9014   9.5068402112e+01   1.3521945145e+01    0.2490815    0.1933565 -51.74  0.001334329    1.400    0.286
        29 -17.7634     33.1446    245.8622   1.2516191300e+02   1.9960048797e+01     8.184417     2.409925  31.21   0.03070858    5.838    0.829
        30  -8.8458     44.4230    189.4921   1.1890029971e+02   2.9883316937e+01    0.1260244   0.09784766  78.93 0.0005681953    1.049    0.046
        31 -11.6200     98.9224    181.7926   1.0578611427e+02   2.3986481908e+01    0.5231885    0.3067186 -51.46  0.001466382    1.829    0.453
        32  -8.5006     38.5729    186.4449   1.1986480258e+02   3.1222801457e+01    0.1235582   0.09731026  81.19 8.293884e-05    1.012    0.012
        33 -11.5064    150.9112    179.8899   9.3618349971e+01   1.5121032874e+01    0.4409466    0.2941679 -77.24  0.001912925    2.362    0.577
        34 -12.0190    145.1924    180.6744   9.5035982883e+01   1.6043795492e+01    0.4185921    0.3172556  47.77  0.001097458    1.253    0.202
        35 -11.6375    140.7815    173.5079   9.4709218709e+01   1.8365871046e+01    0.7356678    0.4815128  81.04   0.00277937    2.586    0.613
        36  99.0000     29.2805    216.9210   1.2407685870e+02   2.5848673565e+01    0.3747501   0.06186078 -65.21  0.001407192    4.739    0.789
        37 -10.0154    188.9817    177.9860   8.5107530770e+01   8.1670450182e+00    0.2649322     0.235254  80.43  0.001239233    1.471    0.320
        38 -10.8339    187.9496    173.4305   8.4397213924e+01   9.1966204719e+00    0.4251337    0.2705744 -62.02   0.00158794    2.417    0.586
        39 -10.5593     56.1352    174.8768   1.1476512310e+02   3.1745048413e+01    0.4292069    0.1464354  49.34  0.001709874    2.926    0.658
        40 -11.0020     46.2670    172.8751   1.1680805550e+02   3.3400921505e+01    0.3796785    0.2804824  30.51   0.00151818    1.638    0.389
        41  -9.4112    195.3958    173.1779   8.2827232289e+01   7.8016605244e+00    0.2012483    0.1327138 -49.27 0.0009550911    1.736    0.424
        42 -10.7735    230.5658    167.8406   7.5006835179e+01   2.1385666700e+00    0.3296003    0.1123579 -44.07  0.001153465    3.372    0.703
        43  -9.5342     20.7730    219.1801   1.2576826523e+02   2.6305123919e+01   0.09812893   0.05822418  63.55 0.0006287291    1.315    0.240
        44  -9.4836     36.9886    176.1259   1.1923961988e+02   3.3704680394e+01    0.3266935    0.1459714  52.01  0.001603851    2.143    0.533
        45 -12.3228     94.1329    152.5690   1.0215709214e+02   3.1494765885e+01    0.6643232    0.4959636 -23.71  0.003210485    1.923    0.480
        46 -10.6740    187.6681    152.1697   7.9899965057e+01   1.3266445681e+01    0.3060336    0.2447653  81.06  0.001473258    1.751    0.429
        47 -11.5855    133.9012    145.7032   9.0719056541e+01   2.5795557468e+01     1.284328    0.3331345 -54.81   0.00304092    5.732    0.826
        48  -9.6750    139.0577    150.7169   9.0544653910e+01   2.3641405121e+01    0.2105568     0.193889  46.06 0.0004059786    1.074    0.069
        49 -10.1626     55.8846    217.0772   1.1904371421e+02   2.2685026840e+01    0.2971239    0.1291988  75.79  0.001270819    3.129    0.680
        50 -11.1260    174.0905    148.8610   8.2055619590e+01   1.6765115237e+01    0.4055176     0.328072 -47.32  0.001271984    1.271    0.213
        51 -10.8920    143.8809    146.2920   8.8419009089e+01   2.3638353600e+01    0.4519553    0.2144906 -58.52   0.00156474    2.753    0.637
        52  -9.8686    109.1752    147.4162   9.7313996677e+01   3.0119348297e+01    0.2416546     0.197793 -63.20  0.000292603    1.198    0.166
        53 -19.2678      5.0279    104.3956   1.1942917267e+02   5.3222969264e+01     17.46387     1.420666 -72.21   0.03320277   12.779    0.922
        54 -11.3811    106.3714    138.2443   9.6160882650e+01   3.2789598923e+01    0.5474427    0.3366742 -34.23  0.002285123    2.108    0.526
        55 -12.3715     94.0936    138.3271   9.9459261001e+01   3.4906248887e+01    0.2826789    0.2651996 -43.16 0.0004096597    1.149    0.130
        56 -11.3127    135.7677    128.1846   8.6218076936e+01   2.9361526757e+01    0.8776764    0.1984357 -48.75  0.002211247    4.595    0.782
        57 -11.1395    105.8899    130.7125   9.4657587524e+01   3.4663442204e+01    0.3861883    0.3186702 -66.15  0.001238555    1.204    0.170
        58  -8.9208    100.2256    131.3364   9.6336230762e+01   3.5529599082e+01    0.1459273    0.1103888 -33.68 0.0002142979    1.528    0.346
        59 -11.0816    114.3624    129.3955   9.2078230276e+01   3.3390280015e+01     0.415979    0.2973131  36.03  0.001415692    1.494    0.331
        60 -10.1420    160.6629    127.8231   8.0094833463e+01   2.4042647411e+01     0.364522     0.244293 -56.19  0.001563821    1.670    0.401
        61 -11.1597    101.4902    125.3308   9.4653029078e+01   3.6737279949e+01    0.3089868    0.2398411 -30.72 0.0007995772    1.492    0.330
        62 -11.2452    120.2300    122.8307   8.8952184253e+01   3.3769191108e+01    0.5876083    0.3666504 -14.74  0.002003643    3.301    0.697
        63 -10.1859    109.5604    118.5978   9.0821251575e+01   3.6834400563e+01    0.2513674    0.2340114 -52.34 0.0003460768    1.035    0.033
        64 -10.0066    167.5169    112.3533   7.4565078467e+01   2.5703652929e+01    0.3443035     0.245541 -73.93  0.001154458    1.994    0.499
        65 -11.8713    118.6375    110.3910   8.6229758930e+01   3.6937173176e+01    0.6099271    0.4545444  76.72  0.002181645    1.808    0.447
        66 -10.2834    205.3855    110.2180   6.6298003386e+01   1.7370565145e+01    0.3137197     0.246567  45.33 0.0009283303    1.341    0.254
        67 -10.2684    134.6114    105.6015   8.0676031914e+01   3.4615260856e+01    0.4464634    0.1492333 -43.96  0.001376899    2.927    0.658
        68 -10.3505     64.7110    100.0423   9.9735008197e+01   4.8601864852e+01      0.32251    0.2151731  20.87  0.001475051    1.845    0.458
        69  -9.9475     55.8282    223.5524   1.1959509412e+02   2.1412739908e+01    0.1303964   0.08730299  62.85 0.0002310202    1.208    0.172
        70 -11.2970     59.7556    231.5909   1.1950950374e+02   1.9369644198e+01    0.1878807    0.1377441  80.39 0.0004201188    1.182    0.154
        71  -9.3872    155.9408     81.7034   6.8562152205e+01   3.4506849672e+01    0.2190674    0.2010206  54.09 0.0005006355    1.101    0.092
        72  -9.4540    184.1846     77.1571   6.1402499324e+01   2.8362401431e+01    0.2292457    0.2104511  19.18 0.0008804136    1.207    0.171
        73 -10.1409     65.8227     70.6645   9.1328647035e+01   5.5061505428e+01    0.2812697    0.1985334  46.29   0.00146196    1.698    0.411
        74  -9.3886    168.1821    248.1364   1.0088699668e+02   3.6037586741e-01    0.1495118    0.1188648  48.82            0    1.250    0.200
        75 -13.3326    179.8359     50.3726   5.4434767542e+01   3.3757929617e+01    0.8240091    0.7042975  46.33  0.000875322    1.221    0.181
        76  -8.8982     61.5156    220.2135   1.1822389384e+02   2.1337749119e+01    0.1506378    0.1030025 -63.11 0.0009365032    1.631    0.387
        77 -11.3070    155.7393     58.2953   6.1399893344e+01   3.8647330645e+01    0.3598347    0.2781929 -86.66  0.000707461    1.588    0.370
        78 -11.6549     35.2127    228.9834   1.2378551715e+02   2.2838270206e+01    0.1900728    0.1207139  55.96  0.001144383    1.254    0.203
        79 -10.1756     77.5236    226.4430   1.1569887013e+02   1.7965315227e+01    0.1779324     0.108172 -82.84  0.001022369    1.742    0.426
        80 -11.5702     49.1200    218.6512   1.2047526057e+02   2.3212785076e+01     0.345352    0.1715809  68.21  0.001848634    1.951    0.487
        81  -9.9603     78.9978     14.7331   6.4758334730e+01   6.2115518941e+01    0.1804592    0.1522909  27.28 0.0002479208    1.081    0.075
