#   1 NUMBER                 Running object number                                     
#   2 MAG_AUTO               Kron-like elliptical aperture magnitude                    [mag]
#   3 X_IMAGE                Object position along x                                    [pixel]
#   4 Y_IMAGE                Object position along y                                    [pixel]
#   5 X_WORLD                Barycenter position along world x axis                     [deg]
#   6 Y_WORLD                Barycenter position along world y axis                     [deg]
#   7 A_WORLD                Profile RMS along major axis (world units)                 [deg]
#   8 B_WORLD                Profile RMS along minor axis (world units)                 [deg]
#   9 THETA_WORLD            Position angle (CCW/world-x)                               [deg]
#  10 FWHM_WORLD             FWHM assuming a gaussian core                              [deg]
#  11 ELONGATION             A_IMAGE/B_IMAGE                                           
#  12 ELLIPTICITY            1 - B_IMAGE/A_IMAGE                                       
         1 -18.4154     82.4730    193.7337   1.3125947083e+02   2.5062085274e+01     5.796073     2.962845  84.81   0.02373298    3.100    0.677
         2 -17.5042    173.2644    115.9295   9.4849243354e+01   2.3723366413e+01     4.059888     2.816735  73.92   0.01728963    1.920    0.479
         3 -18.2587    159.4599     65.7077   8.3871451303e+01   3.6278965400e+01     6.438421     4.310878 -69.86   0.02705222    2.057    0.514
         4 -16.9648     20.9622     68.9727   1.2834147252e+02   6.0517610221e+01     1.694718    0.7718316 -52.08  0.008818464    1.726    0.421
         5 -15.6629    246.9499     51.4957   6.6732876137e+01   1.6823845480e+01     1.449982    0.5404698 -37.47  0.006074782    2.309    0.567
         6 -12.3670      3.4770      2.0000   1.1430144371e+02   7.4156451644e+01    0.2060025   0.05528617  23.43 0.0009369524    3.953    0.747
         7 -14.8110    176.3854    194.3632   1.1104304563e+02   8.3274200102e+00    0.6586548    0.3996376 -47.59  0.003262047    1.920    0.479
         8 -15.9855    238.1185    239.7665   1.0718395819e+02  -8.4053993306e+00     1.249338    0.9300466  48.30   0.00829724    1.816    0.449
         9 -15.5512    240.3846    231.2806   1.0542652859e+02  -7.7765069364e+00    0.5946598    0.5472375 -18.00  0.003630206    1.492    0.330
        10 -16.3143    182.2819    239.2969   1.1708991468e+02   3.6572436560e-01     1.844912     1.178723  30.59   0.01098544    1.341    0.255
        11 -15.9448    156.2266    244.1267   1.2262860517e+02   3.9701848552e+00     1.042669    0.9062574   7.41  0.006267791    1.366    0.268
        12 -15.5430    161.0776    227.9645   1.1950129324e+02   5.5940124229e+00     1.023515    0.7608665  69.45  0.005968183    1.747    0.428
        13 -16.0600    167.7384    219.9047   1.1700214613e+02   5.7010495081e+00     1.798295    0.7561588  49.40  0.007712759    2.353    0.575
        14 -18.0066     17.4780    242.9030   1.4774062219e+02   2.3764349966e+01     2.991024     1.404252  60.33   0.01965119    1.564    0.360
        15 -16.7455     64.3966    238.5602   1.3929630166e+02   1.8941194914e+01     1.684943    0.7722014  82.90  0.008201824    2.927    0.658
        16 -16.3082     74.3455    249.0296   1.3832424970e+02   1.5779064644e+01     1.029806    0.6011124  34.67  0.004636021    1.850    0.459
        17 -16.0517     55.8150    249.6778   1.4163388163e+02   1.8121500625e+01     1.196407    0.2436678  38.68  0.004758291    4.008    0.751
        18 -13.3752      7.7516    181.0405   1.4611149343e+02   3.6651131907e+01    0.6366709     0.152183  55.79  0.002476123    4.231    0.764
        19 -10.9602     19.4043    187.3450   1.4414793424e+02   3.4254265779e+01    0.5280416    0.2646698  58.12  0.002286522    1.740    0.425
        20 -13.5903     14.2614    183.2509   1.4491894117e+02   3.5602016223e+01    0.5128871      0.22244 -69.90  0.002825231    2.005    0.501
        21 -13.1999    247.6922    193.4444   9.7509182280e+01  -4.2161415857e+00    0.3968177    0.2811659 -60.38  0.002030415    2.878    0.653
        22 -13.2830    250.0523    167.3874   9.2030513869e+01  -1.0210036993e+00    0.4687364     0.170001 -35.20  0.001953962    2.599    0.615
        23 -14.1678    103.4659    165.9212   1.2239756048e+02   2.7658710312e+01    0.6961823      0.43534  51.85  0.003000652    1.531    0.347
        24 -16.7861    175.5900    139.1160   9.9953049405e+01   1.8689646138e+01     3.681853     2.138038  68.21    0.0133634    2.831    0.647
        25 -16.4376    216.2657    245.0570   1.1178501348e+02  -5.7633631810e+00     2.196007    0.7803474  35.75   0.01036701    2.296    0.565
        26 -14.5643    145.0213    221.6608   1.2178102007e+02   9.3852165697e+00    0.5036814    0.4257308  50.54  0.002817187    1.069    0.064
        27 -15.1420    247.5653    113.1301   8.0776613973e+01   7.6093628706e+00    0.9274275    0.3896243 -28.96  0.003679405    2.487    0.598
        28 -16.2790    242.8207    136.6207   8.6731133921e+01   4.8969181686e+00     1.513745     1.215554 -28.86   0.00772875    1.152    0.132
        29 -14.6145    221.0429    150.8829   9.3578586029e+01   6.9006375768e+00    0.5923256    0.4157749 -34.36  0.003071468    1.403    0.287
        30 -14.8554     55.4741    141.8975   1.3079605431e+02   4.0413112098e+01    0.8490639    0.6041279  58.84  0.004778777    1.424    0.298
        31 -15.8477     39.6380    114.6751   1.3096081931e+02   4.8586658976e+01     1.790996     1.144244  83.77  0.009326987    1.862    0.463
        32 -15.8891     17.4569    106.3195   1.3636773524e+02   5.2481753385e+01     1.339492    0.4976394 -56.33   0.00634909    2.145    0.534
        33 -15.6178      7.3149    114.0051   1.4036674110e+02   5.1447129894e+01     1.270674    0.7028049  25.45  0.007481941    2.174    0.540
        34 -14.8885    248.0551    152.8046   8.9353191720e+01   1.4570263695e+00    0.7203902    0.5678226 -44.29  0.004222116    1.419    0.295
        35 -15.4938     44.8496     64.9975   1.1812587166e+02   5.9094670982e+01     1.672531    0.7501178  18.85  0.007058968    3.119    0.679
        36 -16.5060      7.0230     77.5954   1.3522996440e+02   5.9576237592e+01     1.215975     1.197565 -45.33   0.00953801    1.225    0.184
        37 -15.6031    132.5139    214.9425   1.2338167164e+02   1.2714830425e+01     1.176505    0.9045766  71.91  0.006939042    1.432    0.302
        38 -12.9793     35.3268    211.2088   1.4269369049e+02   2.7706067336e+01    0.4054995    0.1423116  40.80  0.002043834    2.391    0.582
