#   1 NUMBER                 Running object number                                     
#   2 MAG_AUTO               Kron-like elliptical aperture magnitude                    [mag]
#   3 X_IMAGE                Object position along x                                    [pixel]
#   4 Y_IMAGE                Object position along y                                    [pixel]
#   5 X_WORLD                Barycenter position along world x axis                     [deg]
#   6 Y_WORLD                Barycenter position along world y axis                     [deg]
#   7 A_WORLD                Profile RMS along major axis (world units)                 [deg]
#   8 B_WORLD                Profile RMS along minor axis (world units)                 [deg]
#   9 THETA_WORLD            Position angle (CCW/world-x)                               [deg]
#  10 FWHM_WORLD             FWHM assuming a gaussian core                              [deg]
#  11 ELONGATION             A_IMAGE/B_IMAGE                                           
#  12 ELLIPTICITY            1 - B_IMAGE/A_IMAGE                                       
         1 -13.5397    169.7764     55.6040   6.2627840246e+01   3.5483349212e+01     2.139312     1.373859  24.53   0.00636826    2.109    0.526
         2 -13.2967    183.9876     40.4214   5.5363201810e+01   3.4011880200e+01    0.9967795    0.9274808 -49.58  0.003033134    1.078    0.072
         3 -12.8719    189.1291     34.0107   5.2625716953e+01   3.3519617570e+01    0.6631511    0.5991107 -24.89  0.001631292    1.161    0.139
         4 -13.9110    206.6278      8.9050   4.3241446253e+01   3.1907654700e+01     1.163581     1.067943  34.90  0.003998169    1.259    0.206
         5 -12.0694    190.8184     15.1317   4.6796179208e+01   3.5296502658e+01    0.5749773    0.3783427  61.66  0.002720692    1.424    0.298
         6 -11.7181    239.7674      2.0054   3.8564062749e+01   2.4583202897e+01    0.8551778    0.2284503  74.75  0.003077979    3.679    0.728
         7 -10.8890    193.1246    195.0755   9.2645592499e+01   4.9308635466e+00    0.9548137    0.4940342 -62.14   0.00286717    6.501    0.846
         8 -13.7762    247.2972    245.3093   9.1473654946e+01  -1.0282417571e+01     2.081609    0.6963757 -32.01   0.01036028    3.317    0.699
         9  -9.5955     87.6360    203.1684   1.1513688197e+02   2.1663092963e+01    0.2329388    0.2034786 -85.47  0.001098822    1.178    0.151
        10  -9.7073     16.7341    201.0101   1.2842080544e+02   3.0720851314e+01    0.1034395   0.07293522  57.32 0.0004630935    1.274    0.215
        11 -11.4600     71.8033    244.4692   1.2188209169e+02   1.6369512143e+01    0.2251573    0.1510053 -79.24 0.0009692623    1.543    0.352
        12  -9.4724     81.6543    195.1740   1.1543188754e+02   2.4129050072e+01    0.2641856    0.1946799 -58.88  0.001618516    1.508    0.337
        13 -11.5537     66.4424    195.1188   1.1850381047e+02   2.6238526173e+01    0.3230223    0.2268538 -45.21  0.001197696    2.029    0.507
        14  -9.2407    159.3570    194.6541   9.9301277821e+01   1.1233993901e+01    0.2006837    0.1537621  72.37 0.0007020452    1.639    0.390
        15  -9.2748    156.5232    190.4840   9.9176041855e+01   1.2505418959e+01    0.1367582    0.1229971  38.16 1.340318e-06    1.036    0.035
        16 -11.5317    150.9713    188.2759   9.9953132051e+01   1.3939453592e+01    0.4273835    0.3139904 -88.00  0.002166566    1.929    0.482
        17 -10.3561    153.4710    184.4243   9.8763306260e+01   1.4193657016e+01    0.2751621    0.2007009 -65.35  0.001428461    1.682    0.405
        18 -19.1964     27.0290    102.5615   1.1617606369e+02   5.1501167645e+01      17.2494      1.32769 -66.81   0.03360473   11.429    0.913
        19  -9.0190     59.8583    187.0000   1.1900378252e+02   2.8775836690e+01    0.1764258   0.06425665  37.17 0.0007755545    2.759    0.638
        20 -10.6262    237.9720    184.9872   8.2382298543e+01  -1.6084750438e+00    0.1812014    0.1681242 -69.18 0.0007799415    1.669    0.401
        21  -9.2422     90.9187    183.7881   1.1208510183e+02   2.5114325431e+01    0.2551527    0.1525029  83.62  0.001224469    2.100    0.524
        22 -12.1539    145.7403    182.0317   9.9984605194e+01   1.6094837540e+01    0.4899766    0.3901945 -83.70  0.001530894    1.537    0.350
        23 -12.2313    141.3343    172.9293   9.9323837438e+01   1.8716069130e+01    0.7046651    0.5959252  87.11  0.003908752    1.331    0.249
        24 -10.0592    188.9595    178.3723   9.0311875316e+01   8.4723312038e+00    0.3837192    0.3044026  73.75  0.001213099    1.775    0.437
        25  -9.9276    187.9691    173.4723   8.9538657579e+01   9.5145843008e+00    0.3569199    0.2282971 -60.76  0.001575179    2.375    0.579
        26  -9.1609     53.3190    181.4871   1.1978981995e+02   3.0756741973e+01    0.1364013     0.118274  29.39 0.0009119037    1.542    0.352
        27 -11.4936     69.9245    209.1282   1.1920792767e+02   2.2984544509e+01    0.1948638    0.1424586  73.77 0.0003012725    1.150    0.130
        28  -8.5088    195.0000    172.9754   8.8025664788e+01   8.2185876430e+00    0.2267122   0.07990747 -39.74 0.0008080144    2.981    0.665
        29  -9.5404    240.3183    169.3101   7.8775412081e+01   2.2152526358e-01    0.1404151   0.09357879   7.49 0.0003588233    1.641    0.390
        30  -9.7271    187.0280    165.8156   8.8164151904e+01   1.1060005868e+01    0.3454068     0.199618 -50.60  0.001193251    2.072    0.517
        31 -10.0331      2.9855    162.2283   1.2855055759e+02   3.9892219239e+01    0.1663674    0.1458719  57.68 0.0006556929    1.369    0.270
        32 -11.1354     94.4665    157.4895   1.0738730880e+02   3.0303463116e+01    0.2654134    0.2396411 -77.13  0.001588567    1.070    0.065
        33 -12.0625     99.7946    150.8003   1.0495555672e+02   3.0950868730e+01    0.6348438    0.4630436 -34.37  0.003192984    1.768    0.434
        34  -9.3686     88.6301    157.2933   1.0874446034e+02   3.1263777224e+01    0.1457095   0.09609633  71.18 0.0007026647    1.723    0.420
        35 -13.0740     75.2572    248.9899   1.2165036569e+02   1.5170447872e+01    0.2969186    0.1673734 -63.22  0.001949897    2.084    0.520
        36 -10.1006     74.2876    207.7095   1.1823372318e+02   2.2668675612e+01    0.3408775    0.2205716 -45.63   0.00193553    2.288    0.563
        37 -10.9974    133.8917    145.7015   9.5700882818e+01   2.5874483150e+01     1.233463    0.3048773 -54.46  0.002948604    5.982    0.833
        38 -10.0398    113.0794    151.5748   1.0187691279e+02   2.8487303669e+01    0.2587456    0.1917071 -77.42 0.0005325725    1.497    0.332
        39 -10.1165    174.3459    148.8308   8.7167984364e+01   1.6870013073e+01    0.3053669    0.2676385  85.07 0.0008204487    1.391    0.281
        40 -10.3486    144.0609    146.4272   9.3454725866e+01   2.3682342006e+01    0.4210517    0.2132047 -62.35  0.001479007    2.937    0.659
        41  -8.6891    119.7137    148.6420   9.9709054415e+01   2.7936797907e+01    0.1445534    0.1154054 -19.32 0.0007022413    1.678    0.404
        42  -9.3795    115.8359    144.7043   9.9870202475e+01   2.9531202279e+01      0.26382     0.182104 -87.19 0.0006483023    1.945    0.486
        43 -11.3003    109.4614    138.1568   1.0013151858e+02   3.2171223763e+01    0.6443039     0.324384 -38.99  0.002480531    2.534    0.605
        44  -8.9935    128.0952    139.4748   9.5771022488e+01   2.8380639513e+01     0.225637    0.1454486  43.95  0.001018768    1.552    0.356
        45 -11.7916     98.5314    136.8831   1.0265804873e+02   3.4361182067e+01    0.2892874    0.2855144 -29.58  0.000621363    1.153    0.133
        46 -10.9052    105.8824    130.7481   9.9498861705e+01   3.4512272787e+01    0.3867935    0.3243592 -69.44  0.001125796    1.174    0.148
        47  -9.8184    136.0000    129.4735   9.1569166675e+01   2.9002216990e+01    0.4386946    0.1363282 -46.95  0.001348893    3.192    0.687
        48  -9.5066    136.0182    125.5079   9.0619862024e+01   2.9868693485e+01    0.3232978    0.2228836  67.74   0.00138682    1.883    0.469
        49 -10.2775    116.4017    128.5885   9.6303478013e+01   3.3079642298e+01    0.2922146     0.256327 -17.93 0.0006420796    1.344    0.256
        50  -9.7607    160.4331    127.2744   8.5211618603e+01   2.4231747541e+01    0.3781751    0.2525495 -59.47  0.001377645    1.813    0.448
        51 -10.5246    104.3847    124.3668   9.8500883036e+01   3.6253568190e+01    0.2940926    0.2323939 -34.13 0.0006604083    1.418    0.295
        52 -10.1914    121.1733    122.6270   9.3691826016e+01   3.3512428027e+01    0.4649684     0.254676 -24.18  0.001446185    3.941    0.746
        53  -8.7986    152.9837    119.7477   8.5066040984e+01   2.7454100601e+01    0.2026893    0.1338774  45.82  0.000728512    1.525    0.344
        54  -9.3723    111.0826    118.0756   9.5262335881e+01   3.6480711411e+01    0.2171001    0.2084889 -59.36 0.0003127315    1.017    0.017
        55  -9.8180    231.2325    113.7240   6.7654493082e+01   1.0825814467e+01    0.2631653    0.2343454  -3.07  0.000784325    1.107    0.097
        56  -9.8984    167.9060    112.7903   7.9805626908e+01   2.5492196605e+01    0.3900453    0.3039617 -87.23  0.001436524    1.759    0.432
        57 -10.6146    134.6671    105.2288   8.5761203991e+01   3.4573488737e+01    0.7933999    0.1543772 -43.77  0.001895027    5.017    0.801
        58 -10.9951    118.7923    110.3594   9.1284806683e+01   3.6742243292e+01    0.5945674    0.3709554  66.76  0.002345301    2.382    0.580
        59  -9.9818    205.4354    110.1630   7.1353568105e+01   1.7222848830e+01    0.3293562    0.2866282  22.96 0.0009687138    1.202    0.168
        60 -10.1902     74.0087    103.4843   1.0230331395e+02   4.6027612526e+01    0.2280627    0.1694915 -56.53 0.0005566472    1.197    0.165
        61  -9.5390    128.2361     95.6839   8.4775474660e+01   3.8000126737e+01    0.3214712    0.1409989  52.96  0.001094226    2.696    0.629
        62  -8.7421      1.6879     91.9248   1.2212106496e+02   5.5634317806e+01    0.1544514    0.1118008 -69.99 0.0003529388    1.026    0.025
        63  -9.4843    190.6793     90.1297   6.8800816594e+01   2.4348179254e+01    0.2606081    0.1923647 -51.71  0.001186581    1.444    0.307
        64  -9.2519     74.1659     73.8775   9.4421920082e+01   5.2678653903e+01    0.1994124     0.179352 -56.84 0.0003833475    1.164    0.141
        65  -9.5261    184.8079    213.0941   9.7346495790e+01   3.6371122985e+00    0.1940402    0.1678194  53.56   0.00123414    1.283    0.221
        66 -17.6605     43.4973    242.4126   1.2639326371e+02   2.0228599106e+01     6.532835     4.722425  35.69   0.04793434    1.782    0.439
        67 -12.5407     60.1080    216.9733   1.2173669782e+02   2.2766096228e+01    0.4183388    0.2176784  83.57  0.002226937    2.041    0.510
        68 -12.1504    198.6929     23.4738   4.8220159575e+01   3.2333593624e+01    0.4903675    0.3593942  43.77  0.001979333    1.489    0.329
        69 -12.8283     10.0501    206.3243   1.2989110205e+02   3.0326619929e+01    0.4275677    0.2011252  40.00  0.002722517    2.080    0.519
        70 -10.9271     62.4469    205.7105   1.2031489250e+02   2.4635650090e+01    0.2026512    0.1705391  78.42 0.0005649344    1.118    0.106
