#   1 NUMBER                 Running object number                                     
#   2 MAG_AUTO               Kron-like elliptical aperture magnitude                    [mag]
#   3 X_IMAGE                Object position along x                                    [pixel]
#   4 Y_IMAGE                Object position along y                                    [pixel]
#   5 X_WORLD                Barycenter position along world x axis                     [deg]
#   6 Y_WORLD                Barycenter position along world y axis                     [deg]
#   7 A_WORLD                Profile RMS along major axis (world units)                 [deg]
#   8 B_WORLD                Profile RMS along minor axis (world units)                 [deg]
#   9 THETA_WORLD            Position angle (CCW/world-x)                               [deg]
#  10 FWHM_WORLD             FWHM assuming a gaussian core                              [deg]
#  11 ELONGATION             A_IMAGE/B_IMAGE                                           
#  12 ELLIPTICITY            1 - B_IMAGE/A_IMAGE                                       
         1  -8.9324     79.6733     12.6226   7.9325765046e+01   6.2464924480e+01    0.3517972    0.2251344 -41.66  0.001792821    1.651    0.394
         2  -8.2797     97.4726     11.9904   7.3504362024e+01   5.9033549240e+01    0.2083617    0.1729502  36.96 0.0004232595    1.196    0.164
         3  -9.0282     31.6235     11.1011   9.8118860239e+01   6.9709775649e+01     0.191009    0.1519859  -7.86 0.0003365635    1.276    0.216
         4 -11.5011    245.4720      5.2471   4.7746428453e+01   2.2274425833e+01    0.8423268    0.6268921  60.66  0.004032545    1.411    0.291
         5 -10.0804     20.3166      8.7460   1.0261878018e+02   7.1209529406e+01     0.212277    0.1749623 -20.79  0.000287824    1.173    0.147
         6  -7.3445      2.6772      8.3455   1.1167059363e+02   7.2534694933e+01    0.1003973   0.07965533 -89.72 0.0007050022    1.736    0.424
         7  -7.6278    111.0203      4.6912   6.6595796280e+01   5.6906676323e+01    0.1918029    0.1644096  36.24 0.0003849148    1.107    0.097
         8  -9.3430     49.1035      4.6351   8.6972095234e+01   6.8612910233e+01    0.2331077    0.1757494 -14.58 0.0003422013    1.163    0.140
         9  -7.6438     61.6648      4.3238   8.1675034790e+01   6.6750097966e+01     0.118632   0.09790257 -56.20 0.0007050943    1.713    0.416
        10  -8.3284     56.2118      4.6127   8.3986738306e+01   6.7570032775e+01    0.1653658     0.108455  25.25 0.0004134004    1.638    0.389
        11  -7.7746    125.5327      3.5604   6.2839010294e+01   5.3572459994e+01    0.1417485    0.1303304  24.41 0.0001269417    1.007    0.007
        12  -8.4499      9.6406      3.1778   1.0580230981e+02   7.3051854705e+01    0.1770002    0.0801034  24.86  0.001007513    2.677    0.626
        13  -8.3835     62.9013    241.6408   1.2736927114e+02   2.1499659433e+01    0.1911063   0.08948752  59.53  0.001330037    1.620    0.383
        14  -8.2687    249.0550    250.2874   9.9815331520e+01  -5.3349866827e+00     0.152209   0.09124752  33.18  0.001151083    1.152    0.132
        15  -7.9983    227.3035    250.3422   1.0297227522e+02  -2.3170601714e+00    0.1052487   0.05893225  22.00 0.0007039966    1.681    0.405
        16  -9.2693    212.5073    249.9855   1.0511703020e+02  -1.7270182846e-01     0.182413    0.1601671  74.86   0.00151018    1.880    0.468
        17 -10.0531    200.6265    249.1896   1.0680391615e+02   1.6228055449e+00    0.3173986    0.1615338  32.37  0.002064604    1.635    0.388
        18  -9.3996    186.2159    250.0858   1.0909117395e+02   3.6403945904e+00    0.3046305    0.1030193  42.55  0.001505367    2.089    0.521
        19  -9.0480     27.3977    250.2830   1.3294918084e+02   2.4113590694e+01    0.2059426   0.08620474  45.50  0.001100969    1.746    0.427
        20 -10.2004     21.6853    247.9055   1.3365999604e+02   2.5009385037e+01     0.248579    0.1481593  75.31  0.001635588    1.267    0.211
        21  -9.8785     13.1564    248.9636   1.3487649313e+02   2.5674697554e+01    0.1672029    0.1294678 -81.17  0.001652603    1.667    0.400
        22 -10.0484      9.9959    248.0004   1.3527997024e+02   2.6103397555e+01    0.1677038    0.1018062  47.70  0.001504099    1.436    0.304
        23  -9.5189     37.9892    241.1557   1.3105316968e+02   2.4324301905e+01    0.2347515    0.1173988  62.53  0.001000725    1.424    0.298
        24  -9.6061     25.9906    241.0174   1.3279056651e+02   2.5568938731e+01    0.3425687   0.08806432  61.19  0.001863798    3.154    0.683
        25  -8.5460    248.8762    239.8045   9.8424610224e+01  -4.5103956220e+00    0.2340814    0.1140963  -1.94  0.001330845    2.956    0.662
        26  -8.4831    201.1438    241.1206   1.0574931885e+02   2.3199725403e+00    0.1692469    0.1120745  29.12 0.0009442456    1.266    0.210
        27  -8.3468    214.7605    239.9724   1.0352263042e+02   4.0471588264e-01    0.1103776   0.08598726 -15.71 0.0005019554    1.579    0.367
        28  -7.7086    170.3232    240.3053   1.1045121130e+02   7.0241671092e+00    0.1041141   0.06853941  26.06 0.0004409318    1.641    0.391
        29  -7.8193     53.9584    239.2870   1.2858610101e+02   2.2859398577e+01      0.13559   0.08838766  57.75 0.0004238811    1.079    0.073
        30  -9.6211     18.6100    238.7275   1.3376438765e+02   2.6621793247e+01    0.2362998   0.06856948  50.33  0.001536762    2.134    0.531
        31 -10.2179    189.0952    235.2529   1.0689978659e+02   4.7353425857e+00    0.2590033    0.2221985 -69.74  0.002048289    1.800    0.444
        32  -8.2039    233.0638    235.5439   1.0016974739e+02  -1.8940615030e+00     0.148857    0.1175532  12.77 3.264534e-05    1.221    0.181
        33  -8.4881    196.0062    236.0011   1.0590853512e+02   3.6058423391e+00    0.1727812    0.1047501  24.70 0.0007493694    1.676    0.404
        34  -7.3472     45.3292    236.3002   1.2972896394e+02   2.4247861127e+01   0.07623561   0.07057496  55.70 0.0007031024    1.643    0.391
        35  -8.3261      6.9041    235.1396   1.3531536925e+02   2.8237958814e+01    0.1441373   0.07466544  64.41 0.0006052608    1.273    0.214
        36  -8.2886    248.2293    233.2146   9.7593608780e+01  -3.8922851780e+00    0.1324328    0.1052835  33.22 0.0006166427    1.321    0.243
        37  -9.4151     50.0323    228.2192   1.2857565186e+02   2.4936226597e+01    0.4348674   0.08909948  55.76  0.001865625    4.322    0.769
        38  -8.4995    195.1951    229.2378   1.0517475633e+02   4.4371171077e+00    0.1762715   0.09567024  19.22 0.0009242175    2.680    0.627
        39  -7.8898    238.3994    226.7302   9.8125636740e+01  -1.9099166590e+00     0.143366    0.1217107  55.74 0.0006290848    1.765    0.434
        40  -7.7181    230.4113    226.7641   9.9342682853e+01  -7.1789265122e-01    0.1308317   0.09075113   0.36 0.0007295976    1.538    0.350
        41  -7.1998     96.2764    227.6792   1.2114060347e+02   1.9336410360e+01    0.1053079   0.06151316  65.91 0.0003151536    1.577    0.366
        42  -8.6037    248.5445    225.1845   9.6380985925e+01  -3.2713222600e+00    0.2501535    0.1273702  29.96  0.001587545    1.526    0.345
        43  -8.9453    183.9938    236.1752   1.0781622074e+02   5.4134417997e+00    0.1646581    0.1490602  22.90  0.001201399    1.269    0.212
        44  -7.7962     11.5343    226.0224   1.3433743366e+02   2.9185179464e+01    0.1266118   0.06831292  87.84 0.0005272906    1.540    0.351
        45  -7.5667    223.5341    225.4961   1.0021928695e+02   4.4409245653e-01    0.1121913   0.08048115  28.92 0.0001458941    1.044    0.042
        46  -8.7236     51.6019    221.7558   1.2795273997e+02   2.5752938458e+01    0.1298419   0.07430907  83.30 0.0005501778    1.593    0.372
        47  -7.8914    216.7183    220.0151   1.0050257809e+02   2.0370854018e+00    0.1538081    0.1165321  25.13 0.0004112657    1.094    0.086
        48  -8.2020    182.3400    220.0208   1.0605012737e+02   7.4905628312e+00    0.2047771    0.1269126  27.66  0.001019175    1.635    0.389
        49  -7.4814     63.9813    220.5069   1.2587334488e+02   2.4512186514e+01    0.1107078   0.08610716  20.82 0.0004160563    2.210    0.547
        50  -9.4896     14.8649    217.8688   1.3352750426e+02   3.0143358843e+01      0.29996    0.1127385  67.88   0.00192309    2.139    0.532
        51  -8.4146      1.9041    219.3190   1.3554163563e+02   3.1081130506e+01    0.1438004   0.08391996  71.83 0.0004622836    1.166    0.142
        52  -8.2435    241.1295    218.8004   9.6541307801e+01  -1.6101461552e+00    0.2737337     0.121529  49.00 0.0008611438    2.375    0.579
        53  -7.4021    155.3111    219.2869   1.1045604536e+02   1.1863974097e+01    0.1064911   0.07662273  25.79 0.0006992337    1.578    0.366
        54  -8.2683    228.0183    217.9174   9.8425406277e+01   4.8198781632e-01    0.1716476    0.1284162  28.51 0.0004737083    1.018    0.018
        55  -8.2069    203.4596    216.8434   1.0216857944e+02   4.4715685084e+00    0.2377623    0.1140019  32.21 0.0009521001    1.918    0.479
        56  -7.4233     77.0461    216.9747   1.2345961445e+02   2.3456425139e+01    0.1273256   0.09186966  60.30 0.0005359859    1.029    0.029
        57  -7.4439    193.5359    215.5298   1.0360188468e+02   6.2149065812e+00    0.1158872   0.08787632  34.45  0.000319427    1.044    0.042
        58  -8.2499    233.0291    211.4665   9.6669163514e+01   3.2725495099e-01    0.1991027    0.1325006  10.50 0.0009026772    1.491    0.329
        59  -7.6245     45.9922    212.0126   1.2827773986e+02   2.7924997395e+01    0.1201865   0.08499627  65.97 0.0003626147    1.012    0.011
        60  -7.9232    248.7469    211.3741   9.4241411992e+01  -2.0924606066e+00    0.1644859   0.07654524  34.21  0.000889014    1.684    0.406
        61  -7.3201    186.3419    210.3065   1.0406555641e+02   8.0024952505e+00    0.1178826   0.07678621  22.75 0.0004451461    1.687    0.407
        62  -7.7015    112.4978    210.5323   1.1681664944e+02   1.9620403342e+01    0.1132943    0.0857381  58.23 7.524434e-05    1.046    0.044
        63  -8.5322     99.2708    209.8108   1.1904786738e+02   2.1619136260e+01    0.2208042    0.1202982  60.90 0.0006954249    1.673    0.402
        64  -8.9847     26.8973    208.9564   1.3123119415e+02   3.0420127900e+01     0.190865    0.1747642  79.23  0.001131955    1.522    0.343
        65 -10.1089    123.9989    205.9972   1.1430816714e+02   1.8595841923e+01    0.1624652    0.1277875  54.46            0    1.003    0.003
        66  -7.5015    215.5382    205.4896   9.8529232442e+01   3.7522632185e+00    0.1190393   0.08936914  27.73 0.0001600399    1.071    0.066
        67  -7.6501    250.4491    198.7737   9.1937767866e+01  -1.1852050676e+00    0.1545686   0.09393273  -3.53  0.000947757    1.730    0.422
        68  -8.0496     69.9582    199.7564   1.2330442714e+02   2.7142847494e+01    0.1348888   0.07571217  44.63 0.0007429161    1.546    0.353
        69  -7.9453     53.0017    198.3323   1.2618499108e+02   2.9414980932e+01    0.1491136    0.1023689  58.95 0.0004630031    1.139    0.122
        70  -8.6198    192.6198    196.0685   1.0089906129e+02   8.7086825285e+00    0.2389307    0.1159517 -39.79  0.001258922    2.509    0.601
        71  -7.9393    165.8195    197.4067   1.0577763290e+02   1.3103874474e+01    0.1757458   0.09434006  36.68 0.0009440463    1.698    0.411
        72  -7.6783     56.8140    193.3791   1.2514050926e+02   2.9826956334e+01    0.1286385    0.0903322  41.45 0.0002670776    1.501    0.334
        73  -8.1691     50.0184    188.0000   1.2595919885e+02   3.1553945286e+01    0.1647633   0.05196199  37.96 0.0004737603    2.957    0.662
        74  -8.5418    246.9165    164.3407   8.6290050930e+01   2.9669449698e+00    0.1947654    0.1606645 -23.92 0.0007980053    1.364    0.267
        75  -7.2268    115.4606    163.5221   1.1047716230e+02   2.7051418472e+01    0.1257317    0.1078144  65.76 0.0002263941    1.027    0.026
        76  -8.3134    101.2569    156.7363   1.1245763500e+02   3.0574959465e+01    0.2196372    0.1658646  71.28 0.0006485681    1.271    0.213
        77  -8.9037    247.9217    154.7909   8.4249586188e+01   3.8710923897e+00    0.2006239    0.1438155  18.78 0.0004801428    1.245    0.197
        78 -10.3823    216.1255    153.0098   8.9142964481e+01   1.0044636946e+01     0.250627    0.2186225  32.13 0.0003412781    1.090    0.083
        79  -8.1824    113.3161    152.8236   1.0930604372e+02   2.9397163328e+01    0.2224734    0.1538706  56.50 0.0007835415    1.351    0.260
        80  -8.2710      9.4290    151.5335   1.3120220738e+02   4.2333387656e+01    0.2106767   0.09313748  71.64 0.0006222977    2.029    0.507
        81  -7.9431     54.7861    149.8165   1.2156635189e+02   3.8248280045e+01    0.1655035    0.1110052  76.03 0.0004856531    1.352    0.260
        82  -8.3828     85.1321    147.0559   1.1457700853e+02   3.4874163874e+01    0.2115582    0.1521094 -84.22 0.0007522031    1.371    0.270
        83  -7.6980    133.6544    147.6907   1.0411431940e+02   2.6842107908e+01    0.1293362    0.1047519   8.78 0.0004946287    1.702    0.413
        84  -9.2959     67.2569    144.7429   1.1823826653e+02   3.7758693503e+01    0.4264475    0.2504013  76.32  0.002326339    1.880    0.468
        85  -8.3286     34.2143    145.5215   1.2558168265e+02   4.1319969108e+01    0.2118043    0.1313751  73.72 0.0006274794    1.422    0.297
        86  -7.4255    131.3050    136.7101   1.0260169487e+02   2.9332036823e+01     0.134635    0.1015304  78.50 0.0003776805    1.571    0.364
        87  -8.2247     75.7223    134.1739   1.1486864960e+02   3.8822136046e+01    0.2061065    0.1486541  57.69 0.0004578543    1.327    0.246
        88  -8.0037     31.4576    130.7427   1.2478334559e+02   4.4618312873e+01    0.2073809   0.09370999 -78.50 0.0007254304    1.933    0.483
        89  -8.1572      5.5999    124.0674   1.3015143806e+02   4.8121573769e+01    0.1972192    0.1131289  55.12 0.0007566476    1.653    0.395
        90  -7.2667    125.4917    118.4876   1.0023647048e+02   3.3973961588e+01    0.1377097    0.1308045  78.76 1.676602e-05    1.010    0.009
        91  -7.4144     65.3019    115.6884   1.1456550790e+02   4.4119280700e+01    0.1281312   0.08660906  77.39 0.0006557818    1.609    0.378
        92  -8.4220     37.5219    115.0309   1.2153977982e+02   4.7370312961e+01    0.2099176    0.1387077  58.51 0.0006686174    1.520    0.342
        93  -8.4825     51.5410    113.3233   1.1772656311e+02   4.6273705720e+01     0.289688     0.170608  65.01   0.00133186    1.892    0.471
        94  -7.7149    200.7360    113.2344   8.3120875672e+01   1.9019761779e+01     0.239181    0.1008029  41.73 0.0008077182    2.406    0.584
        95  -9.1225      9.1005    110.0729   1.2814791842e+02   5.0793884677e+01    0.2485862    0.1343635  79.74 0.0009842969    1.703    0.413
        96  -7.8845    133.6726    106.6707   9.5629176764e+01   3.4722724712e+01    0.1443903    0.1148636   1.86 0.0007021008    1.707    0.414
        97  -9.0644     14.1122    105.8772   1.2646601836e+02   5.1328221454e+01    0.2130432    0.1248369 -39.93   0.00126465    2.343    0.573
        98  -7.4209     86.3188    105.7154   1.0729336021e+02   4.3346045481e+01    0.1332323   0.09729143  78.83 0.0004415722    1.589    0.371
        99  -7.5523     72.5140    105.5632   1.1091905619e+02   4.5368005592e+01    0.1290279    0.1126035 -84.57 0.0001469457    1.047    0.045
       100  -7.9343    140.3290     99.3273   9.2248343083e+01   3.4782481324e+01    0.1487141    0.1163052   5.71 0.0003186119    1.706    0.414
       101  -8.6971     13.2225     97.1682   1.2575655631e+02   5.3260320823e+01    0.1548841    0.1083809  72.87 0.0006664937    1.371    0.270
       102  -7.8462     57.1575     95.3608   1.1322486553e+02   4.9556479717e+01    0.1722867    0.1067363  49.93 0.0005685225    1.767    0.434
       103  -9.2548      1.7597     93.0869   1.2843711952e+02   5.4870054056e+01    0.2819618    0.1138859 -86.47  0.001127659    2.203    0.546
       104  -8.1451     30.1466     91.9633   1.2035319188e+02   5.3069911487e+01    0.2001494    0.1129502  83.29  0.001069273    2.016    0.504
       105  -9.1241     35.6978     81.7188   1.1703204199e+02   5.4824813321e+01    0.3313593    0.1957535 -31.79  0.001753684    2.402    0.584
       106  -9.2996    231.6062     79.6764   6.9384915144e+01   1.6874792139e+01    0.2707202    0.2417611  30.62 0.0004537997    1.119    0.106
       107  -8.2412    184.3250     78.0008   7.6947166217e+01   2.8452570024e+01     0.216229    0.1897961 -26.98 0.0005229232    1.130    0.115
       108  -8.9988      8.4582     77.1746   1.2466543995e+02   5.7894345130e+01    0.2682039    0.1182243 -49.13  0.001349858    2.209    0.547
       109  -8.0092     48.1011     76.7840   1.1222136069e+02   5.4667879956e+01    0.2625799    0.1152806 -52.30  0.001254289    1.942    0.485
       110  -7.9205    169.7895     74.9789   7.8960747909e+01   3.2483640332e+01    0.2283682    0.1606289  31.02 0.0005170646    1.597    0.374
       111  -9.4545     24.6326     72.7132   1.1889355934e+02   5.7744958427e+01    0.4102355    0.1539352 -48.02  0.001924192    2.566    0.610
       112  -6.9899     61.2997     71.6586   1.0686548315e+02   5.4234289729e+01    0.1293916   0.09575015  88.74 0.0002307739    1.670    0.401
       113  -7.3110    151.6831     70.7262   8.1591043727e+01   3.7543811535e+01    0.1522855    0.1164574  18.67 0.0003505284    1.565    0.361
       114  -7.4133     80.4658     68.4095   9.9988394550e+01   5.2223043318e+01     0.133463    0.1219373 -49.02 8.259183e-05    1.017    0.017
       115  -7.9830     61.6389     66.7671   1.0550560688e+02   5.5241962743e+01    0.1824731     0.110426 -63.07 0.0004600718    1.597    0.374
       116  -8.1544     43.8061     67.4113   1.1153444345e+02   5.7167969211e+01    0.1543422    0.1202526   1.83 0.0009509966    1.713    0.416
       117  -9.2981     18.0323     61.9128   1.1911754356e+02   6.0583635831e+01     0.324544    0.1639226 -55.03  0.001166168    1.576    0.365
       118  -7.8841     84.2842     63.5738   9.7394697024e+01   5.2615856192e+01    0.1784547    0.1333506  25.64 0.0009487105    1.594    0.373
       119  -8.1847     24.3204     62.5829   1.1708435289e+02   5.9976168555e+01    0.2020272   0.08025861  43.66 0.0009543747    3.139    0.681
       120  -8.6792     65.7106     61.0819   1.0260797373e+02   5.5907134590e+01    0.2182219    0.1916545  10.56 0.0006434855    1.337    0.252
       121  -8.8890      3.3837     60.7581   1.2394128776e+02   6.1722176316e+01    0.2970002    0.1223415  51.66  0.001472313    3.321    0.699
       122 -10.1588     38.6742     57.4442   1.1090888881e+02   5.9833217978e+01      0.38126    0.2531915 -23.25 0.0004839363    1.961    0.490
       123  -8.9446      2.1662     54.7278   1.2340301205e+02   6.3075361202e+01    0.2239227   0.09074185 -51.87  0.001228228    1.992    0.498
       124  -7.7020    118.4766     51.4434   8.3459450692e+01   4.8464042295e+01     0.146126      0.13721  -8.11 0.0001060412    1.042    0.040
       125  -8.3441     75.0540     49.9932   9.6046193461e+01   5.6809787198e+01    0.2049461    0.1769618 -29.75 0.0004149656    1.101    0.092
       126  -9.7082     45.4384     48.9142   1.0615055959e+02   6.0936978633e+01    0.2055842    0.1936741 -17.34 0.0001938087    1.193    0.161
       127  -9.4236      8.2334     48.8408   1.2011636023e+02   6.4007893447e+01    0.2534943    0.1212965 -45.05 0.0008788283    1.910    0.476
       128  -9.8389     11.8218     46.8179   1.1833675113e+02   6.4225993557e+01    0.4239903    0.2194357  60.36  0.002160936    3.076    0.675
       129  -9.1889     23.7678     47.1252   1.1382832226e+02   6.3332870929e+01    0.3307598    0.2008858  -0.23  0.001894723    2.405    0.584
       130  -8.7243     31.0873     44.3487   1.1027464054e+02   6.3307901179e+01     0.303154    0.1815729 -13.80  0.001609662    2.494    0.599
       131  -8.7457      2.1042     46.2576   1.2193668481e+02   6.4879141123e+01    0.2235584    0.1443873  63.41  0.001445434    1.964    0.491
       132  -8.4796    206.1887     41.1478   6.2311370237e+01   2.8231448501e+01    0.2223365    0.1932046  19.98 0.0004673108    1.209    0.173
       133  -7.9208     95.6618     41.6976   8.6464499112e+01   5.4812130439e+01    0.1432974    0.1063625   2.73 0.0003991144    1.668    0.401
       134  -9.0236     83.3490     39.9354   8.9707659142e+01   5.7361896024e+01    0.2580022    0.1924775  25.16 0.0001180337    1.514    0.339
       135  -8.2874     92.1345     37.0694   8.5790877769e+01   5.6288018175e+01    0.2160966    0.1766842  -7.45 0.0005163324    1.274    0.215
       136  -8.9189     54.5513     36.6827   9.8729768146e+01   6.2316843422e+01    0.2488052    0.1871569 -17.47 0.0008171741    1.458    0.314
       137  -8.2230     38.5292     35.2118   1.0452004796e+02   6.4461579856e+01    0.1965344    0.1670562  11.72 0.0008177353    1.380    0.275
       138  -9.1826      8.6459     33.7420   1.1656845681e+02   6.7152151713e+01    0.3010033    0.1485332  10.93    0.0017139    2.775    0.640
       139  -8.6702    214.8720     33.5029   5.8842912407e+01   2.6930059716e+01    0.2696926    0.2364082 -13.52 0.0006313749    1.144    0.126
       140  -8.9936     96.1542     33.3328   8.3076563684e+01   5.6150402868e+01    0.2480619    0.2147299  -6.07 0.0002617993    1.127    0.113
       141  -7.8495     82.3437     32.2634   8.7050531110e+01   5.8895170509e+01    0.1350632    0.1000977   3.53 0.0002275624    1.600    0.375
       142  -8.6210    225.9911     30.6010   5.6630092707e+01   2.4440601654e+01    0.2980546    0.2092318 -26.52  0.001487845    1.359    0.264
       143  -8.4623    127.9278     30.0430   7.3132455965e+01   4.9759706729e+01    0.2160765    0.2030108   2.21            0    1.006    0.006
       144  -8.1772      1.3722     29.6905   1.1870083766e+02   6.8370406004e+01    0.2065792   0.08445461 -68.01  0.001097226    1.953    0.488
       145  -9.1929    187.8040     26.6685   6.0487911323e+01   3.4834260757e+01    0.6546097    0.3205445 -77.12   0.00187148    4.699    0.787
       146  -9.3731     71.6491     25.8854   8.8108763818e+01   6.1793809798e+01    0.3496573    0.1771573  36.27  0.001641756    2.221    0.550
       147  -8.2137     57.3977     25.4807   9.3283164800e+01   6.4019873244e+01    0.2270478    0.1261203  37.50  0.001076196    2.053    0.513
       148  -8.1948     48.7146     25.5593   9.6790443992e+01   6.5154216670e+01    0.2132329    0.1213402  24.71  0.001118465    2.166    0.538
       149  -8.7931     84.6042     21.4558   8.1737012186e+01   6.0249159967e+01    0.2576281    0.2260225 -50.13 0.0008753722    1.340    0.254
       150  -7.4911    130.6375     21.6842   6.9214081071e+01   5.0247414216e+01    0.1606364     0.103964  26.00 0.0007041489    1.763    0.433
       151  -7.9631     92.1603     21.0566   7.9159844080e+01   5.8861363217e+01     0.229941    0.1486902  -1.03  0.001071863    1.948    0.487
       152  -9.5128      9.6175     19.7402   1.1210777995e+02   6.9921791215e+01    0.3279282    0.1755867 -10.00 0.0006471551    2.598    0.615
       153  -8.9735    197.2496     19.2410   5.6784152232e+01   3.3163814936e+01    0.2711411    0.1677583 -57.64  0.001178807    1.878    0.468
       154  -9.3984     24.2372     16.5194   1.0394968067e+02   6.9441111927e+01    0.2211421     0.212372  10.12 0.0006334754    1.330    0.248
       155  -7.5358    127.9057     16.8054   6.7862979179e+01   5.1522073864e+01    0.1888613    0.1091008  55.80 0.0004608178    1.698    0.411
       156  -8.5006    189.5064     15.1499   5.6495941156e+01   3.5665520921e+01    0.2507161    0.1943558  41.32 0.0008537621    1.316    0.240
       157  -8.0800     50.8190     14.8540   9.1276324551e+01   6.6756836332e+01    0.1929532    0.1464978 -13.64 0.0006128489    1.266    0.210
       158  -7.6560    146.8117     14.3497   6.2996236657e+01   4.7073205406e+01    0.2085063    0.1237375  51.55 0.0004584803    1.588    0.370
       159  -7.8332    153.7060    249.3340   1.1399598758e+02   8.4528655040e+00    0.1001114   0.06494767  62.00 0.0002779649    1.640    0.390
       160  -8.5446     74.9579     13.5291   8.1371441589e+01   6.3185991149e+01    0.3140955    0.1617094  30.65  0.001420313    2.339    0.572
       161  -8.9721     64.4364     14.0053   8.5436365291e+01   6.4882397365e+01    0.3206726    0.1751853  34.17 0.0009408808    2.026    0.506
       162  -8.4219    134.5384     13.4409   6.5063910787e+01   5.0288545482e+01    0.2656786    0.1112858  49.41 0.0009621756    2.214    0.548
       163  -8.4558     50.4759    250.0000   1.2965353009e+02   2.1733571878e+01    0.2027996   0.03897906  40.17  0.000946673    4.032    0.752
       164 -10.3934     34.5640    247.9674   1.3184546241e+02   2.3710877467e+01    0.3126917    0.1390435  49.76  0.001613792    1.536    0.349
       165  -8.6779    218.9477    246.8848   1.0377273521e+02  -8.2885939467e-01    0.2029104    0.1278546 -30.04  0.001510365    2.092    0.522
       166 -11.2542    242.2234    242.3338   9.9739873943e+01  -3.7751234027e+00    0.2616527    0.1984275 -16.08 0.0002793038    1.594    0.373
       167  -8.8889    234.4942    245.0591   1.0123583988e+02  -2.9017327786e+00    0.1812694    0.1633942  44.83   0.00156239    1.612    0.380
       168 -10.2339    192.2284    244.9291   1.0757868400e+02   3.2695750913e+00      0.29174    0.1700082  27.79  0.001963224    1.649    0.393
       169  -9.4694    176.3498    244.8775   1.1002206955e+02   5.6286133665e+00    0.2284109    0.1457179   6.06  0.001398304    2.791    0.642
       170  -8.9359    224.9854    242.7168   1.0233790622e+02  -1.3395222406e+00    0.1638934    0.1416245  11.52 0.0007908141    1.323    0.244
       171 -10.1063      4.0840    241.4138   1.3589981074e+02   2.7577075481e+01     0.222711    0.1232358  57.65  0.001179256    1.193    0.162
       172  -9.2107    181.9845    242.4827   1.0887524930e+02   5.0440803428e+00    0.1737606   0.07763302  43.63  0.001041188    1.619    0.382
