#   1 NUMBER                 Running object number                                     
#   2 MAG_AUTO               Kron-like elliptical aperture magnitude                    [mag]
#   3 X_IMAGE                Object position along x                                    [pixel]
#   4 Y_IMAGE                Object position along y                                    [pixel]
#   5 X_WORLD                Barycenter position along world x axis                     [deg]
#   6 Y_WORLD                Barycenter position along world y axis                     [deg]
#   7 A_WORLD                Profile RMS along major axis (world units)                 [deg]
#   8 B_WORLD                Profile RMS along minor axis (world units)                 [deg]
#   9 THETA_WORLD            Position angle (CCW/world-x)                               [deg]
#  10 FWHM_WORLD             FWHM assuming a gaussian core                              [deg]
#  11 ELONGATION             A_IMAGE/B_IMAGE                                           
#  12 ELLIPTICITY            1 - B_IMAGE/A_IMAGE                                       
         1 -12.7003    216.5711     13.2279   3.4821993733e+01   3.0082371735e+01    0.3602948    0.2956815  82.09 0.0007094521    1.157    0.136
         2  -9.7755     65.2248     11.2376   6.1765144566e+01   6.4782684934e+01    0.1510411    0.1437797  24.83 0.0007569056    1.308    0.236
         3 -11.9995    190.9570      9.6976   3.6404955292e+01   3.6319095576e+01     0.286075    0.2029162  53.51  0.001420121    1.507    0.337
         4 -11.4199     57.5025      6.1433   6.2165494008e+01   6.6685734349e+01    0.3038983    0.2508055  36.79  0.001150369    1.247    0.198
         5 -11.1624    165.7721      1.6437   3.7029875980e+01   4.3061577790e+01    0.3317879    0.1358072  67.73 0.0006562261    2.038    0.509
         6 -12.5486    185.9225      5.5657   3.5878551695e+01   3.7908869712e+01    0.4965909    0.3091296 -24.31   0.00274777    1.890    0.471
         7  -9.6235     71.5010    229.5098   1.1233206927e+02   1.7198761443e+01    0.1264254    0.1032327  62.85 3.067575e-05    1.026    0.025
         8 -11.8721     22.1087    248.9555   1.2324368279e+02   1.9281634116e+01    0.2397926    0.1940383  53.61  0.001313928    1.248    0.198
         9 -11.6656     96.4898    224.1232   1.0646930199e+02   1.4763479330e+01    0.4364423    0.3368135 -85.71  0.002602562    1.403    0.287
        10 -10.5146    149.0178    223.0438   9.4986719263e+01   6.7040450064e+00    0.2106417    0.1592115  67.16   0.00113691    1.734    0.423
        11 -10.1992    225.6751    221.3307   7.9314987549e+01  -4.9971758813e+00    0.1071672    0.1029018  70.87 0.0005753702    1.704    0.413
        12 -10.4175    211.8647    218.5474   8.1418815260e+01  -2.5521697413e+00    0.2335873    0.1718321 -52.42  0.001319219    1.931    0.482
        13 -10.3707    101.9869    218.7183   1.0460943557e+02   1.5040252468e+01    0.1917573     0.154849  47.87 0.0004691583    1.100    0.091
        14 -11.3711    240.0424    215.3127   7.5650028366e+01  -6.1420969369e+00    0.3076308    0.1789635 -25.16   0.00173101    1.568    0.362
        15 -10.2748    224.8887    212.0949   7.7810542217e+01  -3.5050130142e+00    0.1813647    0.1689363   0.46 0.0007594518    1.300    0.231
        16  -9.8981    116.3138    210.6499   1.0032633624e+02   1.4462374401e+01    0.1428475   0.09963619  68.74 0.0006095453    1.725    0.420
        17 -11.8678     49.7163    201.4797   1.1428339953e+02   2.5996653357e+01    0.5000747    0.2608646  64.06  0.002431112    2.009    0.502
        18  -9.4379    236.3298    197.3333   7.2984715945e+01  -2.9301550649e+00    0.1366882   0.08725039  -3.26 0.0007052024    1.723    0.420
        19 -10.0927    112.3172    197.6604   9.9318264673e+01   1.7882701098e+01    0.1472984    0.1037328  70.03 0.0007048821    1.707    0.414
        20  -9.7574    133.4782    195.9797   9.4107293619e+01   1.4670045048e+01     0.191019    0.1270535 -85.29 0.0008088793    2.436    0.589
        21 -11.9526    160.7168    193.0024   8.7380612319e+01   1.0473174927e+01    0.5060424    0.4094045  66.09   0.00207321    1.563    0.360
        22 -10.5854    149.2917    198.4216   9.0912185455e+01   1.1406744837e+01    0.2360239    0.1814998 -78.43  0.001186476    1.782    0.439
        23 -10.3893     94.3356    186.1683   1.0188155655e+02   2.3363776330e+01    0.3080932    0.1726252  89.14  0.001155762    3.017    0.669
        24 -10.1237     34.3785    187.1645   1.1638633640e+02   3.1017311287e+01     0.190537    0.1033327 -88.62 0.0007433972    1.792    0.442
        25 -10.1742    109.3041    185.9786   9.8194640003e+01   2.0991817963e+01    0.2259745    0.1177188 -81.49 0.0007033034    4.150    0.759
        26 -10.5624    183.3116    183.2688   8.0586377906e+01   8.3077646887e+00    0.3961004    0.1908236 -43.50  0.001653751    2.095    0.523
        27 -10.5086    156.4614    187.4995   8.7314534973e+01   1.2352922718e+01    0.2873931    0.2435676  61.34  0.001193514    1.361    0.265
        28  -9.9918     76.3715    175.6838   1.0480303436e+02   2.8543586669e+01    0.1534305   0.09833316  67.06 0.0007034222    1.789    0.441
        29 -11.1019     34.2776    173.4238   1.1505189066e+02   3.4280247791e+01    0.2370677    0.1374425  81.95  0.001131312    1.773    0.436
        30 -11.4971     44.9541    171.9882   1.1225299358e+02   3.3472287701e+01    0.3884706    0.1970036  81.72  0.001632309    2.537    0.606
        31 -10.0188     56.5548    170.0880   1.0907976519e+02   3.2558219806e+01    0.2146633    0.1227561 -68.03   0.00103223    1.607    0.378
        32 -10.0290    121.3220    169.6542   9.2343524006e+01   2.2674381131e+01    0.1564025    0.1161881  76.56 0.0007049821    1.735    0.424
        33 -10.1566    138.8252    165.0031   8.7075440434e+01   2.0497375707e+01    0.2526194    0.1826058 -86.23  0.001085611    2.047    0.512
        34 -10.4021     80.1797    164.5751   1.0210722585e+02   3.0696153214e+01    0.3182065    0.1638263  84.39 0.0009578326    4.455    0.776
        35 -10.2296     52.5221    161.0752   1.0892112091e+02   3.5269703391e+01    0.3102398    0.1294216 -74.88  0.001186759    2.611    0.617
        36 -10.6294     92.8250    160.5498   9.8057099261e+01   2.9730721842e+01    0.2903733    0.1853472  77.24  0.001197449    2.253    0.556
        37 -11.3652    106.7366    158.4369   9.3962678333e+01   2.7915375525e+01    0.6877666    0.3879206  62.82  0.002567862    2.639    0.621
        38 -10.6074     22.5155    159.1812   1.1650562630e+02   3.8855663383e+01    0.2642384    0.1373753  50.39  0.001330535    1.987    0.497
        39 -10.9606    118.3063    157.2555   9.0689500376e+01   2.6133353790e+01    0.3685616    0.2521279 -40.03 0.0009173386    1.566    0.362
        40 -10.3354    218.3232    156.8148   6.8061125395e+01   6.8749469621e+00    0.2951046     0.114858 -45.52  0.001091464    2.636    0.621
        41 -10.8752    167.1261    156.4828   7.8549631463e+01   1.6820115519e+01    0.3151167    0.2049236 -61.03  0.001331304    1.970    0.492
        42  -9.9367     81.3331    154.6556   1.0012130693e+02   3.2977145372e+01    0.1561143    0.1081792  73.28 0.0005485255    1.761    0.432
        43 -10.1446     67.9639    154.4649   1.0376229691e+02   3.4942742824e+01    0.2094413     0.102292  54.70 0.0008093622    2.532    0.605
        44  -9.9962     23.3227    153.9417   1.1574215140e+02   4.0062703818e+01     0.185354    0.1383734 -77.39 0.0003974822    1.119    0.106
        45 -11.2232    107.4160    145.7177   9.1216101356e+01   3.0879110272e+01    0.6105449    0.3575113  73.72  0.002011079    3.516    0.716
        46 -10.6210     55.7438    145.7766   1.0577936278e+02   3.8704333078e+01    0.4067352    0.2070656  75.13  0.001406163    3.611    0.723
        47 -10.2793    148.6258    145.3607   8.0416310328e+01   2.2988547245e+01    0.3382974    0.2291011  87.15  0.001253997    2.749    0.636
        48 -10.1883    124.7725    143.3729   8.6035126350e+01   2.8205231203e+01    0.3220781    0.1871962 -80.52 0.0009471155    4.183    0.761
        49  -9.9506    181.8595    141.7256   7.1941513056e+01   1.6897132845e+01     0.295461    0.1996198 -66.50  0.001230633    2.136    0.532
        50 -10.2948     23.1836    138.7634   1.1401233882e+02   4.3814063790e+01    0.2293655    0.1095356  64.54 0.0009554993    2.812    0.644
        51 -10.1938    131.8148    131.6301   8.1447738324e+01   2.9548661379e+01    0.3444313    0.1857687 -67.98  0.001077722    3.409    0.707
        52 -11.5411     82.8405    130.6661   9.5047677558e+01   3.8728421320e+01    0.5854022    0.2108314 -60.12  0.001928313    2.919    0.657
        53 -11.9552     98.8438    128.1897   8.9779577053e+01   3.6672783824e+01    0.7402034    0.4777521  83.18  0.002761157    2.781    0.640
        54  -9.8507     73.3126    129.6724   9.7699387083e+01   4.0412989309e+01    0.1502401    0.1116253  76.79 0.0005084021    1.667    0.400
        55  -9.9685     12.6619    129.3464   1.1586033670e+02   4.6942913332e+01    0.1342884   0.08370943  69.71 5.828727e-05    1.780    0.438
        56 -11.2583     43.4114    122.4894   1.0555080462e+02   4.5964892857e+01    0.7153013    0.3717075  88.68  0.002673294    3.200    0.688
        57  -9.8769    117.3207    125.6484   8.3909653657e+01   3.3841427154e+01    0.1620437    0.1249748  86.71 0.0006630284    1.747    0.428
        58 -10.1822     58.9804    124.4949   1.0106028513e+02   4.3654811413e+01    0.2991374    0.1663851  78.52  0.001040698    3.547    0.718
        59 -11.2624     27.3739    121.0317   1.1031512389e+02   4.7856269391e+01    0.5412288    0.2512642  79.06  0.001817022    4.372    0.771
        60 -11.4951    192.6819    117.8067   6.3983463524e+01   1.9377481375e+01    0.5365391    0.3730612 -65.05  0.001906686    1.854    0.461
        61 -10.0083     70.8644    120.2555   9.6470338794e+01   4.3108239447e+01    0.2526033     0.152759  72.10 0.0009546471    2.870    0.652
        62 -10.6954    141.3321    118.8705   7.5793804389e+01   3.0438229846e+01    0.3217459    0.1405284 -51.80  0.001005476    2.538    0.606
        63 -10.7624    108.3961    112.9334   8.3246343209e+01   3.8550099866e+01     0.616034     0.290444 -61.95  0.001973331    3.193    0.687
        64 -11.1481     78.7784    112.4658   9.2188299493e+01   4.3834127645e+01    0.4829625     0.283081 -82.36  0.001681968    3.318    0.699
        65 -10.3767     92.4112    112.4692   8.7922401838e+01   4.1587533354e+01    0.3978248    0.2215038 -66.49  0.001498178    2.416    0.586
        66 -10.9354    174.1966    110.8951   6.6025595616e+01   2.4827154968e+01    0.4034459     0.253689 -53.26  0.001063646    1.724    0.420
        67 -11.1363    159.5343    111.7612   6.9513052891e+01   2.7950293913e+01    0.3886289    0.2767088 -81.51  0.001589636    2.154    0.536
        68 -11.4401     14.3699    108.9771   1.1260487231e+02   5.1797685527e+01    0.6086851    0.2695974 -70.84  0.002844598    1.909    0.476
        69 -11.3810    160.7105    106.3710   6.7816789029e+01   2.8793175606e+01    0.4306504    0.2511381  38.77  0.001743896    1.893    0.472
        70 -12.4068    141.2808    103.3170   7.1655026418e+01   3.3809022431e+01    0.7769151     0.477372 -44.15  0.003287482    1.603    0.376
        71 -12.0589     44.6391    100.6303   1.0083858132e+02   5.1206507224e+01    0.7415187    0.4383065 -84.98  0.003164513    2.543    0.607
        72 -11.8663    127.6245    100.5650   7.4459068716e+01   3.7388797519e+01    0.5808273    0.3028488 -42.07  0.002268805    1.892    0.472
        73 -10.1548     66.5102    111.0072   9.5799397675e+01   4.5993840578e+01    0.2062746    0.1265183 -83.67 0.0008104892    2.564    0.610
        74 -12.8709    108.9746     99.1430   7.9338940662e+01   4.1566910124e+01     1.192834    0.7401602  69.04  0.004348755    2.893    0.654
        75 -10.8293     63.2567     96.2863   9.3330339461e+01   4.9964311756e+01    0.3963109    0.2273353 -84.04  0.001297345    4.211    0.763
        76 -12.1048    169.2013     91.0628   6.1818658759e+01   2.9831290014e+01    0.3277174    0.2892797   8.11 0.0003571545    1.307    0.235
        77 -11.3972    124.1758     91.8980   7.2911976538e+01   3.9960139174e+01    0.3876028    0.2461758 -65.20  0.001514452    2.305    0.566
        78 -10.8758     34.4163     87.3255   1.0151902078e+02   5.5382473206e+01     0.746477    0.1544226 -57.31  0.002454981    3.510    0.715
        79 -11.7767     87.5191     87.1866   8.2570632301e+01   4.8221021053e+01    0.5195904    0.3070115  53.54  0.002173852    2.206    0.547
        80 -11.0629    104.4308     83.2766   7.6027565994e+01   4.5861041409e+01    0.3680381    0.2820241 -64.83  0.001618828    1.631    0.387
        81 -10.9867     20.8946    100.0361   1.0896222039e+02   5.3498024829e+01    0.5736443    0.2744308  78.52  0.001888377    5.032    0.801
        82 -11.3988     45.3343     81.9678   9.6092495549e+01   5.5491192248e+01    0.3049589    0.2526019  62.86  0.001088113    1.592    0.372
        83 -11.1278     62.4140     70.2821   8.6210085301e+01   5.5841315599e+01    0.3858934      0.12711 -48.23  0.001391882    2.801    0.643
        84 -11.3474     82.2006     72.8779   7.9924877165e+01   5.2151723107e+01    0.4117638    0.2602809 -68.21  0.001645785    2.800    0.643
        85 -10.2497    116.3352     73.6461   6.9511227999e+01   4.5273073809e+01    0.1541217    0.1211547 -80.59 0.0004166981    1.793    0.442
        86 -10.0895      4.9207     73.0766   1.0978450382e+02   6.0749976328e+01    0.2072573    0.1051951 -41.90 0.0008382181    1.658    0.397
        87 -11.0417     24.2129     80.1399   1.0373826382e+02   5.7913934878e+01    0.4908027    0.2254103 -73.10  0.002038687    2.767    0.639
        88 -10.6651     51.7533     70.9069   9.0488206177e+01   5.7152215647e+01    0.2474083    0.1885961 -65.83   0.00103599    1.593    0.372
        89 -12.4424     21.2323     50.6610   9.7114140055e+01   6.4481811478e+01     1.069754    0.6147197   3.28  0.005848845    1.968    0.492
        90 -11.2894     42.6897     66.9774   9.2898412402e+01   5.9061937686e+01     0.393397    0.2604866 -50.25  0.001473932    1.374    0.272
        91 -11.9733     41.9354     63.1347   9.2028293534e+01   5.9947681297e+01     0.513014    0.3324231  42.99  0.001803331    1.973    0.493
        92 -12.5738     27.9122     60.4208   9.7111045673e+01   6.1921692819e+01    0.8013555    0.6367722  39.67  0.001208814    1.604    0.377
        93 -12.3201     34.3118     57.3308   9.3413094568e+01   6.1947911616e+01    0.4602171    0.3976216  27.39  0.002738542    1.369    0.269
        94 -10.2522    197.3360     67.4415   5.0377341923e+01   2.7297052208e+01    0.3876877    0.1558014  53.00 -2.682014e-05    2.530    0.605
        95 -10.1771     72.6047     58.8131   7.8565340278e+01   5.6510409355e+01    0.1966582    0.1272155 -49.64 0.0009544357    1.714    0.417
        96 -12.5282    238.1097     65.0171   4.4289531822e+01   1.8664255544e+01    0.5239739    0.2789771 -64.74  0.002370198    2.303    0.566
        97 -11.4000      8.7498     55.5546   1.0416785583e+02   6.4345431884e+01    0.4344956    0.3432021 -63.91   0.00290122    1.310    0.237
        98 -10.5282     54.0907     53.9789   8.3978421542e+01   6.0234726997e+01     0.387231    0.2154865 -60.34  0.001640328    2.875    0.652
        99 -10.0747    161.2527     53.3925   5.2681999357e+01   3.8130483612e+01    0.2069356    0.1355752  72.37 0.0009074956    1.660    0.397
       100 -11.0250    148.7528     51.4035   5.4534678561e+01   4.1469337681e+01    0.4144424    0.1993617  55.71  0.001102641    1.956    0.489
       101 -10.6075     92.2793     50.4809   6.8802897271e+01   5.4355313572e+01    0.3681677    0.1109262 -42.01  0.001211224    3.555    0.719
       102 -10.6952     10.5323     43.9658   1.0005013963e+02   6.6589249398e+01    0.2702678    0.1663058  10.90 0.0007990832    1.759    0.431
       103 -10.7125      4.8390     41.5471   1.0207761898e+02   6.7408083020e+01    0.3132182    0.2335289  89.28  0.001552057    2.147    0.534
       104 -11.7371     72.6835     42.3690   7.2405198747e+01   5.9328699207e+01    0.6294469    0.3526917  52.15   0.00289046    2.288    0.563
       105 -11.3226     35.9924     37.4905   8.5627940074e+01   6.5504573714e+01    0.2226209     0.209903 -55.99    0.0015142    1.513    0.339
       106 -10.6048     73.4742     32.2635   6.8047100830e+01   6.0695932694e+01    0.2985675    0.2377993 -75.52  0.001581045    2.271    0.560
       107 -10.6619    109.4106     31.9386   5.6991286564e+01   5.3379624332e+01    0.2480144    0.1886217  70.97 0.0005377256    1.536    0.349
       108 -10.4833    103.6638     30.1473   5.7831820693e+01   5.4876014691e+01    0.4753918     0.185596  59.06  0.001272962    2.820    0.645
       109 -10.8122    239.6123     20.8644   3.4556430311e+01   2.4249521579e+01     0.215683    0.1583618  87.03 0.0005660743    1.270    0.212
       110 -11.6486    203.2648     20.7257   3.7846654286e+01   3.2266476825e+01     0.303182    0.1679096  79.43  0.001536219    1.744    0.426
       111 -10.1474     39.0117     19.0117   7.6237131007e+01   6.8023872331e+01    0.2340063    0.2023546  82.58  0.001415794    2.468    0.595
       112  -9.8910     39.5232     14.5318   7.3856585587e+01   6.8557524199e+01    0.2310091     0.126026  -6.92  0.001029848    2.232    0.552
       113 -10.2754     89.6384     18.1910   5.7011571798e+01   5.9259834157e+01    0.2639609    0.1708991  69.18  0.001327503    2.037    0.509
       114 -10.2653     46.7960     16.5832   7.1576721353e+01   6.7237109665e+01    0.2020029    0.1391041 -12.59 0.0009379643    1.326    0.246
       115 -11.6028    220.1185    248.6488   8.4895636608e+01  -8.0173866320e+00    0.3011249     0.234506  46.70  0.001961046    1.858    0.462
       116 -11.6823     10.4764    247.2421   1.2518510525e+02   2.0790518649e+01    0.2191833    0.1236002  55.14 0.0007623974    1.353    0.261
       117 -11.2673      7.1822    250.3961   1.2588873767e+02   2.0525799915e+01    0.4201047   0.04203479  37.65  0.001718647    4.342    0.770
       118 -10.9703      7.9972    240.9667   1.2532371300e+02   2.2223746071e+01    0.1487208    0.1236627 -58.55 0.0009964498    1.692    0.409
       119 -11.0986     22.0121    239.1802   1.2272687148e+02   2.1160997685e+01    0.2122753    0.1140246  79.73  0.001285587    1.651    0.394
