#   1 NUMBER                 Running object number                                     
#   2 MAG_AUTO               Kron-like elliptical aperture magnitude                    [mag]
#   3 X_IMAGE                Object position along x                                    [pixel]
#   4 Y_IMAGE                Object position along y                                    [pixel]
#   5 X_WORLD                Barycenter position along world x axis                     [deg]
#   6 Y_WORLD                Barycenter position along world y axis                     [deg]
#   7 A_WORLD                Profile RMS along major axis (world units)                 [deg]
#   8 B_WORLD                Profile RMS along minor axis (world units)                 [deg]
#   9 THETA_WORLD            Position angle (CCW/world-x)                               [deg]
#  10 FWHM_WORLD             FWHM assuming a gaussian core                              [deg]
#  11 ELONGATION             A_IMAGE/B_IMAGE                                           
#  12 ELLIPTICITY            1 - B_IMAGE/A_IMAGE                                       
         1 -13.8368    221.0565    115.5798   5.2805646707e+01   1.4068031030e+01     2.092145     1.786489 -15.07   0.01046251    1.323    0.244
         2 -10.7973    237.4521     16.9658   2.9924473902e+01   2.5532548749e+01    0.2753018    0.1767635 -42.40  0.001101091    1.467    0.318
         3 -11.5410    239.1113     22.3183   3.0841124006e+01   2.4582037934e+01    0.3676446    0.2061137 -62.40 0.0008111018    1.526    0.345
         4 -11.8148    111.7839     19.0880   4.6479856003e+01   5.3669772045e+01    0.3874861    0.3162186  63.27  0.001035808    1.143    0.125
         5 -11.8002    149.9240     18.4855   3.9425115374e+01   4.4793616013e+01    0.3375739    0.2681683  87.66 0.0006148067    1.198    0.165
         6 -11.3118     56.1478     15.4516   6.1209068993e+01   6.5469990259e+01     0.471432    0.3134895  14.73  0.002030037    1.453    0.312
         7 -10.2313     59.0268     11.4691   5.8317614579e+01   6.5379947785e+01    0.2204097    0.1724296   9.76 0.0006080092    1.152    0.132
         8 -10.6562    101.2296     16.0179   4.7768484084e+01   5.6345425036e+01    0.2726996    0.1908199  28.45  0.000386894    1.470    0.320
         9 -13.1019    184.2566     12.0498   3.3468089622e+01   3.7437283625e+01    0.7704095     0.473829  45.90  0.004227698    2.004    0.501
        10 -10.7719     10.2423     15.3300   8.3323593007e+01   7.1740272910e+01    0.2640495    0.1957406  -7.97  0.001059091    1.038    0.036
        11 -11.0576    227.4920     13.9646   3.0070387303e+01   2.7870250835e+01    0.2852946    0.1040677 -34.16  0.001359877    2.716    0.632
        12 -10.5244     19.8517     14.3336   7.7451969558e+01   7.0894176084e+01    0.3538272    0.1471024 -42.51  0.001775482    2.607    0.616
        13 -10.9715     24.5359     12.2958   7.3955816890e+01   7.0610562559e+01    0.3150038    0.1756418 -33.02 0.0009340537    1.741    0.426
        14 -12.6541    155.1305     13.0362   3.7155937088e+01   4.4103577468e+01    0.7863221    0.3832139 -24.40  0.003808057    2.463    0.594
        15 -11.2870    127.6099      4.3419   3.8624595932e+01   5.1336770570e+01    0.2845361     0.253804 -24.48  0.000729551    1.326    0.246
        16 -11.5376    210.0170      8.7528   3.0362232590e+01   3.2084553753e+01    0.3505827    0.2102336 -62.86  0.001185575    1.481    0.325
        17 -11.5184    212.5167      6.4948   2.9687055942e+01   3.1786330636e+01    0.3409757    0.2465458 -73.66  0.001553238    1.135    0.119
        18 -10.6672    217.0276      8.3934   2.9733758165e+01   3.0637807930e+01    0.2312025    0.1606139 -44.80  0.001516637    1.397    0.284
        19  -9.8911     47.4839      8.5402   6.1396165483e+01   6.7687927831e+01    0.2300975    0.1601826  18.30  0.001460525    1.228    0.186
        20 -11.4720     13.7902      7.1070   7.7230288140e+01   7.2533504525e+01    0.3587627    0.2855607 -21.79  0.002647603    1.334    0.250
        21  -9.0228    102.6572      8.3047   4.4626179575e+01   5.6721949367e+01     0.122596   0.09415976 -78.15 0.0007041052    1.685    0.406
        22 -12.3484    122.7091     10.9849   4.1586252471e+01   5.1914461673e+01    0.5381961    0.2717027  53.74  0.002584565    1.658    0.397
        23  -9.9807     78.2878      6.6385   5.0006987999e+01   6.2096540112e+01    0.2834017    0.1744774  13.62  0.001559953    1.842    0.457
        24 -10.0213    102.1448      1.8745   4.2398098043e+01   5.7347285962e+01    0.2200082    0.1646156  88.52 0.0007542343    1.571    0.363
        25 -10.4773    106.0343      3.0143   4.2023852351e+01   5.6389575559e+01    0.2500254    0.1847032 -72.89  0.001472743    1.738    0.425
        26 -10.4585    200.3967      4.4197   3.0216557410e+01   3.4602736383e+01    0.2840998   0.08479179 -36.74   0.00126926    2.966    0.663
        27 -10.0015     40.4578      5.1234   6.2676656451e+01   6.9180418277e+01    0.2505639     0.143848  46.67   0.00104663    1.838    0.456
        28 -10.3462      3.3124      4.1619   8.2023617957e+01   7.3960021710e+01    0.2309039    0.1887575  45.79  0.001595619    2.364    0.577
        29 -11.5230     90.3909      2.8333   4.5344197651e+01   5.9854998691e+01    0.2791489    0.2392516  66.49 0.0005537782    1.217    0.179
        30  -9.7738     19.6319      1.9737   7.1223961064e+01   7.2481864574e+01    0.1602806    0.1185586  -2.97 0.0007367558    1.080    0.074
        31 -10.8377    250.0803      9.8300   2.7738582706e+01   2.3901971846e+01    0.2260051    0.1451581 -37.89   0.00151392    1.611    0.379
        32  -9.3789     64.8672      1.2975   5.1693507364e+01   6.5209811025e+01    0.1654476   0.08448637  45.44 0.0002544968    1.565    0.361
        33  -9.6062     24.9221      1.4056   6.8108648513e+01   7.1856181716e+01    0.1630609   0.09236542  32.33 0.0009161469    1.550    0.355
        34  -9.7262      8.8450      1.3822   7.7120684284e+01   7.3789156040e+01    0.1904765    0.0892804  30.71  0.000999664    2.068    0.516
        35 -10.2756     45.3491    101.7643   9.5431339448e+01   5.1030333215e+01    0.2799712    0.2039521  58.63  0.001254392    1.806    0.446
        36  -9.4522     38.6510     99.2687   9.7315858052e+01   5.2362260100e+01    0.1326711    0.1052618  63.60 0.0003510192    1.621    0.383
        37  -9.2058     97.3890     98.4774   7.6666680713e+01   4.3785001694e+01    0.1510852    0.1440291 -35.01 9.273733e-05    1.044    0.042
        38  -9.8867     53.4852     97.0660   9.1320872378e+01   5.1171501438e+01    0.2224602    0.1313606 -54.51 0.0004134153    1.565    0.361
        39 -10.2733     80.7101    103.0738   8.3349711734e+01   4.5726941605e+01    0.2709064    0.2193832  16.70 0.0006241836    1.325    0.245
        40  -8.9570    147.9909     96.2054   6.2142292805e+01   3.3485054941e+01    0.1850568    0.1223365  49.87            0    1.531    0.347
        41 -10.3230     69.1904     95.6521   8.5292253817e+01   4.9294187341e+01    0.2635461    0.2189203 -41.00 0.0005566398    1.120    0.107
        42 -10.2817     28.2778    141.3182   1.0833355723e+02   4.2760511234e+01    0.2332549     0.180278 -71.17 0.0002265356    1.123    0.109
        43 -10.0836     35.5049     94.4790   9.7397469299e+01   5.3828677177e+01    0.2551075   0.09724525 -49.53 0.0008931098    2.158    0.537
        44  -9.9449     16.2734     95.2628   1.0483086390e+02   5.5262326135e+01    0.1636612    0.1456635  82.88 0.0005166986    1.315    0.240
        45 -10.3480    116.5288     93.4821   6.9506517878e+01   4.0995716138e+01    0.2451931    0.2396892  59.22  0.001324815    1.077    0.071
        46  -9.3348      1.2942     94.3082   1.1023210113e+02   5.6372793425e+01    0.1707096   0.09848993 -73.29 0.0009015982    1.556    0.357
        47  -9.6595     44.7451     93.0048   9.3547395075e+01   5.3188087039e+01    0.2001291    0.1671904 -49.03 0.0004513503    1.096    0.088
        48 -10.5872     74.2390     91.3380   8.2307819340e+01   4.9476276166e+01    0.3792726    0.1654008 -38.24  0.001384837    2.481    0.597
        49 -10.9425     34.5239     89.8230   9.6675847500e+01   5.5023712793e+01    0.2753946    0.2186298  25.38            0    1.402    0.287
        50 -10.2960    120.7222     87.5406   6.6596557972e+01   4.1305786734e+01    0.2902017    0.2460022 -78.76 -3.159178e-05    1.445    0.308
        51  -8.8449    139.2453     86.7436   6.1580716493e+01   3.7321772591e+01    0.1401977    0.1171021 -78.81            0    1.417    0.294
        52 -10.5340     29.2917    137.9756   1.0755018941e+02   4.3526945781e+01    0.2233353    0.2040597  18.36  0.000375334    1.274    0.215
        53 -10.4939     28.7983     85.0657   9.7778050521e+01   5.6668667020e+01    0.2671908    0.1900353  21.41  0.000655695    1.552    0.356
        54  -8.7211     95.3478     84.6634   7.3243295187e+01   4.7138965249e+01    0.1512575    0.1220997  86.61  0.000704765    1.780    0.438
        55 -11.2784     76.0370     83.1570   7.9259664918e+01   5.0962217029e+01    0.2829751    0.2721765 -21.63 0.0003562398    1.092    0.084
        56 -11.9157     80.1768     80.9671   7.7142034561e+01   5.0710552786e+01    0.2858816    0.2601777 -38.67 0.0003052331    1.120    0.107
        57  -9.7109     65.9985     82.7771   8.2759550711e+01   5.2657288367e+01    0.3628443    0.1794714 -58.88  0.001399984    2.576    0.612
        58  -9.8435    112.8782     81.3315   6.6924641776e+01   4.4222099930e+01    0.2074419     0.181348  36.03 0.0003442665    1.127    0.113
        59 -10.2053     54.1984     80.5296   8.6543897530e+01   5.4841773530e+01    0.2404076    0.1813606 -45.41 0.0003304796    1.234    0.190
        60 -10.1459     47.8186     80.8352   8.9117471994e+01   5.5597293935e+01    0.2157869    0.1711556 -25.10 0.0005120138    1.176    0.150
        61 -10.3429    104.6731     79.0944   6.8635454215e+01   4.6384023960e+01    0.3095634    0.2659474 -51.37  0.001299919    1.258    0.205
        62 -10.8171     73.0516     77.2199   7.8483814358e+01   5.2703283645e+01    0.2869847    0.2130567 -39.24 0.0006702696    1.289    0.224
        63 -11.6964     77.7969     75.2739   7.6176579448e+01   5.2289714173e+01    0.4743252    0.2907529  39.75  0.001383957    1.664    0.399
        64  -9.4336     36.7945     76.7642   9.2396953006e+01   5.7758751965e+01    0.1640739     0.152083 -62.24 0.0004358272    1.259    0.206
        65 -10.2440     50.4167     76.4819   8.6825587374e+01   5.6216585192e+01    0.2703825    0.1350093  27.29  0.001194567    2.118    0.528
        66  -9.8232      4.7050     75.6518   1.0546668189e+02   6.0533672189e+01    0.2201402    0.1339946 -49.20 0.0005307579    1.282    0.220
        67 -10.3063      1.8608     73.1443   1.0613199590e+02   6.1240939270e+01     0.187814    0.1703041 -25.81 0.0003978098    1.188    0.158
        68 -10.5719     56.0447     74.4177   8.3985985475e+01   5.5895426639e+01    0.2747569    0.2327072  -9.06  0.001576842    1.116    0.104
        69 -10.0646    250.3429     71.8388   3.9651756227e+01   1.5743142084e+01    0.3220443    0.1130024 -30.65  0.001105314    4.333    0.769
        70  -9.7836    103.8928     72.8072   6.6880645644e+01   4.7742267125e+01    0.2114661    0.1880437  12.30 0.0002644793    1.131    0.115
        71  -9.1695     25.1986     73.6178   9.6368499586e+01   5.9567166995e+01    0.1629638    0.1145821  -6.68 0.0001189151    1.492    0.330
        72 -10.9117    103.2005     59.2130   6.2610756876e+01   5.0276533861e+01    0.4281775    0.3487702 -24.22  0.001209116    1.273    0.214
        73 -10.3503     99.4753     64.4296   6.5471208305e+01   5.0172190938e+01    0.2660119    0.2265776  10.85 0.0004784886    1.203    0.169
        74 -11.6188     97.1624     69.3813   6.7822664258e+01   4.9759063997e+01    0.3383256     0.272736 -39.43 0.0006958125    1.272    0.214
        75 -10.5205    100.7062     67.3601   6.6069625557e+01   4.9398643085e+01    0.2612607    0.2254807 -71.25 0.0006596053    1.470    0.320
        76 -10.5234     63.4996     70.5492   7.9882083942e+01   5.5591210010e+01    0.3676972    0.2621587  53.05   0.00181012    1.879    0.468
        77  -9.9821     58.9657     66.2481   8.0217340149e+01   5.7132872066e+01    0.2222127    0.1744843  -7.40 0.0008355691    1.257    0.205
        78 -10.0098     62.2996     64.6548   7.8385462772e+01   5.6935672482e+01    0.2066558    0.1972917  -1.65   0.00125827    1.162    0.139
        79 -11.7198    136.8128     69.4878   5.7107820214e+01   4.1009055436e+01    0.2534247    0.2472148  76.69 0.0003124512    1.030    0.029
        80  -8.9729    140.7138     68.6629   5.5967225089e+01   4.0238800928e+01    0.2666722    0.1719989  39.02 0.0004284335    1.685    0.406
        81  -9.2466    155.9603     68.9131   5.2788268620e+01   3.6609633856e+01    0.1980694    0.1643797 -74.46 0.0004215688    1.310    0.236
        82  -9.7930     79.8900     69.5292   7.3568135573e+01   5.3044823576e+01    0.2030718    0.1371916  37.66 -1.830862e-05    1.472    0.321
        83  -9.9269     34.4874     69.1314   9.1176067185e+01   5.9649424924e+01    0.2016808    0.1155797 -49.11  0.001014083    1.542    0.351
        84 -10.2097     89.6797     67.7088   6.9656299667e+01   5.1551960827e+01     0.286481    0.1968036  45.59  0.001058495    1.485    0.327
        85 -10.8509    121.4089     66.3234   5.9924409881e+01   4.5082257295e+01    0.2675366    0.2534383 -71.99 0.0001107695    1.156    0.135
        86 -10.1045    110.5001     65.0954   6.2472400929e+01   4.7712415949e+01    0.3598875    0.2560195 -75.49  0.001425525    2.282    0.562
        87 -11.3946     71.6203     64.4873   7.4821582169e+01   5.5449346256e+01    0.4735395    0.3613976   1.69  0.001913242    1.391    0.281
        88  -9.6858      3.8477     64.8811   1.0344488377e+02   6.2959931832e+01     0.149889    0.1430674 -82.93 0.0005003052    1.333    0.250
        89 -10.4544     43.6615     63.3921   8.5503415175e+01   5.9786504647e+01    0.2964204    0.2309606 -68.49  0.001628537    1.784    0.440
        90  -9.6960     32.9588     63.7076   9.0198019701e+01   6.0940866230e+01    0.1814051    0.1569174  -5.89 0.0005943608    1.121    0.108
        91  -8.9547    203.6747     63.6706   4.3469942360e+01   2.6446084163e+01    0.1288348    0.1071309  21.25 0.0007050349    1.702    0.412
        92  -9.2883     37.7871     63.0295   8.7891733588e+01   6.0554879698e+01    0.1732663   0.09708244 -48.84 0.0004026544    1.649    0.393
        93  -9.2296     16.6736     63.2984   9.7302143111e+01   6.2482560412e+01     0.113168   0.09836961  64.86 0.0007026926    1.633    0.388
        94 -12.2019     59.8082     58.9461   7.7386454132e+01   5.8398438759e+01    0.3073845    0.2605829 -30.99 0.0004207394    1.157    0.135
        95 -10.8887      4.0502     59.4897   1.0203838421e+02   6.4101846353e+01    0.2178349    0.1597981 -42.86 0.0002809403    1.063    0.060
        96  -9.7405      8.1457     56.8454   9.9443039582e+01   6.4417377615e+01    0.1923921    0.1451493 -35.78  0.001241203    1.046    0.044
        97 -10.3191     21.2759    142.0117   1.1051414089e+02   4.3193104053e+01    0.2105446    0.1967307  18.22 0.0006261863    1.271    0.213
        98  -9.2391     51.0192     59.5039   8.1126296493e+01   5.9581257441e+01    0.1813664    0.1264569  25.30 0.0009778313    1.430    0.301
        99 -11.1185     95.6829     56.7498   6.4017819388e+01   5.2257739860e+01    0.3522765    0.2572694 -10.39  0.001770154    1.589    0.370
       100 -10.1159    111.9109     55.4746   5.8917914659e+01   4.8982478537e+01    0.2691945    0.2146843 -68.73  0.001271859    1.634    0.388
       101  -9.7862     25.4067     56.3271   9.1263779625e+01   6.3182160524e+01    0.3285424    0.1328344  31.08  0.001484764    2.655    0.623
       102  -9.5249    200.5459     55.2806   4.1902776701e+01   2.8387037369e+01    0.1653776    0.1281025 -28.46  0.000315934    1.487    0.327
       103 -10.0067     81.1933     54.8093   6.8027896536e+01   5.5444764497e+01    0.1945589    0.1530291   9.71 0.0007217783    1.299    0.230
       104  -9.7216     69.0826     55.0658   7.2442616394e+01   5.7584443758e+01    0.1959998    0.1755804  89.76 0.0007940483    1.646    0.392
       105  -9.2169    162.4126     52.8429   4.7084782995e+01   3.7571779506e+01    0.1826599    0.1374193 -18.28 0.0009354947    1.645    0.392
       106  -9.0946     44.6336     52.7010   8.1426912084e+01   6.1716155424e+01    0.1408104    0.0904023  -9.88 0.0007032709    1.729    0.422
       107 -11.0499    212.1439     49.9107   3.9214129933e+01   2.6607467477e+01    0.2440115    0.1896448 -72.12 0.0004805728    1.167    0.143
       108  -9.8867    106.9731     50.7805   5.8675928887e+01   5.0792599611e+01    0.1982423    0.1827806  74.57 0.0003624126    1.231    0.188
       109  -9.8692     35.3082     49.6545   8.4468633170e+01   6.3429181262e+01     0.302565    0.1020186 -46.30  0.001233071    2.677    0.626
       110  -9.9545     55.4368     50.0452   7.5912395577e+01   6.0660317683e+01    0.2876058    0.1831675  -7.26 0.0006274842    1.879    0.468
       111 -10.3756     58.8134     47.7874   7.3700142773e+01   6.0519867141e+01    0.2782513    0.1799867 -22.93   0.00144939    1.569    0.363
       112  -9.9722      5.5247     49.3131   9.8571974220e+01   6.6110544031e+01     0.317645    0.1274905 -42.93  0.001581936    1.896    0.473
       113  -9.2831    202.6571     49.6968   4.0311970904e+01   2.8713427226e+01    0.1252038    0.1014636  34.06 0.0007039774    1.681    0.405
       114  -9.4972    102.9932     48.9649   5.9157584275e+01   5.1930884882e+01    0.2046597    0.1715232 -86.91 0.0005565839    1.596    0.373
       115 -10.7972     84.7880     47.5045   6.4169469206e+01   5.5920872231e+01    0.3517573    0.2478669 -26.10  0.001860988    1.467    0.318
       116 -11.0297     26.3987     48.1884   8.8088545007e+01   6.4663109230e+01      0.39021    0.2171905  -4.87  0.001935647    2.129    0.530
       117 -10.1907    233.2758     48.0466   3.6534407161e+01   2.2459549928e+01    0.1770271    0.1332384 -55.24  0.000381657    1.117    0.104
       118  -8.8484    121.7131     48.3157   5.4067079542e+01   4.7836777665e+01    0.1371766    0.1092356 -74.88 0.0002730489    1.587    0.370
       119  -8.7783     95.2507     48.6444   6.1300187245e+01   5.3624226145e+01    0.1309478    0.1094045 -66.49 0.0006950938    1.601    0.376
       120  -9.2717     49.6563     48.6972   7.7808245755e+01   6.1745420684e+01    0.1391472   0.09162649  -5.64 0.0007039541    1.682    0.406
       121 -10.2733    136.7846     46.6673   5.0175378946e+01   4.4546071436e+01    0.2226872    0.2162977  83.80 0.0003810503    1.056    0.053
       122  -9.9698     17.8341     50.5263   9.2961920499e+01   6.4994524051e+01    0.2084573    0.1141505   9.21 0.0007779798    1.946    0.486
       123  -9.3525     46.0830     47.1493   7.8754971520e+01   6.2514840113e+01    0.1571065    0.1479393   2.16 0.0003152393    1.261    0.207
       124  -9.7589    166.9238     43.6249   4.3809577826e+01   3.7784697423e+01    0.2002651    0.1606851  72.93  0.001134457    1.162    0.139
       125  -9.7565    140.9897     43.6262   4.8395209240e+01   4.3963591074e+01    0.1987067    0.1670813  60.72 0.0005936813    1.099    0.090
       126 -10.7308    108.5389     43.3008   5.5683984877e+01   5.1526619064e+01    0.2807477     0.228577  54.97 4.494827e-05    1.190    0.159
       127 -10.5087    235.8702     42.6834   3.5179630817e+01   2.2664499122e+01    0.2062549    0.1593456 -38.93  0.001330589    1.362    0.266
       128 -11.2534    247.1229     41.5450   3.3947280330e+01   2.0620174207e+01    0.3766627    0.1708423  64.49   0.00199322    2.332    0.571
       129 -10.3672     56.6148     41.7866   7.2259175536e+01   6.1845522228e+01    0.2226544    0.1622634  28.92 0.0002096581    1.291    0.225
       130  -9.5539     97.8580     41.1231   5.7836213706e+01   5.4157975764e+01    0.1882124    0.1806028  53.84 0.0003952872    1.156    0.135
       131 -10.3685    229.0007     37.5088   3.4754514108e+01   2.4730042091e+01    0.2574785    0.1365723 -53.58  0.001392307    1.638    0.389
       132  -9.1110    134.4836     38.4446   4.8101310479e+01   4.6184420701e+01    0.1375842    0.1241475  55.73 9.875228e-05    1.030    0.029
       133  -9.3235     80.5535     38.5343   6.2185240276e+01   5.8065175152e+01     0.133724    0.1192153  20.37 2.888506e-05    1.035    0.034
       134  -9.0895     76.4074     38.5597   6.3588855726e+01   5.8861678435e+01    0.1335198    0.1159064  15.14 6.362783e-05    1.014    0.014
       135 -10.9253     63.8325     37.6794   6.7784149267e+01   6.1273847827e+01    0.3717707    0.1878077  32.02  0.001741405    1.952    0.488
       136  -9.4198     35.5455     38.5399   8.0159530376e+01   6.5355571648e+01    0.1277421    0.1032389  -9.16 0.0001078071    1.005    0.005
       137  -8.9013     32.3406     38.3084   8.1580392473e+01   6.5780974920e+01    0.1334229   0.08223262 -11.20 0.0007043672    1.688    0.408
       138  -9.3525      7.3173     38.3206   9.4183157915e+01   6.8114846006e+01    0.1297553   0.06846607 -27.50 0.0007041838    1.662    0.398
       139  -9.5159    170.3154     36.9289   4.1497734050e+01   3.7852311358e+01    0.1751545    0.1642477 -71.90 0.0003537147    1.095    0.087
       140  -8.9747    148.6977     37.7144   4.5195374771e+01   4.2895546358e+01    0.1346581   0.09906804  35.96 0.0004798496    1.558    0.358
       141  -9.6277    128.0422     36.8528   4.8928036065e+01   4.7903058388e+01    0.2105446     0.178826  86.43 0.0006810067    1.275    0.216
       142  -9.7704     48.0055     36.7960   7.3848353393e+01   6.3945979024e+01    0.1860766    0.1498766  58.47 0.0005873185    1.982    0.495
       143 -10.3036     43.6790     35.0776   7.5036277740e+01   6.4836575017e+01    0.1972513    0.1603014  27.72 0.0004012361    1.297    0.229
       144 -10.0005    193.9584     34.1551   3.7690199677e+01   3.2724404148e+01    0.2412718    0.1661193  53.23  0.001142048    1.596    0.374
       145 -11.6565    239.5929     32.3282   3.2768557230e+01   2.3265936063e+01     0.545356    0.2623218 -82.19  0.002674602    2.491    0.599
       146 -12.0996     68.4470    217.3964   1.0722688720e+02   1.9246881709e+01    0.7262869    0.5707191  62.43  0.004273583    1.174    0.148
       147 -11.0926    237.6989     26.9996   3.1869152835e+01   2.4298563964e+01      0.25733    0.2157604  51.14 0.0008338866    1.649    0.394
       148  -9.2899    155.3046    214.6769   8.6677657719e+01   6.4415378273e+00    0.1342865    0.1100104  67.82 0.0005266232    1.639    0.390
       149  -8.8597    120.4703     32.4453   4.9122140750e+01   5.0207864031e+01    0.1351208    0.1215099  54.31 6.648366e-05    1.017    0.016
       150  -9.3032    116.1753     30.8567   4.9548007743e+01   5.1386413123e+01    0.1827458    0.1435554  33.98 0.0003665282    1.271    0.213
       151 -10.5423     78.9163     30.9190   5.9744838346e+01   5.9401079263e+01    0.2116669    0.1768848  -0.55 0.0005387302    1.173    0.148
       152  -8.7761    162.9938     31.0000   4.0979758918e+01   4.0310645555e+01    0.2030463   0.06900484  65.20  0.000763578    2.680    0.627
       153 -10.9427     15.1717     28.7038   8.6401631152e+01   6.9182010069e+01    0.2735787    0.2021473   5.21 0.0009195948    1.233    0.189
       154  -9.6865    215.9440     28.6866   3.4116020628e+01   2.8564832504e+01    0.1920127    0.1640485 -40.91 0.0008294428    1.320    0.242
       155  -9.4687    201.1977     29.1874   3.5713210235e+01   3.1712046475e+01    0.1750595    0.1245924 -71.32 0.0003371621    1.290    0.225
       156  -9.9999    109.3535     29.3742   5.0627217416e+01   5.3112357261e+01    0.4359829    0.1110384  56.41  0.001461302    3.374    0.704
       157 -10.5616     47.4788     28.5221   7.0588534130e+01   6.5248899913e+01    0.2176581    0.1975556  16.18 0.0002987494    1.274    0.215
       158 -10.5760    183.2798     26.6745   3.7144092538e+01   3.6067277597e+01    0.4280213    0.1986951  52.12  0.001813667    2.295    0.564
       159 -10.2931     81.3335     26.5770   5.7248709278e+01   5.9451716779e+01     0.242147    0.2186719 -57.11 0.0008701547    1.464    0.317
       160 -10.1667      2.2363     26.8058   9.2793697245e+01   7.0522596223e+01     0.316843    0.1146957 -46.70   0.00160165    2.165    0.538
       161  -9.8954      1.7243     21.1998   9.0874840212e+01   7.1506639473e+01    0.2343915    0.1498094 -42.64  0.001395281    1.404    0.288
       162  -9.3099     35.1553     25.8999   7.5029980863e+01   6.7379868177e+01    0.1665247    0.1182935  -3.70 0.0004490649    1.249    0.199
       163 -11.4452    248.4893     22.5665   3.0199787295e+01   2.2739340057e+01    0.2763387    0.1668667 -56.30   0.00177461    1.312    0.238
       164 -10.8067    226.3861     23.6753   3.2127434150e+01   2.6981190655e+01    0.2630705    0.2347679  -0.23  0.001814623    1.712    0.416
       165 -10.5453     29.7640     24.9489   7.7230887994e+01   6.8208085755e+01    0.2299839    0.1398817 -24.11  0.001342699    1.496    0.331
       166 -11.1360     28.4887     19.7281   7.5494538671e+01   6.9117325577e+01    0.3634835    0.2788876  41.02  0.001826557    1.782    0.439
       167  -9.5126     98.7597     23.8270   5.1256368253e+01   5.6091007368e+01    0.1693234    0.1533033 -80.77 0.0007619089    1.363    0.266
       168 -10.1707    178.5471     22.9846   3.6794390115e+01   3.7581928659e+01    0.2553884    0.1554243  56.45   0.00137378    1.621    0.383
       169 -10.5682    164.2964     22.3412   3.8451909567e+01   4.0986872458e+01    0.2759593    0.1851078  40.89  0.001487665    1.777    0.437
       170 -10.2476    142.1907     21.1821   4.1420394743e+01   4.6349804776e+01     0.201983    0.1611901  48.73 0.0007850502    1.232    0.188
       171  -9.6550      1.3849    184.7674   1.1983311850e+02   3.4149295805e+01    0.2389005    0.1004024 -82.50 0.0009179344    2.048    0.512
       172  -9.7152    232.3144    177.6638   6.3979218050e+01   9.3344737082e-01    0.1239414    0.1033112 -63.14 0.0007046885    1.692    0.409
       173  -9.4478     69.3756     20.2251   5.8529021644e+01   6.2524696565e+01    0.1596056    0.1145761 -32.24 0.0009356479    1.574    0.365
       174  -9.6658    119.7165     19.0020   4.4800142408e+01   5.1854362569e+01    0.1733959    0.1617269  30.03 0.0005700463    1.134    0.118
       175 -10.3773    244.6854     14.6717   2.8980979452e+01   2.4384828425e+01    0.1726818     0.104212 -29.49 0.0007697225    2.035    0.509
       176  -9.7324      7.3261    163.3254   1.1668339308e+02   3.8910731989e+01    0.1316527   0.08295012 -48.57 0.0005634507    1.694    0.410
       177 -11.8994    216.5216    157.6261   6.2712943415e+01   7.1138423792e+00    0.5802357    0.3053172 -53.84  0.002419497    2.381    0.580
       178  -9.2120     43.7039     18.3239   6.7653553246e+01   6.7178857135e+01    0.1016374    0.1004706 -59.96 0.0005703843    1.622    0.384
       179 -10.1349     37.6545     17.1473   6.9836702731e+01   6.8227141652e+01    0.3316615    0.1760608   9.79  0.001609284    2.404    0.584
       180 -10.9165      2.4662    153.7812   1.1709426442e+02   4.1626997311e+01    0.1970458    0.1775772  40.31  0.000567451    1.308    0.235
       181 -10.5832      2.8256    143.1034   1.1597109484e+02   4.4266266400e+01    0.1996134    0.1560137  82.97 0.0006827087    1.204    0.169
       182 -13.8617    242.2862    129.0099   5.2438871747e+01   7.8455258644e+00     1.947298     1.007179 -32.64  0.009205877    1.840    0.457
       183  -9.7395      7.4612     12.5908   8.3667219841e+01   7.2397571625e+01    0.1838596     0.115064   1.87 5.997695e-05    1.392    0.282
       184 -10.9784     16.1254    128.8716   1.1033748319e+02   4.6943434879e+01    0.3048224    0.2362144 -88.19 0.0003858171    1.256    0.204
       185 -10.3255     15.2131    121.8225   1.0963567252e+02   4.8789601915e+01    0.3096285    0.2302223  28.17  0.001801591    1.567    0.362
       186 -10.3939     11.9653    128.9812   1.1164742680e+02   4.7213294684e+01     0.221393    0.1603415 -67.23 0.0003241409    1.139    0.122
       187 -11.6271     12.9972    125.0406   1.1079875536e+02   4.8135272848e+01    0.6810335    0.3139011  64.27  0.002214682    3.446    0.710
       188  -8.9528     64.6980    126.7392   9.4317415421e+01   4.2361912274e+01     0.146145    0.1095259 -26.04  0.000176686    1.515    0.340
       189 -10.6708     24.2693    125.5965   1.0727232585e+02   4.7133921662e+01    0.2384809    0.2064388 -73.73 0.0004645323    1.070    0.066
       190  -9.3101     30.9986    124.0289   1.0483075025e+02   4.6941871878e+01    0.1721123     0.139061 -62.90 0.0003925408    1.073    0.068
       191  -9.2510     93.4964     10.5041   4.7559115335e+01   5.8550453366e+01     0.125436    0.1093521  49.65 0.0008095146    1.076    0.071
       192  -9.4739     39.9660     10.5507   6.5597508647e+01   6.8674619451e+01    0.1671089   0.09988265  34.88 0.0002866361    1.472    0.321
       193 -13.5839    214.9613    132.4943   5.7564125634e+01   1.2116733795e+01     1.944887      1.33793  73.89  0.009124361    2.245    0.555
       194  -9.4897    119.0559    122.0424   7.6565694021e+01   3.4127071712e+01    0.1820426    0.1746517 -34.96            0    1.016    0.016
       195 -10.0970     97.7441    117.7839   8.1738729243e+01   3.9248173872e+01    0.2633357    0.2032765  21.19 0.0009544175    1.440    0.306
       196  -9.3785     70.7256    117.4307   9.0279506438e+01   4.3838098487e+01    0.1996659    0.1459745  10.88 0.0009355316    1.627    0.385
       197 -10.3176     26.5561    116.4317   1.0501842033e+02   4.9259394998e+01    0.2997704    0.1205119  27.99  0.001256366    2.684    0.627
       198  -9.9592     11.6352    114.7670   1.0977739856e+02   5.0799704907e+01     0.206805    0.1651596 -29.16 0.0007975019    1.341    0.254
       199 -11.6486     76.0765    219.3222   1.0568534021e+02   1.7774774398e+01      0.53369     0.386169 -77.93  0.002334862    1.440    0.306
       200 -10.3980      2.8926    111.5694   1.1223931952e+02   5.2111668884e+01    0.2577867    0.1900587  45.50 0.0009051375    1.619    0.382
       201  -9.0149     50.2887    111.6968   9.5912752314e+01   4.8015314862e+01    0.1382048    0.1104783  76.08 0.0002793249    1.566    0.361
       202  -9.9385    129.0228    109.1414   7.0444715268e+01   3.4978026643e+01    0.2198487     0.215671  -2.43 0.0002892643    1.020    0.020
       203  -9.5023    100.7624    109.3273   7.8610642126e+01   4.0679219505e+01     0.233537    0.1910851  54.18  0.001054817    1.357    0.263
       204  -9.2700     28.4811    109.5196   1.0310824548e+02   5.0820888937e+01    0.1406488    0.1160971 -48.78 0.0001754722    1.064    0.060
       205  -9.2295     77.4939     16.5367   5.4357687484e+01   6.1331425864e+01    0.1276158    0.1075287  32.22 6.477661e-05    1.022    0.021
       206  -8.9212     76.7032     20.2529   5.6138124174e+01   6.1097001100e+01     0.110918   0.09962498  78.86 0.0001668599    1.493    0.330
       207  -9.8994      6.1664    108.4531   1.1068954209e+02   5.2695206728e+01    0.2115183     0.131271 -74.15 0.0006974951    1.423    0.297
       208 -10.0562     11.2584    107.0746   1.0871903190e+02   5.2726163264e+01    0.2727977    0.1870361 -86.63  0.001052869    1.548    0.354
       209  -9.9943      8.6279    103.1141   1.0900662317e+02   5.3856731762e+01    0.1935828     0.176129  50.11 0.0006620974    1.321    0.243
       210 -11.5235    249.3085    102.4639   4.5993963887e+01   1.1114487296e+01    0.3348808    0.2579169 -38.91  0.001672787    1.147    0.128
