#   1 NUMBER                 Running object number                                     
#   2 MAG_AUTO               Kron-like elliptical aperture magnitude                    [mag]
#   3 X_IMAGE                Object position along x                                    [pixel]
#   4 Y_IMAGE                Object position along y                                    [pixel]
#   5 X_WORLD                Barycenter position along world x axis                     [deg]
#   6 Y_WORLD                Barycenter position along world y axis                     [deg]
#   7 A_WORLD                Profile RMS along major axis (world units)                 [deg]
#   8 B_WORLD                Profile RMS along minor axis (world units)                 [deg]
#   9 THETA_WORLD            Position angle (CCW/world-x)                               [deg]
#  10 FWHM_WORLD             FWHM assuming a gaussian core                              [deg]
#  11 ELONGATION             A_IMAGE/B_IMAGE                                           
#  12 ELLIPTICITY            1 - B_IMAGE/A_IMAGE                                       
         1 -14.9227    168.5069     43.3727   7.2670249571e+01   3.7870869664e+01     1.170532     1.081122   5.64  0.003878984    1.305    0.234
         2 -15.1321    189.2336      9.6577   6.1055987077e+01   3.6836689593e+01      2.66735    0.9800838  66.43  0.008027291    2.235    0.553
         3 -10.2387    138.5508    243.5418   1.2405800889e+02   4.1957747547e+00     0.213562    0.1303314 -56.00 0.0007489865    1.895    0.472
         4 -19.8108     61.2819    168.1955   1.3037751634e+02   3.3231603808e+01     18.92173     6.596727 -66.32   0.07050909    2.730    0.634
         5 -12.3034    151.6542    191.0485   1.1278551527e+02   1.2273450095e+01    0.6217249    0.4330859  85.51  0.002706778    2.131    0.531
         6 -12.1841    155.0670    187.4956   1.1134567397e+02   1.2367154344e+01    0.3747632     0.312934  83.89 0.0008845219    1.384    0.278
         7 -11.6634    151.0341    182.9636   1.1138125966e+02   1.4155408460e+01    0.3588351    0.2731999 -81.83 0.0004228998    1.641    0.391
         8 -10.3780    131.1636    236.0166   1.2451053001e+02   6.8617531794e+00    0.1547188   0.09774249 -56.87 0.0004627314    1.780    0.438
         9 -10.3463    121.1541    197.7404   1.2086918240e+02   1.6583793830e+01     0.195702    0.1745994  77.70  0.000434751    1.065    0.061
        10 -10.4094    112.8150    196.1648   1.2250877121e+02   1.8436184883e+01    0.4588949    0.3158787  -8.08  0.001829538    3.141    0.682
        11 -13.1938    175.3869    186.4942   1.0666912123e+02   8.5356397268e+00    0.5239306     0.367237 -51.31  0.002520717    1.504    0.335
        12 -13.0426    171.0517    179.8082   1.0626842549e+02   1.0801902923e+01    0.5505697    0.4178029  77.68  0.002570335    1.752    0.429
        13 -13.0832    164.2800    186.4451   1.0908840420e+02   1.0759938504e+01    0.5034354      0.44659 -65.86  0.001917532    1.207    0.171
        14 -10.1030    149.7218    229.7132   1.1977705449e+02   4.8032978145e+00    0.2265793    0.1644333 -38.94 0.0009923622    1.641    0.391
        15 -14.9329    100.7142    243.5228   1.3155540828e+02   1.0478539434e+01     0.801645    0.5666283 -56.36  0.004747206    1.650    0.394
        16 -11.0237     12.4496    242.0620   1.4755343566e+02   2.2632952973e+01    0.1352804   0.07393707 -58.73 0.0008043717    2.315    0.568
        17 -12.5216     28.4329    183.6945   1.3991801720e+02   3.3473439289e+01    0.3239315    0.2442015 -87.80 0.0009637074    1.061    0.057
        18 -10.6547     23.1682    182.5731   1.4094431903e+02   3.4275370613e+01    0.1705459    0.1283722 -29.90 0.0004567643    2.075    0.518
        19 -10.6670    107.9584    183.7789   1.2158546886e+02   2.2154218785e+01    0.4053432    0.1987433  37.28 0.0009043264    2.144    0.534
        20 -11.6186    103.4566    195.5254   1.2454431240e+02   2.0213976927e+01    0.3561159    0.2734271  76.67  0.001234768    1.324    0.245
        21 -10.6719      4.1936    180.2632   1.4474527301e+02   3.6554957397e+01    0.2581234    0.1807344 -19.05   0.00154659    2.579    0.612
        22 -12.6100    204.4249    175.5829   9.8364511676e+01   4.9590091050e+00    0.4610167    0.4438907 -78.00  0.001077628    1.168    0.144
        23 -11.9897    196.6423    176.1340   1.0005978521e+02   6.3914494990e+00    0.4764108    0.3932689 -74.46  0.002139435    1.528    0.345
        24 -12.8831    191.8727    163.7674   9.8406992864e+01   9.8678269897e+00    0.7936937    0.4708161 -63.70  0.002422156    2.483    0.597
        25 -12.4610    189.3436    155.2592   9.7058221842e+01   1.2163859421e+01    0.5208849    0.4794453  22.96  0.001530265    1.148    0.129
        26 -11.9346    188.4060    175.9706   1.0173893840e+02   8.0786627786e+00    0.6064367    0.2881374 -57.79  0.002081695    3.111    0.679
        27 -11.9408      9.4279    175.0903   1.4319117935e+02   3.7278724512e+01    0.1879818    0.1530551  60.85 0.0005721176    1.294    0.227
        28 -11.5970    230.2491    167.8173   9.1786958504e+01   1.4785269659e+00    0.3846778    0.1523448 -51.61  0.001293303    3.438    0.709
        29 -11.5101    176.9296    168.8156   1.0268704401e+02   1.1924435812e+01    0.2947964    0.2022468 -72.80  0.001178619    2.096    0.523
        30 -10.5293     25.4205    224.3741   1.4410017665e+02   2.4800807959e+01    0.2470534   0.07821314 -65.21  0.001134016    2.781    0.640
        31 -11.1790     34.2995    168.4035   1.3688944489e+02   3.6434585956e+01    0.2551915    0.1804606  68.53 0.0001624425    1.398    0.285
        32 -10.3316     24.1581    165.7346   1.3894599448e+02   3.8097975148e+01    0.1802618    0.1597317 -21.89 0.0007440245    1.571    0.364
        33 -10.2613      1.7098    165.3690   1.4398331847e+02   4.0125579965e+01    0.1163599    0.1090687 -70.79            0    1.333    0.250
        34 -13.8037    137.9653    171.0620   1.1206732514e+02   1.9447686692e+01    0.7732427    0.5955252  43.78  0.002712992    1.289    0.224
        35 -11.0651    108.9763    240.1978   1.2953058761e+02   9.7890200086e+00    0.1785369    0.1744644  40.32 0.0006680549    1.296    0.229
        36 -12.3228    166.1250    154.3239   1.0191761544e+02   1.7358248474e+01    0.4868682     0.335069  74.42  0.002006038    2.056    0.514
        37 -11.9763    206.2521    208.6336   1.0457188605e+02  -1.5298255984e+00    0.2487789    0.1703009 -50.84  0.001274036    1.705    0.414
        38 -11.3200    174.2844    148.5798   9.8786958636e+01   1.6841545106e+01    0.3917254    0.2836766 -65.79  0.001228628    1.633    0.388
        39 -12.3910    160.3368    127.5529   9.6935404978e+01   2.4539596359e+01    0.4846387    0.3637798 -63.17  0.001382276    1.464    0.317
        40 -11.7069    106.1021    206.1266   1.2555453025e+02   1.7370589968e+01    0.3636721     0.283224 -40.85  0.001442504    1.615    0.381
        41 -14.1452    116.3454    108.9241   1.0322403059e+02   3.8200995940e+01     1.113418    0.6896859  64.08  0.004462678    2.260    0.557
        42 -10.9159    205.1823    110.1971   8.3377157323e+01   1.7783114983e+01    0.3892233    0.2117343  47.10  0.001136679    1.979    0.495
        43 -12.0442    103.7713    202.0787   1.2547200671e+02   1.8672136385e+01    0.3252558    0.2793189  32.54 0.0007067459    1.344    0.256
        44 -12.7837     12.0645    206.0652   1.4521840311e+02   3.0123736868e+01    0.3658454    0.2285367  39.13  0.002088887    1.793    0.442
        45 -11.0075    168.0753    113.1312   9.1556504953e+01   2.5828548262e+01    0.4299682     0.296258 -83.03  0.001416717    2.141    0.533
        46 -11.2732    168.5636    200.1603   1.1077136699e+02   7.0860702073e+00    0.3034368    0.1442441 -46.96   0.00123221    2.215    0.548
        47 -12.3816    170.2800    195.5408   1.0953319972e+02   7.6889027587e+00    0.3969817    0.2840918 -12.10  0.001171445    2.000    0.500
        48  -9.8804      9.1820    201.7269   1.4544410562e+02   3.1346800220e+01    0.1093859   0.06448224  82.18 0.0004391379    1.393    0.282
        49  -9.8084     28.5897    239.3169   1.4462161064e+02   2.1371440751e+01    0.1562267    0.1003249  81.82 0.0008731724    1.229    0.186
        50 -10.6063    146.6833     81.0801   8.7737117246e+01   3.7151754388e+01    0.2090594    0.1995589 -34.22 0.0006283855    1.085    0.079
        51 -10.3869    124.7157     81.0687   9.3139014543e+01   4.2129255856e+01    0.2068422     0.191783 -29.56 0.0006120949    1.090    0.082
        52 -11.3624     95.6690     79.9940   1.0096918460e+02   4.8197171988e+01    0.2728808    0.1998287  41.52 0.0004533882    1.400    0.286
        53 -13.9255    145.2957    174.6973   1.1107115960e+02   1.7148203301e+01     1.243158    0.7091337 -52.66  0.004919908    1.794    0.442
        54 -11.0199    152.0394    197.0130   1.1380180201e+02   1.0925546065e+01    0.3065456    0.2802832  29.37 0.0009690009    1.133    0.117
        55 -14.4362    156.1669     58.0338   7.9074394241e+01   3.8759369376e+01     1.364882     1.131952  52.50  0.002905844    1.154    0.134
        56 -12.3338    125.0755    242.5030   1.2661105264e+02   6.6737692476e+00    0.4735764    0.1704015 -54.98   0.00195435    3.134    0.681
        57 -13.1148    172.7769     35.7991   6.9918423559e+01   3.7820830538e+01    0.3974299      0.36755  84.75  0.000954292    1.055    0.052
        58 -10.8494     13.4634     59.9444   1.2368774077e+02   6.2486712995e+01    0.1894576    0.1591226  -7.30 0.0004043002    1.254    0.203
        59 -11.8519    188.2163     30.6804   6.6335713342e+01   3.4720888345e+01    0.2406813    0.2317629 -85.52 0.0009736551    1.171    0.146
