#   1 NUMBER                 Running object number                                     
#   2 MAG_AUTO               Kron-like elliptical aperture magnitude                    [mag]
#   3 X_IMAGE                Object position along x                                    [pixel]
#   4 Y_IMAGE                Object position along y                                    [pixel]
#   5 X_WORLD                Barycenter position along world x axis                     [deg]
#   6 Y_WORLD                Barycenter position along world y axis                     [deg]
#   7 A_WORLD                Profile RMS along major axis (world units)                 [deg]
#   8 B_WORLD                Profile RMS along minor axis (world units)                 [deg]
#   9 THETA_WORLD            Position angle (CCW/world-x)                               [deg]
#  10 FWHM_WORLD             FWHM assuming a gaussian core                              [deg]
#  11 ELONGATION             A_IMAGE/B_IMAGE                                           
#  12 ELLIPTICITY            1 - B_IMAGE/A_IMAGE                                       
         1 -15.6677     76.5520    199.2020   7.5897117320e+01   2.3063043455e+01     2.379269     1.629625 -60.99  0.009522067    1.492    0.330
         2 -16.6249      9.3660    180.5770   8.9863470696e+01   3.5560751125e+01     2.970574      1.39502 -81.07    0.0150479    1.794    0.443
         3 -14.8356    161.4927     52.2493   2.1092149779e+01   3.8178843371e+01     1.526349    0.8132927 -60.60  0.006207635    2.433    0.589
         4 -14.8052    244.5019     37.4859   6.9868169723e+00   2.1212368621e+01     1.929582    0.6762718 -49.31   0.00875456    2.333    0.571
         5 -13.0503     24.2272     32.0084   5.6737630751e+01   6.7826690222e+01    0.6550027    0.5430434 -80.78  0.004169718    2.210    0.547
         6 -11.7734      1.5560      9.2516   5.9315980173e+01   7.3350649031e+01    0.4230689     0.106403 -45.62  0.001944642    3.307    0.698
         7 -12.1521      2.9005      2.3529   5.5219218371e+01   7.4207222859e+01    0.2907682       0.1814   4.39  0.001682462    1.400    0.285
         8 -13.1743      3.0633     19.6040   6.2858288441e+01   7.1658362554e+01    0.5950306    0.2936147 -39.04  0.003137692    1.617    0.382
         9 -12.0246      7.8182     11.1021   5.6522096713e+01   7.2574698527e+01    0.3309672    0.1477437 -41.14  0.001928988    1.982    0.495
        10 -12.6779     42.4810     19.7967   4.3090994282e+01   6.7380391476e+01    0.6165476    0.3302407 -18.41  0.003254787    2.113    0.527
        11 -12.8518     55.7755     19.9611   3.7687183019e+01   6.5311291314e+01    0.4791225    0.4312015  -7.46  0.002467933    1.197    0.165
        12 -12.6807     31.2085     18.2995   4.7573376378e+01   6.9092255174e+01    0.5604321    0.4923818  33.34  0.003229054    1.497    0.332
        13 -13.5147     36.8950      5.0669   3.8634332925e+01   6.9943418107e+01      0.80611    0.4339752  30.18   0.00471379    1.646    0.392
        14 -14.0119     25.1974      7.1734   4.5257287394e+01   7.1269969765e+01    0.8691028    0.5637333  15.82  0.005079503    1.353    0.261
        15 -13.5527     15.8341      2.5810   4.7858058232e+01   7.2918160307e+01    0.6567677    0.3144988  28.62   0.00354152    1.935    0.483
        16 -14.0612      4.3938     37.4351   6.8531877582e+01   6.8520835998e+01    0.8246686    0.5478668 -63.92  0.004337694    1.757    0.431
        17 -11.6201     57.5909      2.3040   2.9038168034e+01   6.6876154157e+01    0.3776045    0.1656784  46.32  0.001983148    1.910    0.476
        18 -12.3659    112.9859    229.3461   7.1497285973e+01   1.0713708882e+01    0.4611396    0.3883626  -5.06  0.002674118    1.614    0.381
        19 -12.3191    134.7849    249.1280   6.9446253051e+01   3.4853912376e+00    0.4566266    0.2897613  38.01  0.001931487    1.331    0.248
        20 -12.4918    108.6187    248.4612   7.4740960263e+01   7.6842198281e+00    0.6202837    0.3915189  47.37  0.003500113    1.323    0.244
        21 -12.1576      2.6954    248.7178   9.5241450355e+01   2.1394355732e+01    0.3156122    0.1845153  81.00  0.001515575    1.343    0.255
        22 -12.9014    158.7153    227.0904   6.1329448581e+01   3.5776273978e+00    0.4204084      0.34078  58.49  0.002440513    1.380    0.276
        23 -15.0857     33.4861    213.5788   8.7141911156e+01   2.5442772477e+01     1.919622    0.8124614 -78.90  0.009009612    2.243    0.554
        24 -13.3287    130.5996    222.0514   6.6634605771e+01   9.2776816717e+00    0.7347558    0.6110084 -75.84  0.003293363    1.367    0.269
        25 -14.2255    195.0250    211.1275   5.1159827924e+01   4.0424453425e-01     1.285985    0.6321809 -38.54  0.005898658    2.099    0.524
        26 -12.4506    187.3272    202.1632   5.1106960564e+01   3.3258023202e+00    0.4496741    0.3243388  38.53  0.002095937    1.348    0.258
        27 -12.6851    217.9318    217.9410   4.7934637925e+01  -4.3427336452e+00    0.3691664    0.2192801 -18.18  0.001874072    1.963    0.490
        28 -13.0770    117.8654    216.7102   6.8697176416e+01   1.2520399695e+01    0.6210482     0.557052  54.11  0.003106023    1.006    0.006
        29 -13.2949    165.3578    207.7314   5.6731389922e+01   6.1052444318e+00    0.9349763    0.5759503 -25.22    0.0041909    2.224    0.550
        30 -13.6239    215.7397    208.8354   4.6725086040e+01  -2.5275669815e+00     0.737123    0.3560444 -35.14  0.003469105    2.057    0.514
        31 -12.5264    249.6994    208.4296   4.0603255730e+01  -7.4126646346e+00    0.4746838    0.1864756 -34.28  0.002210401    2.327    0.570
        32 -13.0284    240.1620    207.3194   4.2030980869e+01  -5.9221769856e+00    0.3290019    0.2252463  13.84  0.001943109    1.504    0.335
        33 -13.1588    171.2496    214.7784   5.6682365031e+01   3.7411566967e+00    0.6323935    0.4718073  18.67  0.002862023    1.404    0.288
        34 -12.7161    209.2593    195.6109   4.5518367528e+01   7.8689089397e-01    0.3474946    0.2517396  41.02  0.001912452    1.445    0.308
        35 -11.6352     51.1500    194.7910   8.1403560478e+01   2.7638038684e+01    0.3284383    0.2614959  86.21  0.001498126    1.095    0.087
        36 -12.1647    142.0527    191.3553   5.9064638228e+01   1.3709922819e+01      0.31295    0.2587516  64.31  0.001558993    1.295    0.228
        37 -12.8052    134.8507    184.8081   5.9579747411e+01   1.6501563098e+01    0.5742903      0.41539  40.29  0.002805046    1.335    0.251
        38 -12.9786    230.2697    184.4957   3.9505559488e+01  -7.1070340910e-01     0.272821    0.2364656 -19.97  0.001704039    1.016    0.016
        39 -12.5112    102.9572    181.3643   6.6801328668e+01   2.3066847784e+01    0.7959898    0.3555706  50.41  0.002993496    2.373    0.579
        40 -14.1755    245.6012    174.4207   3.4938395584e+01  -1.4221624824e+00    0.7480405    0.6181957  42.49  0.004712902    1.430    0.301
        41 -13.4210     81.9362    168.1730   7.0052602534e+01   2.9783889642e+01     1.063058    0.6521456  59.58  0.004749998    1.796    0.443
        42 -12.7707    150.2368    166.1085   5.2294349931e+01   1.7748942521e+01     1.067598    0.4556842 -44.87  0.003857655    2.412    0.585
        43 -12.2713    197.5462    169.0178   4.2575106140e+01   7.8436937902e+00    0.3682925    0.2853127 -54.01  0.001915638    1.384    0.278
        44 -11.6456     39.1952    165.7728   8.1034685531e+01   3.6183141918e+01    0.3524134    0.2337263  74.49 0.0006712321    1.519    0.342
        45 -13.1552     59.8378    158.8849   7.4549038580e+01   3.5362567631e+01     1.051464    0.4754096  45.72   0.00434781    2.255    0.556
        46 -12.8768     59.9525    152.5146   7.3522636793e+01   3.6962110275e+01    0.7409174    0.4337526  80.28  0.001954884    2.282    0.562
        47 -11.3431     47.6194    160.9685   7.8175696294e+01   3.6400736657e+01    0.2173535     0.194959 -16.22 0.0005562262    1.439    0.305
        48 -13.0828     69.9956    147.0055   6.9735628123e+01   3.6948076940e+01    0.6152658    0.3887821 -58.32   0.00247816    1.473    0.321
        49 -14.1864     93.7731    202.5075   7.2253344700e+01   1.9624452855e+01     1.692063    0.9495195 -37.29  0.006903036    2.848    0.649
        50 -12.9297     45.5422    148.4429   7.6970171866e+01   3.9812124390e+01    0.4415785    0.2938204 -23.90   0.00119219    2.247    0.555
        51 -12.6972     15.8927    141.4893   8.4442086184e+01   4.4500606993e+01     0.732502    0.2993023 -69.99  0.003316158    1.986    0.497
        52 -15.6137     16.8343    210.4706   9.0417521436e+01   2.7957451611e+01     1.385247    0.7963253  75.49  0.006635291    1.497    0.332
        53 -11.9274    241.0000    138.9883   2.8572297922e+01   5.4668528040e+00    0.2336869   0.06760874 -40.68 0.0008088251    2.987    0.665
        54 -11.9647     74.8749    134.4196   6.5922473138e+01   3.9396822431e+01    0.2799626    0.2520147 -38.03 0.0004381509    1.196    0.164
        55 -11.5991    250.3036    127.3486   2.4796770254e+01   5.8588150431e+00    0.3910928    0.1057591 -39.06  0.001349539    3.248    0.692
        56 -13.8303    153.4949    114.4310   3.9625296428e+01   2.8610255753e+01     1.357485    0.4859661 -47.81  0.004359963    2.824    0.646
        57 -13.3177    146.2469    105.7139   3.9089037563e+01   3.2116020122e+01    0.7311504    0.4963856 -47.32  0.003274475    1.462    0.316
        58 -13.1195     15.8219     98.8898   7.8325209468e+01   5.4833420144e+01     1.071158    0.3334873 -69.99  0.004003485    3.135    0.681
        59 -11.9968     22.0539     90.1039   7.4405071232e+01   5.6396000010e+01    0.4154201    0.2646372 -56.80  0.001957931    1.307    0.235
        60 -13.0775    106.2172     86.6282   4.4416255240e+01   4.4905901146e+01    0.8468828    0.6868753 -46.00  0.004340654    1.236    0.191
        61 -11.0862      6.3342     90.3133   8.0208054937e+01   5.7436695057e+01    0.1325184   0.07261358 -41.21 0.0006574185    1.684    0.406
        62 -13.7934    130.2508     93.9215   3.9874936835e+01   3.8210097466e+01    0.9257378    0.8361265  79.35  0.003869853    1.157    0.136
        63 -13.7058      3.5169     55.8889   7.4173057637e+01   6.5027916766e+01    0.7858648    0.5328747 -23.08  0.003837197    1.395    0.283
        64 -12.7324      9.6646     79.4454   7.6918793895e+01   5.9680426544e+01    0.4630152    0.3994468 -66.80  0.002624578    1.158    0.136
        65 -13.7156      6.3039     70.1047   7.6296624096e+01   6.1914823061e+01    0.9302995    0.6123577  80.95  0.005174241    2.254    0.556
        66 -11.8193    147.2639     86.1253   3.3539300134e+01   3.5833293776e+01    0.5284347    0.2785646 -47.76  0.002124393    1.943    0.485
        67 -12.2479     46.4531     83.4263   6.3706038035e+01   5.5469880772e+01    0.4157886    0.3434539  49.08  0.002437653    1.440    0.306
        68 -12.7332    174.5370     75.6928   2.5074914796e+01   3.1217046725e+01    0.4437332    0.4221022  47.41  0.002353309    1.185    0.156
        69 -11.9066     23.7415     73.7510   7.0054523234e+01   5.9893982642e+01    0.4683266    0.2476796 -57.97  0.002429925    1.660    0.397
        70 -12.5082     23.4384     65.7677   6.8114108921e+01   6.1605278722e+01    0.5357607    0.2973601 -56.00  0.002527524    1.607    0.378
        71 -12.3265     19.9948     62.7223   6.8749041973e+01   6.2518821480e+01     0.455493    0.3234939   8.60  0.002832605    1.517    0.341
        72 -13.6638    197.2919     72.9987   2.0542044150e+01   2.6286708012e+01    0.5216987    0.3998114 -84.11  0.002757269    1.332    0.249
        73 -12.8400     34.7221     68.6751   6.4255134879e+01   5.9933625963e+01    0.5442985    0.4551961 -78.64   0.00262226    1.525    0.344
        74 -12.8689    214.0752     66.9100   1.6676778907e+01   2.3444562458e+01      0.45967    0.2696544 -24.61  0.002035561    2.429    0.588
        75 -11.6938     87.4261    242.7276   7.8487933934e+01   1.1989162644e+01    0.3624996     0.303344 -82.57  0.001732916    1.267    0.210
        76 -12.2200     19.1277     53.7583   6.6581975010e+01   6.4381275392e+01      0.43396     0.236585  46.18  0.002169674    2.847    0.649
        77 -12.3119     55.5294    232.6533   8.4122211999e+01   1.8540718724e+01     1.255316    0.5995816 -80.35  0.006137875    2.226    0.551
        78 -14.0236     76.8018    229.4897   7.9343846480e+01   1.6258049142e+01      1.00758    0.6554526  80.10  0.004133509    1.617    0.382
        79 -11.7740    123.9619     35.8672   2.3627463891e+01   4.9483738716e+01    0.3465076    0.2265514  73.91  0.001704417    1.705    0.413
        80 -12.6025    112.2712     35.4240   2.6209913106e+01   5.2224547114e+01    0.4816588    0.1992015  66.33  0.001689162    3.380    0.704
        81 -13.7624    100.2395    218.4819   7.2904616624e+01   1.5032671378e+01     2.056726    0.9807844 -46.30   0.00868668    2.696    0.629
        82 -10.8841     74.8019    246.8519   8.1469578220e+01   1.3000551267e+01     0.179143    0.1648472  59.70  0.001237097    1.227    0.185
        83 -14.1168      4.2034    222.3056   9.3669850234e+01   2.6633142453e+01     1.166019    0.5265263 -81.07  0.006436137    1.882    0.469
        84 -14.4949     63.0739    186.6293   7.7562515401e+01   2.8012871189e+01     1.917675     0.499354 -56.54  0.006441437    3.546    0.718
        85 -14.2884     50.1540    176.5682   7.9535950068e+01   3.2191444450e+01     1.448501     1.094701  24.46  0.007998849    1.617    0.381
        86 -11.7436    157.9930    246.0251   6.4286654313e+01   3.6204662659e-01    0.2062817    0.1493342   3.62  0.001147999    1.733    0.423
        87 -14.3487     29.6974    192.8605   8.6213200152e+01   3.0643822769e+01    0.8690331    0.6524529  51.52  0.003585716    1.280    0.219
        88 -12.7101    142.2770    236.6145   6.6208957193e+01   4.5382947811e+00    0.4126306    0.2918647  64.58  0.002223324    1.723    0.420
        89 -13.1720    156.0347    234.8408   6.3069460631e+01   2.6159564094e+00    0.5137066    0.3094597  15.03  0.002360237    2.340    0.573
        90 -12.2692     16.7840    232.6626   9.1840987707e+01   2.3171041434e+01    0.4412447    0.2463896  72.78  0.002112373    1.482    0.325
        91 -14.3541    181.6298     48.2962   1.6723553817e+01   3.3862047052e+01     0.941315     0.508107 -74.38  0.003791122    2.623    0.619
        92 -13.6102    152.4748     39.9059   1.9192934185e+01   4.2124597876e+01    0.8909843    0.5317418  60.69  0.004345394    1.515    0.340
        93 -14.9340     55.1383    213.3697   8.2417204348e+01   2.2804643618e+01     3.141178     1.181457  64.83   0.01041142    4.264    0.765
