#   1 NUMBER                 Running object number                                     
#   2 MAG_AUTO               Kron-like elliptical aperture magnitude                    [mag]
#   3 X_IMAGE                Object position along x                                    [pixel]
#   4 Y_IMAGE                Object position along y                                    [pixel]
#   5 X_WORLD                Barycenter position along world x axis                     [deg]
#   6 Y_WORLD                Barycenter position along world y axis                     [deg]
#   7 A_WORLD                Profile RMS along major axis (world units)                 [deg]
#   8 B_WORLD                Profile RMS along minor axis (world units)                 [deg]
#   9 THETA_WORLD            Position angle (CCW/world-x)                               [deg]
#  10 FWHM_WORLD             FWHM assuming a gaussian core                              [deg]
#  11 ELONGATION             A_IMAGE/B_IMAGE                                           
#  12 ELLIPTICITY            1 - B_IMAGE/A_IMAGE                                       
         1 -12.3823     75.2407     52.0105   7.6132147989e+01   5.7580823577e+01     1.309676    0.8798661 -42.67  0.006414541    1.622    0.383
         2 -13.4300     42.3930     45.6641   8.8097018876e+01   6.4284623949e+01     1.177957    0.6364038  44.39 0.0007358499    2.381    0.580
         3 -12.9233    116.0580     41.2316   5.9328236538e+01   5.0162944139e+01     1.089121    0.7476029 -53.10  0.004153994    1.777    0.437
         4 -12.5786    131.7485     15.0724   4.7084605664e+01   4.9271425693e+01       1.4246    0.5760632  63.47  0.002479425    2.072    0.517
         5 -10.6665    146.8387     16.4551   4.5233691976e+01   4.5414646767e+01    0.4425116    0.3125181  57.82  0.002482743    1.300    0.231
         6 -11.8485    150.1434     24.1090   4.7079314117e+01   4.3826719335e+01     1.692179    0.6159662  61.18  0.006877565    2.331    0.571
         7 -11.4141    137.0958     22.6452   4.8680133505e+01   4.7199116366e+01     0.921258    0.3481968  52.47  0.003604526    2.344    0.573
         8 -11.3092    164.0490     27.8692   4.6207823699e+01   4.0033652575e+01    0.3695029    0.2649456 -25.98  0.000448773    1.556    0.357
         9 -11.5645      7.1728     32.4413   1.0306847385e+02   7.0532614345e+01     1.916342    0.4556793 -48.10  0.007624919    2.908    0.656
        10 -10.4410     47.1603     18.9699   7.3405621161e+01   6.7877620270e+01    0.3663318    0.3027785 -10.13  0.001317432    1.180    0.152
        11 -11.8863     26.2932     27.7512   8.9132129155e+01   6.9624722393e+01    0.5263996     0.436869  12.39  0.002279537    1.195    0.163
        12 -12.1655     36.7582     18.0718   7.8269189991e+01   6.9718149763e+01    0.8661183    0.6381015 -24.17  0.005258505    1.332    0.249
        13 -12.9087     16.1411     12.8847   8.8091276260e+01   7.3257866519e+01     1.157051    0.6244562 -18.58  0.003800352    1.900    0.474
        14 -11.0876    105.8574     20.5102   5.4097889940e+01   5.5097977374e+01    0.4144722    0.3331619 -28.34 0.0008741799    1.395    0.283
        15 -12.3028    113.2264     25.4085   5.4261604684e+01   5.2788027953e+01    0.8262825    0.3886956  54.64    0.0031468    1.811    0.448
        16 -10.9768    198.5266     29.0812   4.2504042451e+01   3.1910147614e+01    0.4983955    0.3231251 -23.58  0.002166805    1.784    0.440
        17 -12.3141     48.7977     12.9344   6.9457380321e+01   6.8344335290e+01    0.6201263      0.30856  45.08   0.00223708    1.835    0.455
        18 -10.7242    214.7368     23.6498   3.9763934858e+01   2.9032302628e+01    0.4442689    0.3251861   3.18  0.002604471    2.172    0.540
        19 -11.8753     20.2157     21.8697   9.0061290914e+01   7.1335846204e+01    0.7218269    0.2784894 -42.50   0.00329555    2.395    0.582
        20 -12.0680     22.9156     11.5114   8.2834669661e+01   7.2642305823e+01    0.5442333    0.3626184  -1.88  0.002003986    1.370    0.270
        21 -11.1660     87.0482      7.5021   5.3383031528e+01   6.0786281643e+01    0.5932346    0.3300454  64.10  0.002211452    1.680    0.405
        22 -11.3056     90.8371     21.4775   5.8334436709e+01   5.8550448291e+01    0.5877771    0.3682165 -19.80  0.002327302    1.795    0.443
        23 -11.2571     86.0883     14.1563   5.6543208344e+01   6.0401980485e+01     0.765335    0.4427378  21.22  0.003232754    2.092    0.522
        24 -10.9383    178.9597     21.0475   4.2542832629e+01   3.7233505912e+01    0.5534237     0.248223  48.91  0.002037368    2.576    0.612
        25 -11.9956     68.1702     17.9456   6.4035005296e+01   6.3950346997e+01    0.5319356    0.4589236  38.47  0.001876412    1.119    0.106
        26 -12.1702    237.9059     16.0717   3.6479693109e+01   2.5218404126e+01    0.6426442    0.3692534  79.59  0.003174261    1.734    0.423
        27 -11.3043    165.0848     17.9664   4.3300346927e+01   4.0831072754e+01    0.4440987    0.2520736  47.87  0.001606314    1.916    0.478
        28 -11.1121    226.2755     15.1831   3.7065436937e+01   2.7578618130e+01    0.4152326    0.2146677 -54.05  0.002067886    1.648    0.393
        29 -11.5919    192.5210      9.0283   3.8237585810e+01   3.5338571674e+01    0.8386375    0.4453687 -12.19  0.004065379    2.880    0.653
        30 -12.2944    104.6062     12.7480   5.1374423883e+01   5.6153510695e+01    0.4949656     0.448013 -42.12  0.001750072    1.281    0.219
        31 -12.2077    245.7221      6.4983   3.4159179677e+01   2.4730455998e+01    0.5853465    0.4667871 -63.18  0.003545468    1.062    0.059
        32  -9.2537      4.6957     11.2563   9.5479079817e+01   7.4637131369e+01    0.4006891    0.2105876 -36.64  0.002281237    1.599    0.374
        33 -11.4741    211.8922      9.4443   3.6840516201e+01   3.1102820995e+01    0.4959108    0.3144986  -1.58  0.001960848    2.766    0.638
        34  -9.2545     94.2978     12.2420   5.3566219331e+01   5.8667005382e+01    0.1710398    0.1464885  84.59 0.0005546241    1.334    0.250
        35  -9.9504     65.9019     10.2957   6.1131435535e+01   6.5242579949e+01    0.3342372    0.1929415  56.37 0.0009655178    1.689    0.408
        36 -10.0970     62.9048      6.6251   6.0357691879e+01   6.6227325999e+01    0.3310349    0.2084748  24.98  0.001347885    1.536    0.349
        37  -9.6608    168.6784      9.7277   4.0641269385e+01   4.0765365110e+01    0.3145891    0.1486459  52.38  0.001493611    2.177    0.541
        38  -9.1977    163.1125     10.1215   4.1348098394e+01   4.2055149212e+01    0.1913999    0.1583899  56.76  0.000616743    1.243    0.195
        39  -9.4881      1.1279      7.5093   9.6267989472e+01   7.5550851945e+01    0.2782916   0.07752254 -49.92  0.001093692    3.347    0.701
        40 -11.3306      3.0572      1.8733   9.1485751184e+01   7.6292668079e+01    0.4902667    0.1842044  16.39  0.002265948    2.771    0.639
        41  -9.9251     12.9867      1.8088   8.3772852001e+01   7.5256842194e+01    0.3940481    0.1629633  29.00  0.001940693    2.199    0.545
        42 -10.6635    237.1019      5.2508   3.4384476302e+01   2.6467804422e+01    0.2694127    0.1662367 -51.48  0.001809789    1.296    0.228
        43 -10.9377    232.4369      7.3762   3.5073132785e+01   2.7156104510e+01    0.3404381    0.2004752 -65.63  0.001721908    1.455    0.313
        44 -10.1630    228.3336      3.4760   3.4525700343e+01   2.8338363350e+01    0.2737673    0.1901986 -42.14  0.001836686    1.323    0.244
        45 -11.0028    218.8034      3.7130   3.5145531197e+01   3.0226264350e+01    0.3043446    0.2483227 -40.96  0.001038469    1.282    0.220
        46 -10.5638    223.4686      1.9910   3.4504808916e+01   2.9445940258e+01    0.2735592    0.1804958  82.63  0.001301476    1.412    0.292
        47  -9.4857     78.2221      7.4343   5.5777535866e+01   6.2815526266e+01    0.2816291    0.1613875  60.67  0.001388906    1.623    0.384
        48 -11.2575     75.2650      3.3014   5.4705150437e+01   6.3828905156e+01    0.7505188    0.2906005  50.52  0.003351175    1.995    0.499
        49 -10.4149    183.8689      4.8163   3.7938979888e+01   3.7680004768e+01    0.4141836    0.2519173 -36.33  0.002054187    1.648    0.393
        50  -9.9224    154.2518      7.2937   4.1553620454e+01   4.4442245266e+01    0.4656087    0.1534772  70.44  0.001861182    2.594    0.615
        51  -8.9081    115.2990      7.2996   4.7202293936e+01   5.4012994423e+01    0.1916585    0.1377949  -6.25 0.0005426782    1.680    0.405
        52 -10.9105    114.3767      3.6668   4.6042861541e+01   5.4526479887e+01    0.4930862    0.1792191  56.86  0.001026517    2.133    0.531
        53 -11.0791    106.2997      1.9050   4.6838756323e+01   5.6631033232e+01    0.6710726    0.2944725  72.46  0.001963285    2.201    0.546
        54 -11.0435     41.6970      4.1734   6.7922174633e+01   7.0617624111e+01    0.4350355    0.2442923  11.01  0.002188032    2.063    0.515
        55 -10.4408    169.3280      2.4672   3.8635298054e+01   4.1252789295e+01    0.2983223    0.1694431 -62.35 -7.387413e-05    1.784    0.439
        56 -12.3631    134.1808      2.5746   4.2633356133e+01   4.9737196028e+01    0.4780746    0.2584088  72.11  0.001169312    1.593    0.372
        57  -9.8120    142.7027      3.2177   4.1729660029e+01   4.7595534665e+01    0.3709909    0.2222395  70.42   0.00198628    1.420    0.296
        58 -10.4973    122.1424      5.0551   4.5240890484e+01   5.2509332886e+01    0.2204705    0.1616724  68.62 0.0003030426    1.171    0.146
        59 -11.2225    206.6801      2.4440   3.5656283587e+01   3.2870081732e+01    0.4855587    0.1923391  83.01  0.001487314    2.459    0.593
        60  -9.6938    158.2762      2.3706   3.9704239864e+01   4.3886882190e+01    0.3466513    0.1674262  51.81  0.001685667    2.083    0.520
        61  -9.2630    151.9975      1.2869   4.0067273701e+01   4.5487019801e+01    0.2489478    0.1024742  80.88 0.0009178699    2.378    0.580
        62  -9.1228     55.0418      4.2009   6.2058705444e+01   6.8068895108e+01     0.156571    0.1361462  53.38  0.001002227    1.332    0.249
        63  -9.9503     82.2371      1.2838   5.1862945568e+01   6.2398040744e+01    0.2103688   0.09816546  60.02 0.0003344251    1.789    0.441
        64 -10.9670    176.8956      5.8008   3.8802700493e+01   3.9194730746e+01    0.3515514      0.18734  87.30    0.0012034    1.800    0.444
        65  -9.8991     42.2912    149.1886   1.1321371776e+02   3.9307624407e+01    0.3693246    0.1607512  34.24  0.001040954    2.224    0.550
        66 -10.2351    143.0487    249.1192   1.0073712631e+02   4.0988791574e+00    0.2363997    0.1780957 -25.94  0.001494585    1.465    0.317
        67 -11.2366     46.5243    146.5585   1.1150034877e+02   3.9533121312e+01    0.8522521    0.3555038 -63.46   0.00337151    2.201    0.546
        68  -9.6478    215.1958    151.3915   6.8470383554e+01   9.9518687806e+00    0.1680662    0.1294676  48.19 0.0005992922    1.619    0.382
        69  -9.5548     71.6987    151.1185   1.0429260966e+02   3.5209303048e+01    0.3511004    0.2547435  -2.87  0.001634269    1.714    0.417
        70  -9.8322    234.3997    150.0753   6.4982686664e+01   7.1250784531e+00    0.2757231     0.146747 -21.67  0.001309392    2.030    0.507
        71 -10.8287    249.4295    143.0608   6.1311901621e+01   5.9689277831e+00    0.6015404    0.2036627 -37.45  0.002611207    2.390    0.582
        72  -9.4553    107.6165    146.0568   9.2419606183e+01   3.0745531519e+01     0.257811    0.2087193  45.32 0.0005915171    1.282    0.220
        73 -10.7104     33.4601    144.4471   1.1538221337e+02   4.1409567798e+01    0.4665278    0.2632819  44.52  0.002116096    1.852    0.460
        74  -9.6711    239.8394    146.7158   6.3458051456e+01   6.8281848466e+00     0.215065    0.1469965 -24.54 0.0006039735    1.251    0.201
        75  -9.9735    133.0746    140.5777   8.4067706944e+01   2.7281869645e+01    0.3223716    0.2368172 -43.87  0.001174434    1.367    0.268
        76 -11.0320     22.7381    127.1064   1.1666485563e+02   4.6833047001e+01    0.3223232    0.2337347  30.28 0.0003096325    1.485    0.326
        77 -12.2164     18.7747    122.3863   1.1741890728e+02   4.8353217888e+01    0.2929732    0.2271295 -68.47 0.0003086477    1.149    0.130
        78 -10.0175     27.2949    140.0547   1.1680822883e+02   4.3098778903e+01    0.3233073    0.2971349 -24.82  0.001391006    1.184    0.155
        79 -11.5433     23.3290    135.3630   1.1752351584e+02   4.4642002483e+01     1.047999    0.3998345  30.71  0.004288898    2.580    0.612
        80 -11.8978     30.0335    132.8456   1.1495634861e+02   4.4735746869e+01    0.4535685    0.3599862  84.12 0.0003718084    1.312    0.238
        81 -10.0246    216.6765    137.7947   6.5326090315e+01   1.1994676447e+01    0.3780642     0.201661 -42.33  0.001415554    1.743    0.426
        82  -9.8088     80.2208    136.7477   9.8875162759e+01   3.7601304437e+01     0.473361    0.2930879 -25.01   0.00189571    2.171    0.539
        83 -10.4977     67.2088    135.7555   1.0292949381e+02   3.9761417082e+01    0.4468601    0.2293244 -46.90  0.001082484    1.929    0.482
        84 -10.3379     47.3739    135.8128   1.0956224969e+02   4.2230299104e+01    0.5108317     0.205215 -60.16  0.001405125    2.222    0.550
        85  -9.9996     39.7870    138.0632   1.1244168659e+02   4.2452275111e+01    0.3159045    0.2064392  25.41 0.0006749377    1.607    0.378
        86 -10.7418     94.0154    132.0191   9.3455650132e+01   3.6526178385e+01    0.5311459    0.2243127 -46.52  0.001097924    2.349    0.574
        87  -9.0868     92.4557    128.5273   9.3153724938e+01   3.7651461903e+01    0.2502957    0.2440196  15.58 0.0009535606    1.040    0.038
        88  -9.9808     73.8316    132.5133   1.0009312954e+02   3.9641257876e+01    0.3593363    0.2624707  -2.64  0.001644223    1.672    0.402
        89  -9.8690     61.7241    132.1445   1.0407426992e+02   4.1433244721e+01     0.523905    0.3479624 -25.34  0.002329629    1.833    0.454
        90  -9.7007     39.1790    132.9749   1.1187858282e+02   4.3840175472e+01    0.2726987    0.2002137  23.89 0.0007084532    1.446    0.308
        91  -9.4318    103.9292    130.8766   9.0120891426e+01   3.5046504890e+01    0.2337333    0.2030381  -0.53 0.0003780236    1.208    0.172
        92 -10.9151     10.3691    128.0198   1.2098153357e+02   4.7452475325e+01    0.6028746    0.2631795 -63.89  0.002708543    1.891    0.471
        93  -9.5389     78.8411    128.8461   9.7658066556e+01   3.9808215668e+01    0.3055542    0.1982652 -40.79 0.0003833701    1.577    0.366
        94  -9.8976     81.5479    125.2519   9.5961645341e+01   4.0280936565e+01    0.3483075    0.2956123  12.02   0.00139118    1.225    0.184
        95 -10.1946    240.1678    127.0387   5.9392974265e+01   9.8344202451e+00    0.3046699    0.2110719 -47.15  0.001777596    1.444    0.307
        96  -8.9902    223.9959    126.9463   6.1793766310e+01   1.2534608580e+01    0.1993252    0.1480001 -57.21 0.0005295686    1.638    0.390
        97  -9.7556      4.6557    121.7993   1.2225251833e+02   4.9374606473e+01    0.3472228    0.1997759  88.00  0.001713322    1.763    0.433
        98  -9.9595     49.4132    123.2340   1.0665959465e+02   4.5270461872e+01    0.3444064    0.2611747   4.15  0.001280143    1.480    0.324
        99 -10.8675     45.3240    120.1284   1.0754635195e+02   4.6539459042e+01     0.634936     0.363808  89.42  0.002396457    2.619    0.618
       100  -9.4494     53.5002    124.5015   1.0545324336e+02   4.4455150093e+01    0.3637047    0.2429629 -67.30  0.001314091    1.513    0.339
       101  -9.8226     56.4625    122.4516   1.0400561914e+02   4.4616057487e+01    0.3777063    0.2486919  41.16  0.001754987    1.612    0.380
       102  -9.5061     33.4020    126.2287   1.1283121049e+02   4.6157698076e+01    0.1957836    0.1294364 -82.16 0.0005904541    1.597    0.374
       103 -12.1015    104.0282    122.4671   8.8064020167e+01   3.7032369004e+01    0.4868279    0.4192826 -16.26  0.001443749    1.211    0.174
       104  -8.7736     94.2622    123.3387   9.1354164573e+01   3.8602644540e+01    0.1604082    0.1178106 -21.52 0.0003968284    1.587    0.370
       105  -9.7758     70.9241    121.1915   9.8662132552e+01   4.2946239341e+01    0.3398335    0.2265415 -14.35   0.00130627    1.984    0.496
       106 -10.0407      3.0724    126.5634   1.2326412257e+02   4.8238408590e+01    0.3478114    0.2190804  58.31  0.001834297    1.730    0.422
       107  -9.2442     62.9367    120.2654   1.0126020337e+02   4.4322403597e+01    0.1942101    0.1849512  -2.16  0.001062384    1.058    0.054
       108 -10.4790     33.4981    119.2510   1.1168160969e+02   4.7966807126e+01    0.3537528    0.2672976  59.79   0.00150654    1.520    0.342
       109  -9.3999    210.4928    118.0189   6.2002154511e+01   1.6434918941e+01    0.2012653     0.104315 -54.34 0.0007045905    2.595    0.615
       110  -9.2680     58.5456    117.7275   1.0228885512e+02   4.5560666886e+01    0.2959436     0.129588 -53.89  0.001128117    2.082    0.520
       111  -9.6863    113.9350    115.5741   8.3298716866e+01   3.6713114483e+01      0.31007    0.2174352 -28.46  0.001163355    1.578    0.366
       112  -9.4622     79.4914    114.3675   9.4097781549e+01   4.3314963951e+01    0.3362346     0.209364 -40.79  0.001442314    1.619    0.382
       113  -9.8952     66.9846    112.2744   9.8021176598e+01   4.5772148675e+01    0.5795619    0.3800621 -68.17   0.00255174    1.763    0.433
       114 -11.1415     50.9975     96.2851   1.0024975710e+02   5.1932126710e+01     1.663702    0.5797405 -52.63   0.00594983    2.516    0.603
       115 -10.9978     16.4109    109.8584   1.1653979790e+02   5.1754838989e+01    0.4154365    0.3078435  27.03  0.001413785    1.495    0.331
       116 -11.6789     17.0549    101.0019   1.1492246420e+02   5.3982665396e+01    0.3912909    0.3035441   8.99 0.0003449055    1.425    0.298
       117 -10.2370     18.5384    106.0403   1.1514893550e+02   5.2593009787e+01     0.217024    0.1934914  28.40 0.0002835112    1.257    0.204
       118 -11.1228      9.6086     97.3906   1.1733174696e+02   5.5349220718e+01    0.6957443    0.5503649  19.77  0.001697222    1.430    0.301
       119 -11.7697      6.9978     88.5806   1.1703212489e+02   5.7698940188e+01    0.5930094    0.4362055  16.89  0.002147335    1.535    0.348
       120 -11.0901     42.2854     94.1184   1.0326489969e+02   5.3500228362e+01    0.3391254    0.2887416  56.23  0.000430915    1.408    0.290
       121 -10.6613     26.0683     85.5304   1.0819136247e+02   5.7200756454e+01    0.7962191    0.4997683  22.13  0.004027415    1.699    0.411
       122 -11.9556     35.1040     93.6691   1.0613647644e+02   5.4362687790e+01     1.321254    0.8590345 -60.90  0.004717089    1.445    0.308
       123 -11.7400     24.8279    113.6718   1.1396729435e+02   5.0159049404e+01     1.148423    0.4488934   1.66  0.003801594    4.203    0.762
       124 -12.2207     25.2664    108.2789   1.1292168323e+02   5.1517368893e+01    0.9817583    0.6300588 -34.72  0.004327846    1.585    0.369
       125 -11.7868     18.2821     90.2273   1.1252278591e+02   5.6623843585e+01    0.5228977    0.2858175 -57.69  0.001229816    1.537    0.349
       126 -12.0353     44.2360     84.9049   1.0013717386e+02   5.5526055516e+01    0.6512045    0.4873397  13.69  0.002303493    1.381    0.276
       127 -10.8157     37.6907     86.1479   1.0327252571e+02   5.5955539714e+01    0.3374657    0.2673637  28.53 0.0006736093    1.358    0.264
       128  -9.9353      7.0258    114.4759   1.2060546355e+02   5.1126902702e+01    0.3221601    0.2274815  18.94  0.001348748    1.603    0.376
       129 -12.1629      2.1128    111.3772   1.2202036597e+02   5.2163806236e+01     0.357908    0.2326476 -79.23 0.0006388599    1.382    0.276
       130 -11.3752      3.9308    105.3765   1.2064149194e+02   5.3607707395e+01    0.5104629    0.4338836  75.73  0.002841384    1.265    0.210
       131  -9.1842    126.7077    113.9442   7.9198743738e+01   3.4463225183e+01    0.2256311     0.202382 -33.26 0.0006659298    1.106    0.096
       132 -11.7920     22.6429     94.8649   1.1156961122e+02   5.5144002648e+01    0.6398666    0.4287206  -0.67  0.001850458    1.663    0.399
       133 -10.6192    107.1856    111.6721   8.4311213868e+01   3.8941180149e+01    0.3969557    0.3194627 -83.65  0.001453912    1.705    0.414
       134 -10.9753    102.4735    109.4424   8.5187216109e+01   4.0372630176e+01    0.7187082    0.5824487 -15.65  0.002909178    1.351    0.260
       135  -9.6725     94.2597    112.2702   8.8585059793e+01   4.1259995482e+01     0.323925     0.265712 -40.60  0.001401908    1.203    0.169
       136  -9.7362     48.7905    112.4225   1.0475925223e+02   4.8133339253e+01    0.2559735    0.2333666 -69.59 0.0009463978    1.128    0.114
       137 -11.1356    170.3278    110.3939   6.7671345675e+01   2.5857813375e+01    0.4258293    0.3463523 -33.29  0.001390028    1.182    0.154
       138 -10.3140    120.5777    109.1228   7.9633505098e+01   3.6794076881e+01    0.3793962     0.258474 -27.64  0.001631389    1.651    0.394
       139 -11.4435     79.6143    108.4038   9.2559565668e+01   4.4751876985e+01     0.704768    0.4001212  30.74  0.001245697    1.796    0.443
       140 -10.4238     89.9211    104.4952   8.7962165774e+01   4.3884190409e+01    0.4389948    0.3319426   8.52  0.001250838    1.519    0.342
       141 -10.4961     86.1225    103.8414   8.9084782930e+01   4.4721971740e+01    0.5783619    0.3427049 -20.10   0.00181202    2.585    0.613
       142  -9.5889     58.5900    108.8989   1.0032194593e+02   4.7797591694e+01     0.275683    0.1838666 -72.87  0.001223959    1.791    0.442
       143 -10.6580    130.8779    110.1620   7.7046133604e+01   3.4397793193e+01    0.4654749     0.303283  57.43  0.001940661    1.867    0.464
       144 -10.0685    157.3425    106.7322   6.9559822901e+01   2.9357856197e+01    0.3908086    0.2778915 -11.38  0.001730703    1.811    0.448
       145 -10.5932    143.4629    106.1108   7.2689190065e+01   3.2516896896e+01    0.3224514    0.2861572  66.91  0.001365911    1.281    0.219
       146 -11.8105    145.4114    100.3972   7.0653890622e+01   3.3223899762e+01    0.5228789     0.423172 -25.75 0.0005196418    1.278    0.218
       147  -8.6096    167.3151    105.3120   6.7006010964e+01   2.7457840213e+01    0.1519512    0.1164512   5.88 0.0007032896    1.638    0.389
       148  -9.9284     57.2059    102.6633   9.9374312137e+01   4.9544641161e+01    0.3374844    0.1943569 -54.07  0.001473472    1.637    0.389
       149  -9.3845    180.9842    102.9828   6.3666094142e+01   2.4945265622e+01    0.2760288    0.1485694 -57.73     0.001038    2.692    0.628
       150 -10.0875    209.2933     99.9692   5.8058407860e+01   1.9654367299e+01    0.4363057    0.2207828 -26.03 0.0006914423    2.293    0.564
       151  -9.3622    120.7977    101.1634   7.7360892924e+01   3.8461330371e+01    0.2262083    0.1863688  -3.72  0.001075421    1.365    0.267
       152 -11.0922     90.0037     89.3197   8.3569508799e+01   4.7312503861e+01    0.7321857    0.3977826 -30.05  0.002769168    2.282    0.562
       153 -11.6045     76.7339     80.1516   8.5513209113e+01   5.1769617042e+01      1.10754    0.8374239 -88.31  0.004884845    2.230    0.552
       154 -11.3630     67.5785     95.5453   9.3560196133e+01   4.9782789141e+01     0.607201    0.4782241  14.54   0.00264727    1.312    0.238
       155 -10.1825     66.6704     88.6586   9.1976034598e+01   5.1546218549e+01    0.3839591    0.2588813 -22.00  0.001010527    1.709    0.415
       156 -10.3247     67.3033     82.0564   8.9760303798e+01   5.2954679351e+01    0.4465135    0.3877431  -0.71  0.002388451    1.116    0.104
       157 -10.6889     78.0906     97.2148   9.0105892697e+01   4.7678395831e+01    0.5568563    0.3261722  49.81  0.001646292    2.089    0.521
       158 -11.3452     79.3773     92.8766   8.8401977586e+01   4.8462650293e+01    0.9553916    0.3556731  37.95  0.003271546    2.661    0.624
       159  -9.7555     57.1753     97.5020   9.8105476209e+01   5.0823254313e+01    0.2870144    0.2434907  75.48  0.001477348    1.499    0.333
       160 -10.1633    117.3347     93.4511   7.6129649921e+01   4.0820794526e+01    0.4127726    0.3023001  10.52  0.001631811    1.730    0.422
       161 -10.8334    124.6126     93.7201   7.4146285688e+01   3.9176188842e+01    0.6415063     0.318469  45.65  0.001886505    1.994    0.498
       162 -11.4703    120.8088     87.0005   7.3209277503e+01   4.1363138398e+01    0.6400294     0.436424 -46.63  0.002882083    1.545    0.353
       163 -10.7060    152.1564     91.7285   6.6675486706e+01   3.3358696777e+01    0.4441486    0.3928365 -80.47  0.002237529    1.311    0.237
       164  -8.6994    138.5494     92.8257   7.0220428517e+01   3.6238321009e+01    0.3475494    0.1793122  22.91  0.000965419    4.533    0.779
       165 -10.7515    100.5831     91.2450   8.0611767059e+01   4.4805389193e+01    0.6243801    0.3694637  49.02  0.002573201    1.831    0.454
       166 -11.0538    113.5447     83.5180   7.4231328256e+01   4.3656939901e+01    0.4313035    0.3984303 -67.58  0.001607552    1.245    0.197
       167 -10.8423    109.1493     80.8074   7.4694308152e+01   4.5152728463e+01    0.3920514    0.3290403  -3.86  0.001526801    1.295    0.228
       168 -10.4275    183.5785     86.0057   5.8883916225e+01   2.7301575627e+01    0.5947555    0.2474674 -42.67  0.002324268    2.286    0.563
       169  -8.2933    214.6796     86.2813   5.4098349911e+01   2.0752281034e+01    0.1319728   0.09535107 -65.51 0.0001917973    1.586    0.369
       170 -10.5676    104.8491     86.4339   7.7783073734e+01   4.4937376831e+01    0.5233797    0.3325522 -18.72  0.002080612    2.145    0.534
       171 -10.4486    165.6646     83.6225   6.1582254880e+01   3.1718545110e+01    0.4048049    0.3154812 -53.04  0.001398474    1.339    0.253
       172 -11.3385    142.9337     84.1817   6.6658179412e+01   3.6860810703e+01    0.4499767    0.3334456  38.62 0.0009339938    1.382    0.276
       173  -9.5806     60.5015     83.0880   9.2807216434e+01   5.3778100542e+01    0.3529846    0.2289781 -48.69  0.001099069    1.493    0.330
       174 -10.8890     46.9710     74.6155   9.6031381120e+01   5.7597654447e+01    0.3864791    0.2488951 -52.22  0.001872104    1.514    0.340
       175 -11.5797     53.0552     75.9032   9.3760524184e+01   5.6490558384e+01    0.6358613    0.4262723 -54.67  0.002789861    1.551    0.355
       176 -10.9222     57.9996     77.7962   9.2241195008e+01   5.5353574748e+01    0.3643235    0.3310106 -36.52  0.001142723    1.109    0.098
       177 -10.2287    127.3305     82.7029   7.0124606887e+01   4.0724544712e+01    0.3059542    0.2839291  52.29  0.001417607    1.100    0.091
       178  -9.4505     21.1173     80.8035   1.0934999069e+02   5.8750684429e+01    0.1873539    0.1845114  26.49 0.0005144022    1.194    0.162
       179  -9.4687    160.4277     93.6209   6.5377551962e+01   3.1140004743e+01    0.4501113    0.2220773  65.92  0.001492736    3.379    0.704
       180 -10.0144    103.3333     78.9006   7.5883955577e+01   4.6783013149e+01    0.3965906     0.262105 -24.09   0.00108283    1.766    0.434
       181 -10.3500    103.8872     74.1804   7.4171607728e+01   4.7582828968e+01    0.4245277    0.3389328 -73.37  0.001180762    1.735    0.424
       182 -10.5333    232.7713     77.2670   4.9780615421e+01   1.8604301092e+01    0.4463737    0.2071699 -44.67    0.0021828    1.855    0.461
       183 -11.9125     14.1024     74.7460   1.1125514708e+02   6.0701555388e+01    0.5377674    0.4134862 -51.69  0.002359705    1.114    0.102
       184 -10.0601     14.8548     67.4253   1.0921320909e+02   6.2394031021e+01    0.3528202    0.2532734   7.03   0.00153155    1.462    0.316
       185 -10.2323    127.2405     76.9454   6.8380131677e+01   4.1813358467e+01    0.3326964    0.3279954 -63.22 0.0004733532    1.083    0.076
       186 -11.6573    122.7782     68.8990   6.7005441892e+01   4.4281200827e+01    0.6466616    0.5105673  38.39  0.001745462    1.240    0.193
       187 -10.4132     94.5022     76.2297   7.7889439679e+01   4.9165250873e+01    0.4356053    0.3281116  49.26    0.0013895    1.404    0.288
       188 -10.1218     84.2934     63.0165   7.6889334883e+01   5.3797887243e+01    0.4831599    0.2711463 -31.04  0.001898012    1.943    0.485
       189 -11.7714     86.2597     73.6124   7.9869859433e+01   5.1348734336e+01    0.8346284    0.5647492  43.14  0.003246968    1.484    0.326
       190 -11.1432     79.4520     67.7987   8.0362603043e+01   5.3827436039e+01    0.5546128    0.4489452  67.26  0.002423252    1.701    0.412
       191 -11.2416     91.2649     62.9921   7.4444709610e+01   5.2369823834e+01    0.7063354    0.3953622  54.24  0.002467381    2.088    0.521
       192 -12.0105     89.4482     57.3428   7.3015086644e+01   5.3759357649e+01     1.161639    0.7168603  59.53  0.004968052    2.099    0.523
       193  -8.5097     32.6752     78.2881   1.0350068197e+02   5.8358934027e+01    0.1326961    0.1077755  59.57 0.0003459268    1.608    0.378
       194 -11.7986      1.9365     71.2261   1.1629776900e+02   6.2174401388e+01    0.8243853    0.1764141 -65.14  0.002919658    3.269    0.694
       195 -12.1951      5.7261     62.3947   1.1261779818e+02   6.4094200254e+01    0.6836895    0.4392124 -21.57  0.003819488    1.491    0.329
       196 -10.7012     10.4893     62.5379   1.1021848193e+02   6.3805280845e+01    0.4872006    0.2258348 -47.42 0.0006372968    1.719    0.418
       197  -9.1357    170.6412     77.7168   5.9027085627e+01   3.1568183102e+01    0.1466636    0.1107873  23.07 0.0005354969    1.673    0.402
       198  -9.3457    139.4564     77.4666   6.5498690124e+01   3.8875609128e+01    0.1481465     0.146069  42.53 2.959781e-05    1.020    0.019
       199  -9.6747    192.4785     65.6680   5.2290320061e+01   2.8506190670e+01    0.2615494    0.1944912 -71.02 0.0008338533    1.482    0.325
       200 -12.2031    186.4443     70.6922   5.4477675737e+01   2.9097551027e+01    0.8738847    0.5878269 -36.86  0.003300574    1.424    0.298
       201  -9.9528    184.0381     61.5311   5.2477817335e+01   3.0997631503e+01    0.2782745    0.2549474 -14.07 0.0008715815    1.226    0.185
       202  -9.9844     64.6855     75.4790   8.8743683779e+01   5.4834081790e+01    0.4244973    0.2627115   1.17 0.0009065168    2.289    0.563
       203  -9.0990     61.0200     73.0007   8.9454081122e+01   5.5955618579e+01    0.1939016    0.1718269  48.30 0.0003453481    1.344    0.256
       204  -9.3053    128.4130     63.7584   6.3911709435e+01   4.3822523978e+01    0.2350842    0.1499922 -35.01 0.0009973868    1.629    0.386
       205  -9.0172    198.3121     74.3250   5.3592083312e+01   2.5950097621e+01    0.1328368    0.1059283  13.48 0.0007040576    1.660    0.398
       206  -9.1609    150.9850     73.7776   6.1818564094e+01   3.6798286582e+01    0.2383758    0.1839851  17.64  0.001147949    1.610    0.379
       207  -9.4637     24.5072     72.9268   1.0591127248e+02   6.0375103568e+01    0.3512205     0.160601 -65.55  0.001469506    2.290    0.563
       208  -9.5701     21.9857     65.8079   1.0526495895e+02   6.2245822812e+01    0.4478682    0.2634105 -78.47  0.001479721    2.436    0.589
       209  -8.9577     25.6049     65.5025   1.0338734510e+02   6.2007729173e+01    0.2271418    0.1302128  10.54 0.0001036298    1.856    0.461
       210 -11.7917     32.2118     72.1606   1.0207076340e+02   5.9848104863e+01    0.9144856    0.2781077  25.03  0.001664145    3.270    0.694
       211  -9.9968     41.3136     72.3395   9.7899445381e+01   5.8814467194e+01    0.3179194    0.1958836 -34.88  0.001074673    1.550    0.355
       212 -10.4778     40.9846     69.2391   9.7112167302e+01   5.9555999978e+01    0.3017018     0.242996   7.04 0.0009423688    1.220    0.180
       213  -9.7930    162.2103     70.8099   5.8706521055e+01   3.4641122679e+01     0.299104    0.2430408 -72.91  0.001376952    1.395    0.283
       214  -9.3836    169.3445     63.3059   5.5320617143e+01   3.4129588166e+01    0.2576567    0.1399819 -39.63 0.0005914894    1.791    0.442
       215  -9.8772    172.4743     68.4949   5.6199916057e+01   3.2611681355e+01    0.3172697    0.3048004 -53.54  0.001534636    1.026    0.026
       216  -8.9746    172.3052     64.6785   5.5191273193e+01   3.3232274359e+01    0.2885394    0.2607249  47.75  0.001323536    1.158    0.137
       217  -9.4412    216.6926    249.3750   8.6028082625e+01  -5.1458964172e+00   0.09766041   0.08918335  21.36 0.0007030374    1.774    0.436
       218 -11.4300    219.9743     66.3434   4.8858203279e+01   2.2618378321e+01    0.4756937    0.3483834  64.91   0.00229508    1.491    0.329
       219 -10.8031     59.4868     63.5433   8.6892728484e+01   5.8195240485e+01     0.742873     0.378572  18.41  0.002849149    2.601    0.616
       220 -10.0110     57.3148     61.3094   8.7041093079e+01   5.8995451735e+01    0.3117948    0.2152557   4.28 0.0006182602    1.621    0.383
       221  -9.6180     53.1549     66.0820   9.0546092334e+01   5.8632896853e+01    0.3005045    0.1891545  36.38 0.0009979391    1.655    0.396
       222  -9.8119    201.8903     64.4219   5.0674803066e+01   2.6637793968e+01    0.3143179    0.2220162  64.19  0.001740024    1.487    0.327
       223  -9.4042    198.2826     62.6227   5.0719985210e+01   2.7672992530e+01    0.2596614    0.1997451 -70.62  0.001104233    1.360    0.265
       224 -10.1563    105.9622     64.1132   7.0142994744e+01   4.8971731176e+01    0.3460801    0.2838339 -32.23  0.001229929    1.263    0.208
       225 -11.0169    106.7310     58.6141   6.8004816385e+01   4.9738034994e+01    0.3532316    0.3104267  64.57 0.0002766174    1.255    0.203
       226 -10.7127     13.1435     47.3645   1.0456573662e+02   6.7027350854e+01      1.10478    0.1845386 -40.07  0.003056449    5.621    0.822
       227 -10.1265     22.4118     37.0241   9.5469695199e+01   6.8348625558e+01    0.6585956    0.3670074  34.28  0.003045579    2.032    0.508
       228  -9.6681    175.1784    246.8600   9.3702460099e+01   2.3353338556e-01    0.1858727    0.1517292  21.62  0.001157267    1.234    0.189
       229 -10.5724     25.9775     48.1933   9.7687289890e+01   6.5752490374e+01    0.3001621    0.1784559 -37.49 0.0003883211    1.477    0.323
       230 -12.1664     21.9639     46.3101   9.9233443511e+01   6.6529517827e+01    0.7170245    0.4438103  -8.04  0.003751701    1.654    0.395
       231 -10.8007     33.9307     58.1114   9.6950811156e+01   6.2817490651e+01    0.4542405    0.2421786 -18.91  0.001929227    2.348    0.574
       232 -11.6053     27.0833     56.6685   9.9970534588e+01   6.3842968394e+01     1.038421    0.6437975 -13.06   0.00522402    1.704    0.413
       233 -10.9048     20.5652     55.3979   1.0299114950e+02   6.4708791478e+01    0.3627461    0.2996586  52.38 0.0008781517    1.652    0.395
       234 -12.1681     48.8856     60.4030   9.0518796315e+01   6.0441269935e+01    0.8457263    0.5717564  33.59  0.002548484    1.524    0.344
       235 -11.2645     41.1302     57.1801   9.3066251627e+01   6.2155476361e+01     0.449642    0.3108074  43.20  0.001372122    1.782    0.439
       236 -11.4751    234.2176     60.9837   4.6114639094e+01   2.0575543766e+01    0.4482241    0.3488482  71.13  0.001960746    1.425    0.298
       237 -10.1893    158.9491     62.4281   5.6938499764e+01   3.6719338367e+01    0.5355754    0.2063132  46.48  0.001924988    2.780    0.640
       238 -11.0094    123.2649     58.6823   6.3534170419e+01   4.5867180008e+01     1.032906    0.5017197  38.88  0.003957799    2.304    0.566
       239 -11.7173    117.7984     56.3522   6.4154322276e+01   4.7532676153e+01     1.067842    0.7771173 -81.97  0.004819859    2.065    0.516
       240 -11.1129    109.4143     42.9192   6.1629085370e+01   5.1519148387e+01     1.230453     0.412174 -41.35  0.004200662    3.380    0.704
       241 -11.4403    127.7094    241.8157   1.0313040140e+02   7.3701069477e+00    0.3648375    0.3416032  -1.37  0.002508732    1.194    0.162
       242 -12.5835    119.2729     37.6291   5.7288383544e+01   4.9858225187e+01    0.8929355    0.6135393 -89.35  0.003564404    2.011    0.503
       243  -9.1619    147.0160     60.7722   5.8789624957e+01   3.9833032172e+01    0.2887346    0.1438374  59.71 0.0007672783    2.014    0.503
       244 -10.6201    136.1268     54.8768   5.9271118023e+01   4.3358972860e+01    0.8835946    0.4767122 -37.31  0.003844427    1.910    0.477
       245 -11.5472    145.9991     47.1222   5.4822925227e+01   4.2057957956e+01    0.9501292    0.4208812 -21.61  0.003471285    3.138    0.681
       246 -10.1304    145.5081     39.4773   5.2550313422e+01   4.3181724212e+01    0.2391036    0.1880912  57.86 0.0005040931    1.185    0.156
       247 -10.6604    138.1866     33.6820   5.2050988993e+01   4.5697148804e+01    0.5063555    0.3129393 -57.78  0.001904017    1.971    0.493
       248 -11.2816    156.8360     53.2029   5.4648959131e+01   3.8580119455e+01     1.165111    0.8597351 -14.62  0.005919193    1.645    0.392
       249  -9.7235     68.1153    240.3263   1.1629551760e+02   1.5359126239e+01     0.192712    0.1424164  16.11 0.0008690548    1.458    0.314
       250  -8.6528    221.5143    239.4919   8.3601240978e+01  -4.4170558405e+00    0.1199063   0.08734122   0.20 0.0008104193    1.015    0.015
       251 -11.1588    148.7325    237.8350   9.7977964124e+01   5.1676675447e+00    0.5003599    0.2364852  31.27   0.00203403    1.759    0.432
       252 -10.9366    198.7495    232.7478   8.6817385553e+01  -7.2572670962e-01     0.391093    0.2916014   5.28  0.002543771    1.037    0.036
       253 -11.2532    155.6683     42.1610   5.1603817431e+01   4.0354701163e+01    0.8406423    0.5075235  60.93  0.003939754    1.548    0.354
       254 -12.0587    153.0635     35.9743   5.0193137026e+01   4.1762073322e+01    0.3477348    0.2983506   1.00 0.0003546457    1.403    0.287
       255 -10.0116    242.8828    231.9958   7.8629864875e+01  -5.8374452719e+00    0.2302586    0.2007791 -33.33  0.001680681    1.883    0.469
       256  -9.5658     68.1349     32.3450   7.0700376691e+01   6.2108205429e+01    0.5851818    0.4580736  54.52  0.003228908    1.481    0.325
       257 -11.8911     60.9654     36.5171   7.5501325812e+01   6.2856093685e+01    0.7678871    0.5009432 -10.22  0.003726359    1.771    0.435
       258 -11.9387     58.0233     30.0690   7.3856876259e+01   6.4375178096e+01    0.4332623    0.2984549  14.30  0.001178738    1.474    0.322
       259 -11.6535     48.9203     30.2506   7.8121684454e+01   6.5948619146e+01     0.683059    0.2763691  33.44  0.001972963    2.405    0.584
       260 -11.1629     64.1863     53.5209   8.1168570253e+01   5.9363565158e+01    0.6843561    0.3356868  41.39  0.001292682    2.041    0.510
       261 -11.7414     60.8864     46.2254   7.9669961196e+01   6.1258605347e+01    0.7454343     0.495807 -27.60  0.003004762    1.518    0.341
       262 -10.7418    244.8780     51.1721   4.3055869392e+01   1.9860925277e+01    0.2560926    0.1677776  84.15  0.001216335    1.716    0.417
       263 -10.7480    240.1699     50.2755   4.3287078963e+01   2.0841944297e+01    0.3069215    0.2714443 -25.95  0.002181243    1.312    0.238
       264  -9.5887    187.6238     55.2349   5.0329366183e+01   3.1073469961e+01    0.2798171    0.1688497  56.93  0.001400244    1.677    0.404
       265  -9.8644    211.7144     53.1492   4.6786174072e+01   2.6103626319e+01    0.2743303    0.1714969  66.95  0.001504121    1.675    0.403
       266 -10.8596    201.6968     49.0073   4.6965151962e+01   2.8784510020e+01    0.5869417    0.2208542 -32.39  0.002446948    2.569    0.611
       267 -10.9946    200.6784     45.2171   4.6167704460e+01   2.9494616618e+01    0.5288563    0.2650609  77.49   0.00244448    2.296    0.564
       268 -10.7620    174.1774     48.5697   5.0506345868e+01   3.5081621598e+01    0.5464134    0.3097132  72.11  0.002498696    1.866    0.464
       269  -9.8695     91.0293     47.8211   6.8899664360e+01   5.4996528395e+01    0.3199303    0.2219775 -48.69  0.001540642    1.752    0.429
       270 -10.2149    247.5441    231.8965   7.7830082499e+01  -6.3239585873e+00    0.1626005     0.136979  10.84 0.0008988646    1.541    0.351
       271  -9.6249     23.9010    231.9263   1.2538705741e+02   2.1797483296e+01    0.1989035    0.1040242  55.18 0.0009774317    1.650    0.394
       272  -9.4639     15.3339    233.5995   1.2728792101e+02   2.2257611544e+01    0.2069764    0.1298863 -79.69  0.001311289    1.616    0.381
       273 -10.8603     13.9938     23.5237   9.4900557606e+01   7.1683268067e+01    0.2705492    0.1736781 -24.00 0.0003444702    1.333    0.250
       274  -9.4562    108.4792    229.9579   1.0599171853e+02   1.2147842834e+01    0.1757741    0.1323585 -55.93 0.0005146525    1.565    0.361
       275  -9.3284    180.8697    228.3825   8.9711809838e+01   2.2868712861e+00    0.1887853    0.1014706  18.94 0.0009424643    1.750    0.429
       276  -9.8824    175.6366     43.9727   4.9050242551e+01   3.5340841305e+01    0.4399945    0.2219351  56.05  0.002026601    1.926    0.481
       277 -10.9268    135.4293     45.5557   5.6426715808e+01   4.4859331137e+01    0.5142728    0.2290211  57.87  0.001258155    2.068    0.516
       278  -9.8609    139.5114     43.5247   5.4949888114e+01   4.4131230292e+01    0.2753494    0.2066306  45.67 0.0009586085    1.312    0.238
       279 -10.9360     93.9245     41.2836   6.5444955850e+01   5.5336773899e+01    0.7321579    0.2667162  50.50  0.002695112    2.487    0.598
       280  -9.5824     94.8179     36.1744   6.3165461619e+01   5.5844508659e+01    0.3160863    0.2277883  70.89  0.001334654    1.715    0.417
       281  -9.6790     76.8288     42.7720   7.1837438374e+01   5.8794304204e+01    0.4131849    0.1948811 -24.67  0.001599634    2.690    0.628
       282 -10.0803     86.1618     31.1976   6.3807867509e+01   5.8453600865e+01    0.3409014    0.2690593  25.28  0.001191102    1.208    0.172
       283 -10.6381     81.6185     40.0526   6.8996916967e+01   5.8211971585e+01    0.4590445    0.2840599  63.96  0.001685257    2.265    0.559
       284 -10.8804     78.2064     34.7563   6.7987162180e+01   5.9700300267e+01    0.7857913    0.5057022  18.11  0.003735758    1.813    0.449
       285 -10.3231    189.1305     41.6081   4.6650814302e+01   3.2523309596e+01    0.4574153    0.1911902 -27.08  0.001279905    2.707    0.631
       286  -9.9537    231.6479     38.9445   4.1657072207e+01   2.3859627727e+01    0.2659796    0.1440353 -42.20  0.001507932    1.546    0.353
       287 -10.0179    193.8413     39.0378   4.5443677788e+01   3.1779184859e+01    0.1970821    0.1710266  83.58 0.0003477292    1.111    0.100
       288 -11.1034    176.5549     30.0728   4.5200565930e+01   3.6809365113e+01    0.4779679    0.2341469  47.94  0.001835055    2.321    0.569
       289 -11.1622    176.6629     36.2118   4.6825621149e+01   3.6065116281e+01    0.3365344    0.2922432 -37.26  0.001197711    1.209    0.173
       290 -11.3151    183.2257     25.3108   4.3177808303e+01   3.5787498111e+01    0.5049099    0.2784024  52.97  0.002560243    1.916    0.478
       291  -9.6371    133.1758     36.9280   5.4067354904e+01   4.6538065247e+01    0.3871521    0.2508661 -77.21  0.001735159    2.170    0.539
       292  -9.5305    206.9073     37.0616   4.3549108770e+01   2.9153108153e+01    0.1919354    0.1656034 -65.58 0.0006944928    1.008    0.008
       293 -11.8740    160.0313     29.5357   4.7240911690e+01   4.0817845636e+01    0.4596395    0.3444212 -23.17  0.001394358    1.518    0.341
       294  -8.9269     58.3461    225.6829   1.1723441329e+02   1.9431078369e+01    0.1379668   0.07878312  55.45 0.0007048466    1.723    0.420
       295 -11.9087    106.0718     32.5576   5.8649751433e+01   5.3679313800e+01    0.5240135    0.3127831  22.40  0.001790564    2.236    0.553
       296  -9.7225    234.0396    222.9610   7.8649053689e+01  -3.6676094614e+00    0.1974695    0.1130101  -4.43  0.001000095    1.667    0.400
       297 -10.6830    240.2738     31.7777   3.9479441375e+01   2.3046350132e+01    0.3984917    0.2726303 -40.98   0.00263878    1.279    0.218
       298 -10.4168    164.9375    212.4280   9.0491877522e+01   7.1985849040e+00    0.2838818    0.2102398  36.93 0.0008407594    1.406    0.289
       299  -8.9881    216.6172     32.1957   4.1507023419e+01   2.7678627596e+01     0.156934    0.1118996 -23.14 0.0003339657    1.637    0.389
       300  -9.6453    182.5176     32.4833   4.5111333320e+01   3.5141544568e+01    0.1288927    0.1171444 -83.23 1.746885e-05    1.026    0.026
       301  -9.3540    204.5230    208.5108   8.1588872060e+01   2.1646981033e+00     0.130455    0.1041958  -2.06 0.0002178788    1.024    0.023
       302 -11.8434    124.8631     28.0316   5.2729976976e+01   4.9642140139e+01    0.6566976    0.3917754  50.89  0.001797858    1.510    0.338
       303  -9.4278    221.5410     29.9385   4.0580054196e+01   2.6927017248e+01    0.1776298    0.1061828 -35.22  0.001023158    1.573    0.364
       304 -10.6582    189.4665     27.5986   4.3080115999e+01   3.4105956489e+01    0.3427847    0.2737374  11.21  0.001820003    1.751    0.429
       305  -9.1887     99.5115     30.4790   5.9581892844e+01   5.5486973317e+01    0.1945185    0.1300412  64.56 0.0007791254    1.562    0.360
       306  -9.7871     97.7168     26.6249   5.8542067103e+01   5.6367498944e+01    0.2715096    0.2343516 -55.22 0.0009942299    1.405    0.288
       307 -10.1934    230.5334     27.5568   3.9346777983e+01   2.5399014120e+01    0.2951546      0.16248 -44.87   0.00109951    1.511    0.338
       308 -10.5014    211.3589     18.6886   3.8932560204e+01   3.0273956728e+01    0.2144367    0.1866583 -49.48 0.0002499776    1.167    0.143
       309  -9.7096    211.4742     27.4884   4.0906865518e+01   2.9292023656e+01    0.2051495    0.2026752  21.35 0.0009896446    1.298    0.229
       310  -9.5915    153.0652    207.8488   9.2385596790e+01   9.8117267100e+00    0.2066795    0.1829741  40.91   0.00122407    1.322    0.244
       311  -9.4056     61.1714    206.8147   1.1475856744e+02   2.3145038072e+01    0.2007767     0.161797  55.82 0.0006551655    1.165    0.142
       312 -10.3020    237.5273    204.1531   7.4783236270e+01  -1.4859484141e+00    0.2771975    0.2464164  45.01  0.001885225    1.924    0.480
       313 -10.3573     16.6681    203.3768   1.2534860843e+02   2.8535537273e+01    0.3532181    0.1381251 -82.21  0.001588279    2.561    0.609
       314 -11.4474      6.2979    196.9154   1.2742873545e+02   3.0840498516e+01      1.10336   0.08679428 -67.35  0.003344315    5.824    0.828
       315 -10.5138    245.6623    200.9285   7.2845563761e+01  -2.0202290965e+00    0.2005252     0.137059   6.04 0.0006735132    1.309    0.236
       316  -9.1719     44.8878     24.5163   7.7331556607e+01   6.7485093016e+01    0.1925197    0.1794258 -20.69 0.0007436011    1.349    0.259
       317  -9.4840    168.9063     23.8026   4.4447830307e+01   3.9312668540e+01    0.1986947    0.1645352  53.04 0.0006694041    1.273    0.214
       318  -9.5451     59.6654     23.9553   7.0263018581e+01   6.4919091801e+01    0.2526433     0.178718  17.11 0.0004794859    1.367    0.269
       319 -10.1369     60.1868     19.7956   6.8025917273e+01   6.5350234260e+01    0.3049312    0.2524991 -60.73  0.001234954    1.870    0.465
       320 -12.1842      4.8621    184.3749   1.2707524045e+02   3.3831701232e+01    0.6514921    0.5133535  69.05  0.003171247    1.109    0.098
       321  -9.2920    223.3245     21.9659   3.8713642474e+01   2.7452014034e+01    0.1952963    0.1368601 -81.12 0.0006259211    1.322    0.243
       322 -10.5466    234.3341    196.8584   7.4016669188e+01  -3.6445829111e-02    0.3849862    0.2473983   7.59  0.001578291    1.503    0.335
       323  -9.6191     74.5310     19.5614   6.2545969122e+01   6.2415477802e+01    0.2500448    0.1761678  29.16 0.0005939404    1.314    0.239
       324  -8.8316    195.4702    199.5184   8.1760441832e+01   4.8924381463e+00    0.1333493    0.1115868  -1.57 0.0001069876    1.057    0.054
       325  -9.0360     83.5378    195.9455   1.0774478228e+02   2.2704203313e+01     0.195087     0.138079 -61.81 0.0005413076    1.519    0.342
       326 -10.0806    170.1180    191.3864   8.5616384014e+01   1.0200091377e+01    0.4205513    0.2126325  21.40  0.001745957    2.264    0.558
       327  -8.6875    198.6011     17.6988   3.9780403721e+01   3.3128323325e+01    0.1228208   0.08580359  44.18 0.0007000242    1.824    0.452
       328  -9.0234    162.4861    190.9753   8.7254273306e+01   1.1502517269e+01    0.1697496    0.1304928 -75.89 0.0004461582    2.283    0.562
       329 -10.2329    186.3643     15.2354   4.0304694817e+01   3.6121611974e+01    0.2309801    0.1884692 -87.47 0.0003693337    1.079    0.073
       330  -8.9444    174.4009     15.8741   4.1677284315e+01   3.8827869559e+01    0.1491892    0.1237499  -4.45 0.0004270842    1.550    0.355
       331 -10.1830    239.5786    184.8418   7.0913997616e+01   1.0514849158e+00    0.3557422    0.1875432 -15.14  0.001406706    2.107    0.525
       332  -9.9406    211.7915    182.2033   7.5312003518e+01   5.3428927677e+00    0.2274436    0.1341825  -4.65  0.001068614    2.099    0.523
       333  -9.9502    250.4209    177.8353   6.7864811417e+01   6.7314685214e-01     0.368109     0.095011 -34.26  0.001402743    3.330    0.700
       334 -10.3237     51.9341    173.5500   1.1348290658e+02   3.2072451987e+01      0.53562    0.2603287  86.98  0.001950734    3.217    0.689
       335  -9.7140     28.0115    175.9709   1.2041083706e+02   3.3947389782e+01    0.2084706    0.1837387  71.59 0.0009383117    1.043    0.041
       336  -9.8849    247.4201    174.2005   6.7650278413e+01   1.5924040958e+00    0.4046821    0.1871478  17.34  0.001665214    3.738    0.732
       337 -10.0304    231.4308    175.4542   7.0497549962e+01   3.5787643472e+00     0.330986    0.1206007  39.20  0.001428013    3.052    0.672
       338  -9.8180     39.2381    173.4164   1.1705234846e+02   3.3486726684e+01    0.2790774    0.2189409  59.34  0.001131167    1.245    0.197
       339 -10.6582     35.5677    170.2033   1.1774680676e+02   3.4652086956e+01    0.3805375    0.2207334 -82.84  0.001826959    1.769    0.435
       340 -10.0205      9.1811    156.2168   1.2398903046e+02   4.0353041893e+01    0.2861544    0.1914055 -67.81  0.001229384    1.349    0.259
       341 -11.7404      9.5295    167.1800   1.2473401852e+02   3.7613871197e+01    0.5153397    0.3933892 -84.76  0.001805855    1.169    0.145
       342 -11.2084     13.5919    159.6903   1.2301051999e+02   3.9171924992e+01    0.5669637    0.2424276 -66.32  0.002047916    2.033    0.508
       343  -9.0126    197.9812    168.0193   7.5147530096e+01   9.9097261764e+00    0.1738781    0.1423811 -20.78 0.0009936437    1.081    0.075
       344  -8.6571    156.4653    166.4823   8.3854132635e+01   1.7362164979e+01    0.1495911    0.1353794  -0.11  0.000138982    1.005    0.005
       345  -8.8379    152.4250    166.5269   8.4830282998e+01   1.8073449245e+01    0.1502465    0.1350652  -2.20 0.0001003582    1.023    0.022
       346 -10.2923     19.1834    164.8155   1.2186340627e+02   3.7461985711e+01    0.3542083    0.2730693  -8.14  0.001440838    1.611    0.379
       347  -9.6779    188.9641    164.0013   7.6134193388e+01   1.2140896133e+01    0.2350347    0.1578126  -7.00 0.0008346135    1.728    0.421
       348  -9.9069    204.9919    162.9688   7.2751230788e+01   9.6448388433e+00    0.2940262    0.1892087  24.43 0.0009758389    1.651    0.394
       349  -9.3777    208.3200    160.3464   7.1583658691e+01   9.5536291767e+00    0.2108411    0.1698508 -28.43 0.0005448361    1.128    0.113
       350 -10.5288     28.4152    161.2895   1.1887422154e+02   3.7559563208e+01    0.4732633    0.1861425 -63.54  0.001975415    2.239    0.553
       351  -9.5336     78.9002    160.2399   1.0366810768e+02   3.1890168030e+01    0.2546469    0.2060774 -85.34  0.001124855    1.404    0.288
       352 -10.0502    246.4376    159.2369   6.4931621781e+01   3.9549094095e+00    0.2486387   0.09983619 -33.04  0.001146415    2.092    0.522
       353  -9.4038    215.5791    158.1135   6.9799054791e+01   8.7592243579e+00    0.2740469    0.1471672 -25.81  0.001276896    1.860    0.462
       354  -9.4100    224.0961    156.9730   6.8079538254e+01   7.6040881327e+00     0.247096    0.1680259 -42.75  0.001364068    1.493    0.330
       355 -12.4380     23.2246    148.6349   1.1909101517e+02   4.1225375304e+01    0.7619437    0.3403246 -38.14  0.003028942    2.865    0.651
       356 -10.3297     22.4336    155.3728   1.2003348869e+02   3.9571271976e+01    0.3530924    0.2416374  17.88  0.001195109    1.628    0.386
       357 -10.9291     30.8533    153.6104   1.1731013695e+02   3.9290605170e+01    0.5667948    0.4250615  28.68  0.003130406    1.395    0.283
       358 -10.7639     15.5818    147.6749   1.2133543500e+02   4.2060351783e+01    0.3325922    0.3038777  48.63  0.001144918    1.154    0.134
       359 -11.4977     12.8889    138.2247   1.2123287359e+02   4.4666623287e+01    0.7989886    0.4717053 -86.68  0.003991933    1.642    0.391
       360 -10.3801    104.7000    154.2478   9.4963362652e+01   2.9288669652e+01    0.3863159    0.3128882 -33.88  0.001915735    1.278    0.217
       361 -10.2694      3.2884    152.7350   1.2541541877e+02   4.1603328294e+01    0.3747537    0.1958677  70.67  0.001807195    1.993    0.498
       362 -10.9636      3.5951    147.3463   1.2491260165e+02   4.2934378544e+01    0.4753687    0.3132221  51.62  0.001954663    1.545    0.353
       363 -11.7596      3.6436    141.4883   1.2442215290e+02   4.4409330907e+01    0.6821268    0.3505709  61.34  0.001426557    2.124    0.529
       364 -10.7930     63.1582    150.6525   1.0687534560e+02   3.6480092821e+01    0.4116071    0.3099863  -6.07  0.001371176    1.606    0.377
