#   1 NUMBER                 Running object number                                     
#   2 MAG_AUTO               Kron-like elliptical aperture magnitude                    [mag]
#   3 X_IMAGE                Object position along x                                    [pixel]
#   4 Y_IMAGE                Object position along y                                    [pixel]
#   5 X_WORLD                Barycenter position along world x axis                     [deg]
#   6 Y_WORLD                Barycenter position along world y axis                     [deg]
#   7 A_WORLD                Profile RMS along major axis (world units)                 [deg]
#   8 B_WORLD                Profile RMS along minor axis (world units)                 [deg]
#   9 THETA_WORLD            Position angle (CCW/world-x)                               [deg]
#  10 FWHM_WORLD             FWHM assuming a gaussian core                              [deg]
#  11 ELONGATION             A_IMAGE/B_IMAGE                                           
#  12 ELLIPTICITY            1 - B_IMAGE/A_IMAGE                                       
         1 -14.6931    208.4078     23.6562   1.8548485095e+01   3.0117698496e+01     3.851507     1.987912 -85.73   0.01520798    2.552    0.608
         2 -15.8541    135.4524    107.8914   5.7653242832e+01   3.4219526870e+01     3.629435       1.6615 -48.87    0.0132069    2.240    0.553
         3 -13.9341    119.1538     97.0445   5.9114731097e+01   4.0036579917e+01     4.928924     3.296625  72.30   0.02012107    2.263    0.558
         4 -13.5075    178.0084     78.4531   3.9257545297e+01   2.9860976143e+01     3.121456     2.328068   6.37  0.004080159    1.819    0.450
         5 -14.7721    113.6364      4.9599   2.8383759450e+01   5.6203732984e+01     1.701573    0.6732005  62.74  0.006847232    2.537    0.606
         6 -15.3043    138.8021     41.3757   3.6141078604e+01   4.5878122916e+01     3.901654     1.813592  72.46    0.0116752    4.214    0.763
         7 -13.7683    158.3717     30.2989   2.8224044136e+01   4.2414168920e+01     1.170332      1.00623  23.15  0.004904413    1.252    0.201
         8 -14.8052    146.3064     25.6030   2.9002788398e+01   4.6092262626e+01     1.493922     1.342962  -6.06  0.008132663    1.190    0.160
         9 -13.1691      5.3037     18.9408   7.6706074215e+01   7.0602681115e+01     0.444197    0.2507436 -29.06  0.002924545    1.483    0.326
        10 -11.3111    231.0013     17.6577   1.4514834297e+01   2.5159092851e+01    0.4309456    0.2036653 -37.61  0.001463278    1.963    0.490
        11 -18.0135    241.2998     92.5834   3.1802683049e+01   1.1986191669e+01     10.94293     3.113056 -31.49   0.02102525    3.705    0.730
        12 -17.3057    233.6333     62.3854   2.5393027884e+01   1.8501495872e+01     5.169549     3.443344  -2.78   0.02259398    2.321    0.569
        13 -12.0574     78.9507     13.8935   4.2120303867e+01   6.2504589193e+01    0.2641361    0.1712731 -27.32 0.0007069112    1.521    0.343
        14 -12.3558    185.4736     10.6176   1.7787846232e+01   3.7542181334e+01    0.8783976    0.4289199 -73.06  0.003229201    3.087    0.676
        15 -12.7097    157.5416      6.3925   2.0472678147e+01   4.5247537382e+01    0.4589561    0.3201699  -3.68 0.0008113746    1.740    0.425
        16 -15.2670    128.6289     16.2872   2.9386949834e+01   5.1540263655e+01     1.935385     1.157995  56.98  0.009363347    1.519    0.341
        17  -8.5057    228.3682      4.2468   1.1502949823e+01   2.7292196427e+01    0.1741659    0.1354452  69.18  0.001022188    1.262    0.208
        18 -10.8842    219.6314      6.0979   1.2757012363e+01   2.9248684511e+01    0.1755387    0.1283198  -3.92 0.0009290525    1.890    0.471
        19 -11.8141    224.5501      5.4277   1.2131822254e+01   2.8102064362e+01    0.3775945    0.2336348   7.48  0.001702238    2.889    0.654
        20 -10.7581    210.8013      1.6725   1.2483188322e+01   3.1914669513e+01    0.1691686    0.1507208  28.89 0.0005810866    1.399    0.285
        21 -12.6373    133.6528     29.2856   3.3044899621e+01   4.8790223084e+01    0.6400676    0.5631837 -19.68  0.001742112    1.192    0.161
        22 -13.6093    189.9793    110.2700   4.5513333735e+01   2.0958312692e+01    0.7631766     0.703007  19.68  0.001469137    1.131    0.116
        23 -12.7649    176.7386    110.5230   4.8415500760e+01   2.4094777983e+01    0.4355004    0.4140301  70.17   0.00146681    1.086    0.079
        24 -12.1009    185.5909    118.7905   4.8625635877e+01   2.0360537296e+01    0.3673926    0.2925446 -38.42  0.001238297    1.265    0.209
        25 -11.9768    187.4201     97.8474   4.2746239536e+01   2.3934593627e+01    0.8184064    0.2911541 -36.81  0.002608686    2.831    0.647
        26 -12.3345    184.3434     90.3270   4.1317575005e+01   2.6100047843e+01    0.4240289    0.3072327 -51.99 0.0004385863    1.473    0.321
        27 -12.9598    175.9332     93.3409   4.3936245613e+01   2.7634379598e+01    0.6904094    0.4245385  44.84   0.00286837    1.645    0.392
        28 -12.0048    193.5399     86.4478   3.8404024767e+01   2.4494382544e+01    0.3089955    0.2417905  35.33  0.000758398    1.395    0.283
        29 -11.5527    199.0616     84.3712   3.6783354993e+01   2.3473395023e+01    0.4799934    0.3736589  40.29  0.002295078    1.363    0.266
        30 -14.7854    136.1629     63.9054   4.4421691566e+01   4.2870348428e+01      1.13755    0.6667973  53.30  0.004809946    1.719    0.418
        31 -10.7100    191.5383     65.5284   3.2891184052e+01   2.8584361314e+01    0.2944081    0.1985889 -67.72 0.0006139544    1.885    0.470
        32 -13.8961     50.1463    145.1132   8.7870453362e+01   3.9703700245e+01     0.717665    0.4809051 -75.44  0.001715206    1.290    0.225
        33 -12.7870    192.1587    194.2031   6.3621593818e+01   5.0373952593e+00    0.9166942    0.4769245 -63.08  0.002897424    5.545    0.820
        34 -12.6480    133.6915    146.0215   6.7091896731e+01   2.6161390421e+01    0.9341642    0.2704055 -55.81  0.002498318    4.756    0.790
        35 -13.5028     66.9225    143.0564   8.3372154395e+01   3.8113883059e+01    0.8431808     0.551582  83.40  0.003611496    1.690    0.408
        36 -11.3704    191.9945     48.2072   2.7808088910e+01   3.1139759014e+01    0.3383832    0.2381274 -42.64  0.001450772    1.429    0.300
        37 -11.2895    204.3788     42.0741   2.4139737899e+01   2.8779448005e+01    0.4554885    0.3084942  84.22   0.00155059    1.603    0.376
        38  -9.6121    205.3378     37.2787   2.2673898209e+01   2.9182829909e+01    0.2187461    0.1645531 -39.03  0.000194962    1.333    0.250
        39 -14.0621    211.4499    187.9296   5.8659139214e+01   2.3829120239e+00    0.7245978    0.5440874  70.27  0.003685906    2.081    0.520
        40 -12.8988     25.1589    201.7106   9.8541157619e+01   3.0158453136e+01    0.2947617    0.1179293 -73.38  0.001617782    2.157    0.536
        41 -13.1186    158.0579     91.4796   4.7463423568e+01   3.2394970508e+01    0.4723985    0.3641701 -45.23 0.0007222986    1.316    0.240
        42 -13.6272    191.3074    154.7679   5.5902885447e+01   1.2155274749e+01     0.704079    0.4986941 -43.82  0.003403411    1.496    0.332
        43 -11.0130    236.8894     17.2238   1.3841278166e+01   2.3786279650e+01    0.2297055    0.1922049 -21.02 0.0006928219    1.425    0.298
        44 -14.5275    126.9168    106.2813   5.9483449089e+01   3.6402596114e+01     1.322285    0.7072881 -45.42  0.004863298    1.849    0.459
        45 -15.3580    148.8499    104.1042   5.3229768291e+01   3.2011660198e+01     1.771504      1.08753 -72.94  0.005410088    3.035    0.671
        46 -13.5465     35.8032    150.4675   9.1972208808e+01   4.0017193945e+01    0.3919219    0.3569946  37.36  0.001241987    1.392    0.282
        47 -13.8498     17.7197    153.1046   9.6369985490e+01   4.1101809345e+01    0.7648413    0.2647384 -89.01  0.003057299    3.449    0.710
        48 -14.7034      4.6634    163.2412   9.9944609848e+01   3.9965271455e+01    0.8803999    0.4225155 -80.02  0.004444938    1.608    0.378
        49 -15.0342    157.7878    100.0535   4.9942215094e+01   3.0744998746e+01     1.304835      1.00587 -56.30  0.003672014    1.410    0.291
        50 -14.0146     43.3309    147.2747   8.9809347076e+01   3.9961545962e+01    0.7539982    0.5435437 -77.37  0.002679242    1.164    0.141
        51 -11.7008    184.9307    124.6690   5.0239887636e+01   1.9366518382e+01    0.3149893    0.2374362 -48.49  0.001167602    1.390    0.281
        52 -12.9200    142.7549     94.7960   5.2175149568e+01   3.5353931665e+01    0.6918446    0.4903769 -61.25  0.001154281    1.682    0.405
        53 -15.0496    137.8428     84.1016   5.0319284090e+01   3.8658174013e+01     3.428323     1.197666  41.07    0.0103993    3.276    0.695
