#   1 NUMBER                 Running object number                                     
#   2 MAG_AUTO               Kron-like elliptical aperture magnitude                    [mag]
#   3 X_IMAGE                Object position along x                                    [pixel]
#   4 Y_IMAGE                Object position along y                                    [pixel]
#   5 X_WORLD                Barycenter position along world x axis                     [deg]
#   6 Y_WORLD                Barycenter position along world y axis                     [deg]
#   7 A_WORLD                Profile RMS along major axis (world units)                 [deg]
#   8 B_WORLD                Profile RMS along minor axis (world units)                 [deg]
#   9 THETA_WORLD            Position angle (CCW/world-x)                               [deg]
#  10 FWHM_WORLD             FWHM assuming a gaussian core                              [deg]
#  11 ELONGATION             A_IMAGE/B_IMAGE                                           
#  12 ELLIPTICITY            1 - B_IMAGE/A_IMAGE                                       
         1 -14.1188      2.2833     84.0145   1.4198520472e+02   5.8122262743e+01      5.33004    0.7098463 -73.98   0.01210058   10.263    0.903
         2 -14.5006      7.6851    151.5658   1.4741597364e+02   4.2921265462e+01     3.837336     1.172826 -84.37   0.01658166    3.075    0.675
         3 -13.4567    193.5880     27.0217   7.1491745636e+01   3.3596858955e+01     1.587063     1.453162  36.27  0.007496506    1.211    0.174
         4 -13.4173    209.4266      6.7363   6.3900229795e+01   3.1714503163e+01     1.286811    0.9375705  45.20  0.006918586    1.564    0.361
         5 -13.0528      2.3138     10.4520   1.2427857194e+02   7.2944295730e+01     1.598844    0.3339182 -57.29  0.005731533    5.118    0.805
         6 -10.0711     19.6364    247.7088   1.5063955980e+02   2.3392646849e+01    0.2948222    0.1938702  44.71  0.002343191    1.576    0.365
         7 -11.4237    174.0704    249.0082   1.2492894861e+02   1.5228032049e+00    0.3650873    0.2491873  66.29  0.002172104    1.953    0.488
         8 -13.4019    140.6631    247.9525   1.3060318950e+02   7.0075655582e+00     1.260575    0.4242317  50.33  0.005724503    2.557    0.609
         9  -9.1588      2.4369    249.2721   1.5324976902e+02   2.4870613701e+01    0.1605619   0.07058448 -80.35  0.001126413    2.044    0.511
        10 -10.8957    109.8717    247.3368   1.3587925112e+02   1.1852880905e+01    0.1878738    0.1394657  79.42   0.00133606    1.369    0.270
        11 -11.1325    237.3885    246.9209   1.1398273997e+02  -8.0738934730e+00    0.2322574    0.1278021  31.62  0.001468963    1.393    0.282
        12 -11.6789    185.8386    238.9739   1.2156537123e+02   8.9580682268e-01    0.3796035    0.2758756 -79.50  0.002217162    2.590    0.614
        13 -11.8231    122.2567    249.3383   1.3393772824e+02   9.6744993618e+00    0.3719857    0.2136372  51.83  0.002340219    1.328    0.247
        14 -11.7723     39.4372    214.1604   1.4558321460e+02   2.7094989750e+01      1.14301    0.6363602  31.84  0.006878597    2.335    0.572
        15 -12.6367     53.1006    209.0439   1.4272487717e+02   2.6428702337e+01     1.914168    0.4953092  58.87  0.006385853    5.381    0.814
        16 -12.7254     36.5305    236.2309   1.4742299548e+02   2.3469297522e+01    0.3174609    0.2172722 -74.40  0.000759803    1.613    0.380
        17 -13.8548     41.7795    229.1726   1.4613877536e+02   2.4093328606e+01    0.8864186    0.4923247  55.00  0.002646587    1.358    0.264
        18 -12.4719     50.6649    217.7565   1.4382923859e+02   2.5092951011e+01    0.9448484    0.5643857  74.29  0.006201006    1.396    0.284
        19 -13.3272    126.3353    231.9346   1.3137445151e+02   1.1715083878e+01     1.535318    0.2231023  41.65  0.004422919    5.816    0.828
        20 -13.0673     88.8772    226.4595   1.3764485256e+02   1.8389094144e+01     1.816174    0.1518983  48.91  0.004344346    9.188    0.891
        21 -13.2377    107.0914    230.4378   1.3471999731e+02   1.4985495310e+01     1.355597    0.1909594  45.29  0.004362209    4.799    0.792
        22 -10.0162    173.0985    222.1595   1.2149163667e+02   5.3538726898e+00    0.1990669    0.1538158  26.74  0.001252622    1.291    0.225
        23  -9.4329      3.5183    227.7167   1.5230811444e+02   2.8387796377e+01    0.2161272    0.1122093  51.74  0.001582594    1.493    0.330
        24 -10.0282     20.8723    211.9909   1.4871235565e+02   2.9518627646e+01    0.3033584    0.1451311  36.53  0.001866996    2.239    0.553
        25 -12.3134     10.3052    206.6725   1.5026139448e+02   3.1556792247e+01    0.5238143     0.374835  35.72  0.003131475    1.785    0.440
        26 -11.4626     62.3964    201.3314   1.4030546561e+02   2.6736567591e+01    0.2297959    0.1965849 -87.78 0.0005946187    1.248    0.199
        27  -9.4431    192.3448    193.6775   1.1330142895e+02   6.1833053667e+00    0.3957134    0.2055324 -62.34  0.001331494    5.174    0.807
        28 -11.8180     68.6141    192.7171   1.3824534795e+02   2.7622413195e+01    0.2447943     0.215898 -88.72 0.0005125215    1.232    0.188
        29  -9.0213     73.7782    250.2125   1.4220434461e+02   1.6518391693e+01    0.1340118    0.1125406  55.29  0.001062891    1.348    0.258
        30 -11.8307    100.2445    248.4206   1.3762651170e+02   1.3106776157e+01    0.3546956     0.274582  45.29  0.002610431    1.295    0.228
        31  -8.8630    102.5829    178.8552   1.2940885408e+02   2.5370748622e+01    0.1742335    0.1171286 -83.27 0.0004193799    1.629    0.386
        32 -11.1296      2.6321    153.7206   1.4866004431e+02   4.2850694090e+01     0.466877    0.2047726 -76.31 0.0008377052    1.758    0.431
        33 -11.6390     86.0003    170.1921   1.3186650276e+02   2.9826604961e+01    0.5481485    0.5171624  15.57  0.003535054    1.444    0.307
        34 -13.0260     65.4152    177.7495   1.3732100423e+02   3.1149618960e+01    0.4517703    0.2671958 -48.55  0.001627889    2.262    0.558
        35 -10.0224     98.1445    153.7093   1.2655936985e+02   3.1497720730e+01    0.2754821    0.2533811 -82.52 0.0008221883    1.097    0.088
        36 -11.8253     87.0057    152.9101   1.2909736601e+02   3.3465447416e+01    0.2663638    0.2461251 -52.45 0.0005317345    1.287    0.223
        37  -9.5054    134.2337    146.1713   1.1657559467e+02   2.6518907237e+01     0.439956    0.1708801 -51.83  0.001585739    2.709    0.631
        38  -9.0780    101.0432    149.3308   1.2511501173e+02   3.1982999592e+01    0.1924884    0.1659594  57.38  0.000456468    1.122    0.109
        39 -12.1619     67.3001    143.6409   1.3249216658e+02   3.8424244267e+01    0.6412692    0.3914122  65.03  0.002929728    1.763    0.433
        40  -8.4761    209.4843    179.9951   1.0753620975e+02   5.0484888225e+00    0.1569094    0.1192663 -68.54 0.0003327519    2.095    0.523
        41  -9.7762    109.8167    138.0489   1.2085410769e+02   3.2961882787e+01    0.4110019     0.270623 -24.34  0.001517415    2.684    0.627
        42  -9.1631     82.5962    133.9788   1.2702101368e+02   3.8444437350e+01    0.2464444    0.1706877  62.72 0.0006503084    1.522    0.343
        43 -10.3706     97.0980    135.4851   1.2356671887e+02   3.5769195015e+01    0.2414674     0.206595 -55.72 0.0004069807    1.196    0.164
        44  -8.7729    107.0205    124.3701   1.1873257314e+02   3.6549761770e+01    0.1897067    0.1703787  55.71 0.0003398629    1.121    0.108
        45  -9.7780    167.8834    112.9795   1.0109078505e+02   2.6034758938e+01    0.3402212    0.2681405 -69.91   0.00101638    1.516    0.340
        46  -8.8978    203.2888    111.3729   9.3430945940e+01   1.7954517362e+01    0.1575385    0.1181785   7.42 0.0007021154    1.720    0.418
        47 -10.7337     78.6525    179.4145   1.3466956634e+02   2.8956421909e+01    0.2296357    0.1938098  77.28 0.0002871283    1.037    0.036
        48  -9.1319    156.7816     75.9803   9.3214117434e+01   3.5811628770e+01    0.2101659    0.1275601 -36.26 0.0004338971    1.665    0.399
        49 -12.8895      4.4199    170.3918   1.4936078585e+02   3.9229926165e+01     1.532677    0.3522038 -74.34  0.006782573    3.237    0.691
        50 -10.5252     81.5041    248.4899   1.4079561805e+02   1.5748303608e+01    0.2421158    0.1371395  72.37  0.001445147    1.681    0.405
        51 -10.1205     30.7883    248.8352   1.4898614402e+02   2.2002344085e+01    0.2412915    0.1352556  52.75  0.001723732    1.329    0.248
