#   1 NUMBER                 Running object number                                     
#   2 MAG_AUTO               Kron-like elliptical aperture magnitude                    [mag]
#   3 X_IMAGE                Object position along x                                    [pixel]
#   4 Y_IMAGE                Object position along y                                    [pixel]
#   5 X_WORLD                Barycenter position along world x axis                     [deg]
#   6 Y_WORLD                Barycenter position along world y axis                     [deg]
#   7 A_WORLD                Profile RMS along major axis (world units)                 [deg]
#   8 B_WORLD                Profile RMS along minor axis (world units)                 [deg]
#   9 THETA_WORLD            Position angle (CCW/world-x)                               [deg]
#  10 FWHM_WORLD             FWHM assuming a gaussian core                              [deg]
#  11 ELONGATION             A_IMAGE/B_IMAGE                                           
#  12 ELLIPTICITY            1 - B_IMAGE/A_IMAGE                                       
         1 -13.0249    227.5115     30.9468   3.4656111281e+01   2.5536107857e+01     1.504473    0.8962098  43.80  0.002241783    2.675    0.626
         2 -11.1972      2.3479      9.0175   8.5368430204e+01   7.3131604238e+01     1.012978    0.1482177 -44.09  0.003676972    5.195    0.808
         3 -11.4494      2.1009     31.0874   9.4493755878e+01   6.9617640018e+01    0.9651607    0.1145694 -55.22  0.002726991    7.580    0.868
         4 -12.5027    246.2473     15.0666   3.0099668348e+01   2.3684248278e+01     0.667255    0.4225356 -61.25  0.002748921    1.242    0.195
         5  -9.7616    122.9435     30.8996   4.9135133650e+01   4.9568252593e+01    0.2787968     0.216541  84.76  0.000568479    1.431    0.301
         6 -14.1539    103.3859    227.2730   1.0035956658e+02   1.2610953445e+01     7.003424     1.371711  42.25  0.008263703    4.199    0.762
         7 -10.9035     57.1502    172.0277   1.0431238116e+02   3.2105912987e+01    0.3332002    0.2783426 -31.58 0.0004979999    1.450    0.311
         8  -8.2962     99.4873    181.0375   9.4503964950e+01   2.3576243351e+01    0.2168299    0.1437058 -58.00 0.0005065007    1.530    0.346
         9 -13.2952     10.2739    206.8028   1.1921586099e+02   2.8966151472e+01     1.024045     0.893135 -48.02   0.00641164    1.497    0.332
        10  -7.9361    110.5023    167.5694   8.9222546268e+01   2.4910530751e+01    0.1508173    0.1438329  65.47 0.0001457646    1.039    0.038
        11 -12.0491     58.0301    132.4613   9.7594408741e+01   4.1971397966e+01     2.861881    0.9391038 -72.03  0.005598588    9.677    0.897
        12 -12.2598     76.3634    156.1160   9.6470211038e+01   3.3399219017e+01     1.026239    0.7127289  67.02  0.001033234    1.711    0.415
        13 -12.2472     68.1493    144.3330   9.6729701133e+01   3.7582465289e+01    0.8373254    0.6072333  79.88  0.002354299    1.674    0.402
        14 -10.4774     68.6966    162.4485   9.9705181894e+01   3.2933275434e+01    0.3055405    0.2686995 -44.96 0.0004460571    1.213    0.176
        15 -12.4813     54.5018    158.8394   1.0312922417e+02   3.5758027493e+01     0.540882    0.3446319 -37.74  0.001567175    1.914    0.477
        16  -9.8080     37.5649    162.4102   1.0834996579e+02   3.6854847322e+01    0.2473818    0.2095392  64.61  0.001432543    1.166    0.142
        17  -9.2688     27.0616    233.7880   1.1753422573e+02   2.1384971837e+01    0.1883362    0.1269667  63.12 0.0003678356    1.223    0.182
        18  -8.9937    134.2751    147.5111   7.8887469355e+01   2.5147723789e+01    0.4194576    0.1384102 -53.83  0.001217486    3.550    0.718
        19  -9.9452     93.9840    141.5233   8.8561770608e+01   3.4178605799e+01    0.6164378    0.3938332 -16.61   0.00233043    2.696    0.629
        20 -12.9992     10.5258    232.5840   1.2075222150e+02   2.3362736399e+01     1.538287    0.8165831  80.29  0.004467909    1.685    0.407
        21 -11.1973     80.5065    140.7555   9.2357350508e+01   3.6610410073e+01    0.3289304    0.2758364 -46.11 0.0004406552    1.188    0.158
        22  -9.8468    106.1547    131.0489   8.2727740164e+01   3.4515989205e+01    0.3636894     0.338057  -6.84  0.001037795    1.159    0.138
        23 -10.2338     92.7152    127.5988   8.5861950101e+01   3.7802779664e+01    0.2877906    0.2620537 -15.72 0.0004311243    1.185    0.156
        24  -8.6410    113.7828    125.4005   7.9224359929e+01   3.4372638971e+01    0.2240624    0.1491823  28.72 0.0009521246    1.708    0.415
        25  -8.9420    104.1966    119.6520   8.0557939289e+01   3.7578309887e+01    0.2388694    0.2057305 -58.98 0.0005397197    1.184    0.155
        26 -12.0656     18.6356    204.7393   1.1723816763e+02   2.8626743111e+01    0.3616645    0.3159736 -48.44 0.0008994479    1.460    0.315
        27  -8.3902    205.9093    110.4872   5.4949760386e+01   1.7807202591e+01    0.1983885    0.1409945  55.64   0.00050744    1.525    0.344
        28  -9.9486     53.3289     91.9211   9.0162224284e+01   5.2350735369e+01    0.4990802    0.1840585 -56.70  0.001838209    2.712    0.631
        29  -8.7944     41.6610     92.0931   9.4522431281e+01   5.3742388693e+01    0.1928378    0.1599705 -41.79 0.0005320494    1.077    0.071
        30 -10.7211      1.9983     62.7365   1.0363739086e+02   6.3499800373e+01    0.4147044    0.1474423 -66.66  0.001773107    2.872    0.652
        31 -10.1726     13.3221     60.2512   9.7950986600e+01   6.3293133303e+01     0.237453    0.1852624 -58.74 0.0009140335    1.318    0.241
        32 -11.1076    204.1353     51.5802   4.1630033315e+01   2.7822554626e+01    0.4126447    0.2852585 -48.03  0.002320423    1.346    0.257
        33  -9.4922     19.4208     47.8886   9.1437016983e+01   6.5222222534e+01    0.1880574    0.1538968  16.71  0.001253132    1.312    0.238
        34 -12.8583    219.9888     37.1061   3.6651744003e+01   2.6331546646e+01    0.9800846    0.6280257  60.92   0.00534693    1.658    0.397
        35 -15.1949     29.4223    195.3261   1.1398539024e+02   2.9699054020e+01     9.342386     3.489267  89.03   0.03197372    4.061    0.754
        36  -8.3256     67.9553    206.3291   1.0597926376e+02   2.2397198501e+01    0.1851552    0.1589362  58.41 0.0003393037    1.056    0.053
        37 -14.3263     18.2344    247.4952   1.2011094422e+02   1.9546999621e+01     6.614195     1.246646  28.84   0.01955458    7.647    0.869
        38 -11.5462     50.4875    177.9383   1.0686273077e+02   3.1484755935e+01    0.6179383    0.4088897  -5.00  0.002018388    2.512    0.602
        39  -9.1276    189.5164     15.4913   3.4920226946e+01   3.5615433670e+01    0.1255775    0.1035149 -85.68 0.0008104034    1.001    0.001
