#   1 NUMBER                 Running object number                                     
#   2 MAG_AUTO               Kron-like elliptical aperture magnitude                    [mag]
#   3 X_IMAGE                Object position along x                                    [pixel]
#   4 Y_IMAGE                Object position along y                                    [pixel]
#   5 X_WORLD                Barycenter position along world x axis                     [deg]
#   6 Y_WORLD                Barycenter position along world y axis                     [deg]
#   7 A_WORLD                Profile RMS along major axis (world units)                 [deg]
#   8 B_WORLD                Profile RMS along minor axis (world units)                 [deg]
#   9 THETA_WORLD            Position angle (CCW/world-x)                               [deg]
#  10 FWHM_WORLD             FWHM assuming a gaussian core                              [deg]
#  11 ELONGATION             A_IMAGE/B_IMAGE                                           
#  12 ELLIPTICITY            1 - B_IMAGE/A_IMAGE                                       
         1 -12.8712     58.0139    132.8860   1.0811388209e+02   4.1490487365e+01     3.448997    0.9953057 -72.93  0.006508204   11.097    0.910
         2 -13.6133    215.9526     29.1499   4.3311323683e+01   2.7778996335e+01     1.002666    0.8847854 -65.24  0.004712446    1.044    0.042
         3 -12.7801    222.1120     23.5670   4.1287617932e+01   2.7004709411e+01    0.5225434    0.4934516  59.27   0.00134818    1.259    0.206
         4 -13.3061    240.9847      5.4254   3.5498086720e+01   2.4781156403e+01    0.7073392    0.5086719 -71.01  0.002665907    1.173    0.147
         5 -10.6504      2.2650      4.0192   9.5279240504e+01   7.3898194302e+01    0.4276784   0.05624163 -47.86  0.001539148    4.917    0.797
         6 -12.6000     18.4855    219.2457   1.2596751645e+02   2.6346784162e+01     0.512534     0.356827  69.84  0.001557626    1.068    0.063
         7 -15.1858    107.4817    246.5204   1.1152906292e+02   9.7803185130e+00     9.610183     2.431313  40.72   0.03817258    3.063    0.674
         8  -9.1068    195.3159    168.6524   8.1178885035e+01   8.5768109137e+00    0.1406721    0.1174875 -85.97 0.0007047803    1.724    0.420
         9 -11.0007     71.9421    167.1354   1.0969019997e+02   3.1363761804e+01    0.2666138    0.2322362 -83.18 0.0003563504    1.058    0.055
        10 -13.1074     58.3413    163.8226   1.1258615255e+02   3.3963416962e+01    0.5072806    0.2960424 -48.80  0.001642112    1.952    0.488
        11 -10.6728    194.5738    195.0686   8.6539258604e+01   4.0393340252e+00    0.4260565    0.2928949  49.72  0.002216345    1.594    0.373
        12 -13.2176     67.9196    144.1409   1.0724635909e+02   3.7444353355e+01    0.9668713    0.6094068  83.79  0.002567511    1.946    0.486
        13 -12.8647     24.7507    213.1652   1.2444477070e+02   2.6916193859e+01    0.3959364    0.3326373  72.29 0.0007770191    1.195    0.163
        14  -8.5439    179.7063    148.2999   8.0047582116e+01   1.5668003532e+01    0.1462927    0.1220102 -86.71 0.0002840929    1.569    0.363
        15  -9.9208    133.8001    145.5644   9.0175213798e+01   2.5821048221e+01      0.61258    0.1260482 -52.43  0.001389706    6.001    0.833
        16 -10.2311     94.9645    145.5074   1.0022817369e+02   3.3009783087e+01    0.3048891     0.283998  19.18 0.0008958699    1.239    0.193
        17  -9.2882     97.7597    141.9842   9.8799613623e+01   3.3386462191e+01    0.2325662    0.1866149 -17.72 0.0007527566    1.663    0.399
        18 -15.2026     33.2762    204.4730   1.2219605650e+02   2.7793928187e+01        2.033     1.566572  55.30  0.009105354    1.220    0.180
        19 -12.0262     82.6630    144.0246   1.0325011205e+02   3.5336364628e+01    0.2941682    0.2582853 -61.20 0.0004596442    1.110    0.099
        20 -10.4627     34.7631    139.4420   1.1547347105e+02   4.2474724665e+01    0.2230322    0.1157365  36.86   0.00112436    2.069    0.517
        21 -10.6856    106.8997    132.2428   9.4293946616e+01   3.4107661745e+01    0.4174311     0.386263  55.33  0.001444316    1.097    0.088
        22 -10.4310     94.2654    129.4793   9.7196365248e+01   3.6996157772e+01    0.2791634    0.2503219 -35.72 0.0004563423    1.205    0.170
        23  -9.5240    105.0470    120.9751   9.2245706722e+01   3.7126550644e+01    0.2202183    0.2102915 -58.10 0.0003145651    1.016    0.016
        24 -11.2024     22.9840    111.4965   1.1496380063e+02   5.0247375091e+01    0.2493576    0.1670203  16.47  0.001443618    1.906    0.475
        25 -11.1266     28.6780    114.3377   1.1367630019e+02   4.9097509154e+01    0.2156752    0.1768066  62.56  0.001354833    1.340    0.254
        26  -9.2299    168.0216    113.0399   7.4067474295e+01   2.5473653167e+01    0.2551099    0.1960427 -79.96  0.001123316    1.731    0.422
        27  -9.4075    204.4224    111.0245   6.6062908123e+01   1.7492148454e+01    0.3358593    0.1817215  33.87  0.001273075    2.477    0.596
        28 -15.4282      9.9377    208.1813   1.2691765158e+02   2.9400383872e+01     3.448261     1.268426 -66.10   0.01812773    2.558    0.609
        29 -12.4075     79.7502    160.1868   1.0671689075e+02   3.1882927408e+01    0.8265604    0.5315138  61.08  0.001314518    1.659    0.397
        30 -10.3637     52.7086     89.6864   1.0108371759e+02   5.2543383973e+01    0.2399793    0.1916663 -33.46  0.000679963    1.246    0.197
        31 -11.9176     64.5933    242.4030   1.1912890697e+02   1.6534244745e+01    0.2903247    0.2080193 -60.96  0.001413515    1.735    0.424
        32  -9.5415     59.6883     76.6963   9.5223227645e+01   5.4611975275e+01    0.2190966   0.09854225 -35.67 0.0002453141    2.600    0.615
        33 -11.5560     54.8331    183.9244   1.1578140461e+02   2.9751258463e+01    0.3469247    0.2730664 -31.72  0.001585289    1.905    0.475
        34  -9.7084     13.4914     60.0303   1.0862526293e+02   6.2688705609e+01    0.1866476   0.09742922 -60.16 0.0004661145    1.547    0.354
        35 -11.5427    199.7196     44.9017   4.9449996081e+01   2.9651361167e+01    0.5289438    0.2772116 -45.97  0.002317993    1.860    0.462
        36 -12.6055    206.0627     38.4396   4.6873834411e+01   2.8972820166e+01    0.6004384     0.560653 -39.36  0.003606273    1.161    0.139
        37 -11.6394     61.0401    177.5535   1.1364234510e+02   3.0411247173e+01    0.2871213    0.2441552 -59.50 0.0005612648    1.313    0.238
        38 -15.8314      6.4702    241.1321   1.2909744807e+02   2.3402442567e+01     12.90303     1.284667 -77.57   0.04078121    8.178    0.878
        39  -9.4782    189.4889     15.4863   4.2784340877e+01   3.5881403754e+01    0.1359183    0.1211647  87.60 0.0001538644    1.018    0.017
        40 -10.1302    231.2273    170.7964   7.4720143814e+01   1.5140529290e+00    0.1908059    0.1447716  -1.01 0.0005170885    1.330    0.248
