#   1 NUMBER                 Running object number                                     
#   2 MAG_AUTO               Kron-like elliptical aperture magnitude                    [mag]
#   3 X_IMAGE                Object position along x                                    [pixel]
#   4 Y_IMAGE                Object position along y                                    [pixel]
#   5 X_WORLD                Barycenter position along world x axis                     [deg]
#   6 Y_WORLD                Barycenter position along world y axis                     [deg]
#   7 A_WORLD                Profile RMS along major axis (world units)                 [deg]
#   8 B_WORLD                Profile RMS along minor axis (world units)                 [deg]
#   9 THETA_WORLD            Position angle (CCW/world-x)                               [deg]
#  10 FWHM_WORLD             FWHM assuming a gaussian core                              [deg]
#  11 ELONGATION             A_IMAGE/B_IMAGE                                           
#  12 ELLIPTICITY            1 - B_IMAGE/A_IMAGE                                       
         1 -13.4843    192.1150     43.6821   4.1152517825e+01   3.2159001667e+01     2.101776     0.527595 -32.15  0.006849756    4.307    0.768
         2 -13.9351    204.9728     27.4799   3.5794277425e+01   3.1300498926e+01    0.7039278    0.4283514 -32.67  0.002056923    1.770    0.435
         3 -16.4088    246.1543    120.2311   5.1014599305e+01   9.0275715446e+00     7.530351     2.196291 -31.03   0.01832924    7.388    0.865
         4 -16.2799    202.9678     76.4821   4.7587388545e+01   2.4863710621e+01     3.737753     1.547809  43.63   0.01371695    3.357    0.702
         5 -18.8300    238.8484     44.2464   3.6062793461e+01   2.2061164681e+01     6.447589     4.882273 -24.30   0.03956556    1.691    0.409
         6 -15.4322    146.9807     43.5659   4.8302821808e+01   4.2821671346e+01     2.529366     1.475695  74.93   0.01138332    1.995    0.499
         7 -14.2858    145.8201     26.5965   4.3453489847e+01   4.5176506054e+01      1.02777    0.9285233 -84.84  0.006184375    1.116    0.104
         8 -14.1287    134.8048     24.2235   4.4678603855e+01   4.8054509116e+01     1.244812    0.4521812 -21.11  0.004554273    3.864    0.741
         9 -12.7616    159.3188     32.0313   4.2817118450e+01   4.1328852493e+01    0.8017315    0.3871073 -27.17  0.002091985    2.403    0.584
        10 -14.0436    124.6098     25.0544   4.6929171696e+01   5.0362986831e+01    0.7447488    0.3796012  60.79  0.003510053    1.749    0.428
        11 -12.1569    155.8285     12.7601   3.7928742908e+01   4.4227071083e+01    0.4617622    0.2678066  -4.88  0.002073891    2.721    0.632
        12 -10.3487    205.7123     12.0420   3.2252024068e+01   3.2862910253e+01    0.1546184    0.1284856 -57.73 0.0003827451    1.169    0.144
        13 -10.4322    200.7560     11.8368   3.2654363443e+01   3.3973246351e+01    0.1535342    0.1446966 -84.36  0.000649575    1.222    0.182
        14 -13.4708    127.5864      8.4413   4.0951713276e+01   5.1281138814e+01    0.6247082    0.3179567  68.08  0.003091275    1.745    0.427
        15 -10.5473    191.9039      9.3386   3.2913818287e+01   3.6202054690e+01      0.16681    0.1292495  83.72 0.0002561024    1.108    0.097
        16 -11.4318    249.9863      4.5441   2.7524702564e+01   2.4619224287e+01    0.1800006    0.1347156 -85.35  0.001333806    1.172    0.147
        17 -12.0514    215.4865      2.3939   2.9390175252e+01   3.1748716604e+01    0.3545915    0.2048044  88.89  0.001943798    1.525    0.344
        18 -12.0195    209.0355      2.8584   2.9978180638e+01   3.3075678902e+01    0.2098843    0.1863309 -41.25 0.0007844238    1.351    0.260
        19 -11.2989    105.0895      2.3519   4.3085934295e+01   5.6939607576e+01    0.2083318    0.1622155  25.83   0.00131344    1.330    0.248
        20  -9.3905    197.6624      2.2495   3.0770180401e+01   3.5609927790e+01    0.1230751   0.07354489 -73.08 0.0004648945    1.564    0.360
        21 -10.2581    237.4959      1.3715   2.7693911798e+01   2.7360827488e+01    0.1100618   0.08530296 -77.62 0.0002009999    1.061    0.057
        22 -14.9752     55.1524    148.4829   1.0242899635e+02   3.8195704636e+01     2.461296     1.342751   5.42  0.004291266    3.086    0.676
        23 -15.1522     62.1651    145.0101   9.9749111956e+01   3.8200919707e+01     1.461783     1.264298 -43.02  0.004257981    1.171    0.146
        24 -10.2527    203.3061    154.2731   6.5498595204e+01   1.0563283105e+01    0.2198444    0.1716864 -36.19 0.0002437116    1.173    0.147
        25 -11.1682    203.6888    150.9841   6.4711996612e+01   1.1125365586e+01    0.3446381    0.1994993  62.82  0.001343069    3.008    0.668
        26 -11.7263    133.6026    145.8178   7.9468497158e+01   2.5995617453e+01    0.9751177    0.2844606 -55.12  0.002403332    4.993    0.800
        27 -10.5418    132.4495    138.9408   7.8187965131e+01   2.7823705002e+01    0.3327635     0.234566 -73.46  0.001386589    1.960    0.490
        28 -11.3981    144.0131    146.6328   7.6985368174e+01   2.3748874802e+01    0.4336846    0.2610487 -67.97  0.001587519    2.596    0.615
        29 -10.9708    221.9955    140.4868   5.9089480073e+01   9.7447892361e+00    0.1948133    0.1397919  46.70  0.000855259    1.590    0.371
        30 -12.7660    210.6683    134.5705   5.9793933371e+01   1.2935856240e+01    0.3905344    0.3249545  89.34  0.002095978    1.597    0.374
        31 -10.3005    140.5943    107.1793   6.8075776336e+01   3.3201124423e+01    0.3750308    0.2368394  14.56   0.00135005    2.781    0.640
        32 -11.5621    131.3339     92.4333   6.6381819477e+01   3.8271819980e+01    0.7136706    0.4154478 -69.10  0.002343714    3.529    0.717
        33 -12.2058    136.0000    129.5041   7.4993520881e+01   2.9274364742e+01     1.422792    0.2724017 -50.15  0.002977013    6.614    0.849
        34 -11.6833    135.0737    121.4080   7.3215893486e+01   3.1291745337e+01    0.8187289    0.2124617 -46.80  0.002154795    3.841    0.740
        35 -12.0685    134.7913    111.3330   7.0675940203e+01   3.3570224619e+01    0.8174794     0.298489 -41.11  0.002634095    2.806    0.644
        36 -11.2693    134.4948    104.5006   6.8919013664e+01   3.5095547601e+01    0.4464164    0.2620062 -31.72  0.001783429    1.953    0.488
        37 -11.5614    133.0299     99.9625   6.8055555436e+01   3.6364205613e+01    0.4794769    0.2894855 -52.39  0.001033394    1.810    0.448
        38 -12.3163    201.8003    136.0985   6.1778142187e+01   1.4353274481e+01    0.4523039    0.2916519 -44.48  0.002158492    1.451    0.311
        39 -12.4058    202.6245    191.7015   7.3306889329e+01   3.6393806542e+00    0.3855969    0.2283455  30.77  0.001725718    1.710    0.415
        40 -12.6738    172.5018    124.0143   6.4898528707e+01   2.2754708776e+01    0.6128078    0.4100468 -52.48  0.002478989    1.562    0.360
        41 -13.2446    161.1785    128.5691   6.8552132625e+01   2.4205144155e+01    0.8963017    0.5316376  34.80  0.003557239    1.890    0.471
        42 -12.9592    162.6132    120.8265   6.6314369649e+01   2.5533720315e+01    0.4332879    0.3410501 -56.67 0.0008019233    1.349    0.259
        43 -12.6737    167.8260    114.4643   6.3555233605e+01   2.5711919214e+01    0.5789539    0.4989468   0.17  0.001779097    1.341    0.255
        44  -9.7118     96.4785    128.4567   8.5907413783e+01   3.7130403409e+01     0.154238    0.1472806 -30.52 0.0001817007    1.031    0.030
        45  -9.2490    225.6413    126.2775   5.5404761567e+01   1.1643439830e+01     0.134459    0.1043561 -73.16 0.0003235216    1.660    0.398
        46 -11.2793    192.3847    125.8987   6.1249457961e+01   1.8216115333e+01    0.2389123    0.2112669  67.91 0.0005529139    1.288    0.224
        47  -9.9266    249.4779    188.5228   6.4113560098e+01  -2.8356619114e+00    0.1282843    0.1005167 -17.28  5.30555e-05    1.030    0.029
        48 -10.6450    174.0576    114.0492   6.2111077912e+01   2.4437001078e+01    0.2423236    0.1869721 -81.27  0.001121992    1.713    0.416
        49 -12.8205    126.6750    112.1256   7.3056912467e+01   3.5115618582e+01    0.6366485    0.4961475  41.65  0.001062977    1.298    0.230
        50 -12.3236    202.4120    127.5102   5.9712922623e+01   1.5878894828e+01    0.3597664    0.2789672  88.75   0.00150179    1.809    0.447
        51 -13.4306    126.6954    105.2026   7.1189493021e+01   3.6622211069e+01     1.186906    0.6169867  59.32  0.004114605    2.811    0.644
        52 -10.2562    178.3397    110.0075   6.0216608911e+01   2.4300622412e+01    0.2366918    0.1793284 -24.73 0.0006895032    1.461    0.315
        53 -12.3962    112.3125    104.5427   7.5074806959e+01   3.9745587079e+01    0.4216032    0.3522684 -52.92  0.001202523    1.237    0.192
        54 -11.3940    146.0766    104.3553   6.5956846858e+01   3.2581071124e+01    0.3287483    0.2747912  31.76 0.0007741572    1.266    0.210
        55 -12.8316    209.6552     95.9210   5.1141928463e+01   2.0168942488e+01    0.4828996    0.3019215 -70.74  0.001865899    2.256    0.557
        56 -11.8769    139.2323     94.8326   6.5039846019e+01   3.6036225050e+01    0.3589904    0.3104332  68.91 0.0008158751    1.273    0.214
        57 -12.7180    152.7450     91.2974   6.0834473807e+01   3.3666116941e+01    0.3480825    0.2851883 -41.39 0.0006172428    1.214    0.177
        58 -14.5768      4.8357    169.0453   1.1867947852e+02   3.7840789863e+01     2.299286     0.718235 -82.31  0.008799754    3.107    0.678
        59 -11.3634    126.1759     71.7956   6.1606818489e+01   4.3320829611e+01    0.2191913     0.202533 -78.68 0.0005986168    1.213    0.176
        60 -10.9181    136.4861     71.4855   5.8949299429e+01   4.1020524178e+01     0.146232    0.1423002  52.55 0.0001291218    1.011    0.011
        61 -10.7843    122.5643     67.2122   6.1121376745e+01   4.4930889478e+01    0.2928506     0.138053 -42.59  0.001153527    2.221    0.550
        62 -13.2248    130.5286     64.3023   5.8202593716e+01   4.3607360788e+01    0.7763054    0.3181468 -36.30  0.002911735    2.542    0.607
        63 -13.7055    138.4562     61.5484   5.5496869790e+01   4.2211587518e+01    0.9631816    0.5613541  26.27  0.003762866    2.682    0.627
        64 -12.9931    127.7188     18.5278   4.4183641030e+01   5.0314738209e+01    0.4944439    0.2326655  64.63  0.001351682    1.914    0.478
        65 -13.5422    204.6394    198.5855   7.4221880757e+01   2.0848370558e+00    0.4900834    0.4264637 -12.08  0.002991279    1.049    0.047
        66 -10.4024    202.0236    248.0800   8.3309300877e+01  -5.5697399757e+00    0.1829262    0.1449869   6.02 0.0003468061    1.011    0.011
        67 -10.9157    167.8802     50.4217   4.6516167817e+01   3.6896941910e+01    0.2578787    0.1963847 -69.19 0.0006117661    1.408    0.290
        68 -11.7923    181.3275    211.1085   8.1329297911e+01   3.5290173242e+00    0.4348422    0.3180619  61.34  0.001684777    2.138    0.532
        69 -12.2790    144.3097     65.3778   5.5336012808e+01   4.0221914269e+01     0.304395    0.2726548   1.40  0.001431354    1.262    0.208
        70 -12.5412    166.9720     36.4076   4.2839710976e+01   3.8973835776e+01    0.6269507    0.2282477 -32.03  0.002482224    2.894    0.655
        71 -14.3254    166.7657     81.0555   5.5053700205e+01   3.2304854384e+01     1.271197    0.7485592 -26.72  0.003063952    2.065    0.516
        72 -11.0609    183.3159    207.0193   8.0173546511e+01   3.9591707812e+00    0.3362268    0.1832857 -22.91   0.00142218    2.398    0.583
        73 -11.8653    116.9917     19.2730   4.6570094296e+01   5.2735533266e+01    0.2327244    0.1990079 -14.85 0.0003059621    1.324    0.245
        74 -10.1905    176.0158     22.2232   3.7826603443e+01   3.8500901385e+01    0.1707767     0.150289 -88.23 0.0005264415    1.024    0.024
        75 -10.2297    169.2227     20.8288   3.8332628530e+01   4.0245478134e+01    0.2085425    0.1554084 -75.64  0.001213452    1.337    0.252
        76 -10.6425     78.8928     19.0455   5.6327568443e+01   6.1033861992e+01    0.2186034    0.1681044 -16.08 0.0006668392    1.374    0.272
        77 -11.2156    210.2654     17.9292   3.3139381006e+01   3.1236773412e+01    0.3191357    0.1603833  85.73  0.001622053    2.004    0.501
        78 -12.5563    116.9967     23.2808   4.7941295066e+01   5.2319379252e+01     0.298101    0.2377223  72.83  0.001120273    1.291    0.225
        79 -14.8146     19.8884    164.8941   1.1446787202e+02   3.7664119121e+01    0.9569182       0.8222 -78.24  0.003770608    1.054    0.052
        80 -12.8768    223.5625    204.8002   7.1739592010e+01  -1.8193744095e+00    0.4440804    0.2735457   6.71  0.001657981    1.874    0.466
        81 -13.6579    192.8037    195.1185   7.5966525378e+01   4.6142826570e+00     1.127114    0.6086265 -64.18  0.003427166    5.640    0.823
        82 -12.1361    177.0165    169.7169   7.4261704089e+01   1.2346037438e+01    0.2081228    0.1934563   3.81 0.0006321305    1.038    0.036
        83 -10.4488    209.9240    170.1930   6.7571179676e+01   6.3806267495e+00    0.1920163    0.1825491 -29.57 0.0003041628    1.176    0.150
        84 -12.7598    184.6115    169.8224   7.2635667729e+01   1.0929845840e+01    0.4166332    0.2573431 -50.37  0.001888647    1.743    0.426
        85 -12.2949    198.6965    162.2619   6.8120426377e+01   9.8600578754e+00    0.4795759    0.3136474 -71.47  0.001885143    3.071    0.674
        86 -12.7227     35.0194    159.2497   1.0975156021e+02   3.7676054791e+01     1.391888    0.6087184  78.06  0.004445749    4.399    0.773
        87 -15.0894    228.6780     72.4143   4.3138903786e+01   2.0082973030e+01     1.441698    0.3972321 -52.00  0.004179131    5.226    0.809
        88 -11.1166    162.3138    157.9199   7.5071796057e+01   1.7628878613e+01    0.2220484     0.191153 -33.66  0.001130475    1.131    0.116
        89 -14.0896    190.2593    152.5761   6.7744949676e+01   1.3338901861e+01    0.8511336    0.5735793 -48.31  0.004054691    1.498    0.333
        90 -13.7556     47.5034    152.1794   1.0524614543e+02   3.8147369965e+01    0.5369437    0.5028206 -34.50 0.0009727523    1.178    0.151
