#   1 NUMBER                 Running object number                                     
#   2 MAG_AUTO               Kron-like elliptical aperture magnitude                    [mag]
#   3 X_IMAGE                Object position along x                                    [pixel]
#   4 Y_IMAGE                Object position along y                                    [pixel]
#   5 X_WORLD                Barycenter position along world x axis                     [deg]
#   6 Y_WORLD                Barycenter position along world y axis                     [deg]
#   7 A_WORLD                Profile RMS along major axis (world units)                 [deg]
#   8 B_WORLD                Profile RMS along minor axis (world units)                 [deg]
#   9 THETA_WORLD            Position angle (CCW/world-x)                               [deg]
#  10 FWHM_WORLD             FWHM assuming a gaussian core                              [deg]
#  11 ELONGATION             A_IMAGE/B_IMAGE                                           
#  12 ELLIPTICITY            1 - B_IMAGE/A_IMAGE                                       
         1 -14.6762    199.2240     63.4364   2.9125461871e+01   2.6741132670e+01     12.69868     5.090981 -40.77   0.04637028    2.390    0.582
         2 -12.9812    217.6190     34.9261   1.8926265714e+01   2.6293729839e+01      1.42127    0.9099443 -51.54   0.00705681    1.493    0.330
         3 -12.1482    223.1268     13.0028   1.2857922987e+01   2.7678654080e+01     1.005355    0.5668658  29.99  0.004020298    3.593    0.722
         4 -14.3175    236.3629     34.8873   1.6750400981e+01   2.1708226295e+01     4.363639     1.781601 -24.03   0.01579181    3.496    0.714
         5 -13.6449    245.6115     17.6837   1.1863138679e+01   2.1745404599e+01     4.598526    0.3588324 -37.37   0.01369992    4.998    0.800
         6 -11.0798    133.3142     39.1334   3.4753547511e+01   4.7322571147e+01    0.5286919    0.3288959 -56.27  0.002312059    2.097    0.523
         7  -9.5645    169.3666     22.1290   2.2127233384e+01   4.0404370920e+01    0.4840734    0.2871704 -12.38  0.002127025    2.299    0.565
         8 -10.0532    161.1881     18.9555   2.2478808710e+01   4.2896643238e+01    0.3552025    0.3109607  69.35 0.0009132389    1.029    0.028
         9 -10.7164    179.5723     23.0274   2.0822779885e+01   3.7632589261e+01     0.762547    0.4887447  75.07  0.003679681    1.483    0.326
        10  -9.8580    199.3721     15.2375   1.5999379457e+01   3.3405937663e+01    0.3516944    0.2638208 -11.66  0.001301755    1.744    0.426
        11  -9.0363    189.1012     14.8948   1.7178374604e+01   3.6097933598e+01    0.4474913    0.4094807 -33.76   0.00268005    1.245    0.196
        12 -10.5148    120.1990      9.3698   2.7041251757e+01   5.4088552318e+01    0.3421682    0.3060775 -18.81 0.0009874487    1.223    0.182
        13  -9.7013    181.0096      5.0019   1.5413882356e+01   3.9245721410e+01    0.3774524     0.317141  60.08  0.002222043    1.167    0.143
        14 -10.2842     93.1397      7.0706   3.2872676730e+01   6.0290221865e+01    0.3371301    0.2036382 -12.27 0.0007340415    1.807    0.447
        15  -8.1814    205.5221      5.3342   1.2717138208e+01   3.2928857025e+01    0.1615279    0.1345963  -0.39 0.0006528446    1.624    0.384
        16  -9.6264    105.4833      2.4689   2.7745957245e+01   5.8094647499e+01    0.2264583     0.170701 -13.82  0.001336287    1.419    0.295
        17  -9.3228    116.8952      2.8781   2.5298352657e+01   5.5473799181e+01    0.4085686    0.1691794  67.93  0.001636514    2.650    0.623
        18 -14.8075    234.1808    102.4235   3.3331059834e+01   1.1720930692e+01     6.446603     1.599557 -45.04   0.01038278    4.292    0.767
        19 -12.2651    222.0961     23.5762   1.5555893429e+01   2.6655544068e+01     0.915805    0.6106833   6.85  0.002969533    2.715    0.632
        20  -9.8212    210.1990    187.8271   5.6291045416e+01   2.0961733445e+00     0.357428    0.2178903 -59.20  0.001585335    2.675    0.626
        21 -12.4529     42.8681    247.8472   9.5940816200e+01   1.9377738184e+01    0.9742421    0.3223557  43.05   0.00519365    2.394    0.582
        22  -9.7528    241.1982    182.9354   4.9675476482e+01  -2.8064142645e+00    0.3412118     0.197738  24.75 0.0003958907    1.908    0.476
        23 -11.3079    221.9305    175.1160   5.1605831771e+01   1.9200459404e+00    0.4771324    0.4274436 -87.41  0.001110878    1.517    0.341
        24 -11.0898    238.2321    175.5627   4.8744823958e+01  -1.1787856128e+00    0.6660814     0.447735  79.66  0.002649962    3.985    0.749
        25 -11.4328    230.3445    169.2097   4.8871963276e+01   1.2697922524e+00    0.7179689    0.4224464 -31.11   0.00260704    1.725    0.420
        26 -11.4335    212.7250    179.4880   5.4203624493e+01   2.9715366153e+00    0.5217483    0.4500767  10.71  0.001963773    1.132    0.116
        27  -9.0385    196.4247    176.1813   5.6735143548e+01   6.7395827890e+00    0.1858401    0.1351699 -55.02 0.0004397224    1.660    0.398
        28  -8.7326    150.4706    176.0042   6.6367739294e+01   1.6066266551e+01    0.2402437    0.1778333  46.52  0.000746175    1.235    0.190
        29  -8.8051    207.3824    171.6419   5.3672231574e+01   5.3375931618e+00    0.2089699    0.1747064  88.34  0.001107355    1.655    0.396
        30  -9.3842    189.9733    171.6678   5.7144387237e+01   8.8546730991e+00    0.2031593    0.1746842  43.43 0.0004487274    1.091    0.083
        31  -9.5884    249.9322    169.3669   4.5483704868e+01  -2.3364157831e+00    0.2528538    0.1702515 -44.46  0.001362063    1.677    0.404
        32  -9.2887    177.4947    169.4955   5.9300693666e+01   1.1831796604e+01    0.1462914    0.1356052  52.98 6.598785e-05    1.051    0.048
        33  -8.2673    142.3861    167.7532   6.6656826516e+01   1.9384956400e+01    0.1817315     0.140339 -43.23 0.0002747082    1.462    0.316
        34  -8.4072     87.5558    168.5058   7.9488576731e+01   2.9162787559e+01    0.1370471    0.1197344  81.37 9.797401e-05    1.032    0.031
        35  -8.2513    165.0426    166.7780   6.1432338461e+01   1.4949583169e+01     0.204598    0.1616804 -81.88 0.0006736577    1.577    0.366
        36 -10.6352    243.6889    165.2324   4.5705747802e+01  -5.9010576702e-01    0.5210678    0.2450479  45.48   0.00234959    2.165    0.538
        37  -8.8345    202.9447    166.4644   5.3487476869e+01   7.1365569050e+00    0.1965732    0.1250045  68.14 0.0008082632    2.461    0.594
        38 -12.6548    177.5234     88.5728   4.0093822769e+01   2.7854615185e+01     1.859356    0.9929771 -22.35  0.001506593    2.952    0.661
        39  -9.1074    134.0948    248.2686   8.0064303937e+01   6.0250414288e+00    0.2256306     0.139709  77.43  0.001233587    2.223    0.550
        40 -10.5934    196.5261    159.3052   5.3278289384e+01   9.7617416076e+00    0.4445791    0.4112774  83.88  0.001402923    1.235    0.191
        41 -11.3681    191.3514    153.7973   5.3158832439e+01   1.1892990331e+01    0.7440086    0.5354552  52.63  0.003434783    1.394    0.283
        42 -12.7204    250.0079    101.6087   3.0733845876e+01   8.4226169990e+00     1.270937    0.6763057 -41.21 0.0004568382    1.697    0.411
        43  -9.2192    124.3914    156.6037   6.8756372271e+01   2.5354446517e+01    0.2901306    0.2198563  88.50 0.0006937183    1.494    0.330
        44  -9.5148    144.0614    178.7961   6.8273399528e+01   1.6766443339e+01    0.2142424    0.2005149 -75.58  0.000437453    1.137    0.121
        45 -10.3321    203.6491    152.4868   5.0396597682e+01   9.5056224463e+00     0.470451    0.3442371 -74.82  0.001698616    2.056    0.514
        46  -8.4572    150.9116    154.8852   6.2203030183e+01   2.0357940981e+01    0.2116025       0.2006   3.96 0.0003901179    1.213    0.175
        47  -9.4410    167.6042    153.7013   5.8201781764e+01   1.7044295568e+01    0.3128856    0.2256166 -76.58  0.001149423    1.891    0.471
        48 -11.8121      2.8067    147.6622   9.6791533772e+01   4.3689387507e+01    0.7430925    0.2573934 -78.50  0.003623992    2.271    0.560
        49 -10.1301    174.1223    148.7018   5.5700148135e+01   1.6639061489e+01    0.4632874    0.2212828 -36.19  0.001714318    2.490    0.598
        50 -10.2586    133.7915    145.4610   6.4292192624e+01   2.5967924407e+01     1.072433    0.3138358 -57.12   0.00277055    5.069    0.803
        51  -9.4836    179.3787    147.1931   5.4234178163e+01   1.5785308330e+01    0.2130696    0.1413796 -55.14 0.0005435608    1.702    0.412
        52 -12.3193     48.2678    135.5279   8.4409418231e+01   4.2236139677e+01    0.9944542    0.5963423 -61.95  0.002451031    1.470    0.320
        53 -12.5035     40.5021    136.1670   8.6507001318e+01   4.2945038250e+01    0.9809693    0.5416225 -68.38  0.004710562    1.525    0.344
        54 -12.3539     32.8044    138.5755   8.8766449968e+01   4.3174808172e+01    0.5797779    0.4054369  34.44  0.001372792    1.673    0.402
        55 -11.3433     67.5380    143.9156   8.0686769481e+01   3.7828977203e+01     2.972563        1.355 -79.88   0.01059539    2.981    0.665
        56 -10.4153    203.5335    143.4663   4.8430467968e+01   1.1190435568e+01    0.4297848    0.2744455  34.64  0.001820731    1.702    0.413
        57  -8.9784    228.4921    140.5388   4.3094817012e+01   6.3965823904e+00    0.2901572    0.1359372 -36.59 0.0009345319    2.080    0.519
        58  -9.7627    210.7014    136.2663   4.5409627181e+01   1.0947794171e+01     0.375035    0.2255499 -24.90  0.001580947    2.009    0.502
        59  -9.7691    138.5839    135.4013   6.0963720997e+01   2.7206837447e+01    0.3536787    0.2443381  60.78 0.0007184754    1.545    0.353
        60 -10.6555    200.9505    139.9066   4.8138704326e+01   1.2421267770e+01    0.4942586    0.3448699 -33.09  0.001345572    1.497    0.332
        61  -8.3490    215.6201    134.8279   4.4152975837e+01   1.0133793401e+01     0.217184    0.1315662 -47.94 0.0009510804    1.751    0.429
        62  -9.3312    173.2544    134.4423   5.2679719797e+01   1.9731534687e+01    0.2781631    0.2088742 -45.29 0.0005817895    1.367    0.268
        63 -10.6663    155.4563    133.4841   5.6495723885e+01   2.3947511443e+01    0.4133335    0.3480053 -46.47 0.0006705496    1.227    0.185
        64  -9.9287    160.5390    128.2068   5.4079352098e+01   2.3925755485e+01     0.396116    0.3177756 -65.46  0.001771292    1.364    0.267
        65  -9.3913    223.1193    129.0005   4.1444175627e+01   9.5427160539e+00    0.2563479    0.2083036  39.77 0.0003416064    1.267    0.211
        66  -9.6533    136.1465    127.9028   5.9862078873e+01   2.9394709143e+01    0.5580488    0.1872879 -53.01  0.001691177    3.358    0.702
        67  -9.1566    175.9932    129.0370   5.0808308375e+01   2.0206768320e+01    0.1864793    0.1812574 -57.88   0.00048223    1.047    0.045
        68  -8.6689     80.9864    128.2429   7.4441836190e+01   3.9573752064e+01    0.2916484    0.1663403 -86.15  0.001009777    2.587    0.613
        69 -10.0017    192.4682    144.0870   5.0796153791e+01   1.3502200974e+01    0.3178259    0.2424303  45.15 0.0005092852    1.277    0.217
        70 -12.4859     15.4299    142.5143   9.3434736220e+01   4.3848272049e+01     0.619769    0.4125673  87.57  0.003979361    1.244    0.196
        71  -7.9796     90.9840    128.4705   7.1776078723e+01   3.7918679734e+01    0.1860336    0.1140066  66.11 0.0003755149    2.066    0.516
        72  -9.3320    201.8351    125.5825   4.4631583762e+01   1.4920746048e+01    0.2390865    0.2004793 -64.10 0.0003583877    1.324    0.245
        73  -9.8020    197.8371    129.9379   4.6454347524e+01   1.5007630124e+01    0.3399882    0.2704227 -66.06 0.0008584651    1.474    0.322
        74  -8.5017    179.2527    123.9991   4.8891139641e+01   2.0469131941e+01    0.2152043    0.1945217 -51.16 0.0003910431    1.123    0.109
        75 -11.5147    207.0532    180.3833   5.5467580463e+01   3.9201576649e+00     1.050409    0.6783731  87.43  0.003476738    5.077    0.803
        76  -8.3974    205.7164    121.9939   4.3022372313e+01   1.4703693562e+01    0.2050329    0.1903255 -46.56 0.0004535632    1.073    0.068
        77 -10.0371    134.6643    119.3154   5.8198763039e+01   3.1624699899e+01      0.38454    0.2839267 -78.68  0.001048686    1.685    0.406
        78 -12.2104    125.9651    107.4591   5.7491270154e+01   3.6118338553e+01     2.329667     1.441204  43.47   0.01009812    1.641    0.391
        79 -13.8609    232.9861     84.9638   2.9319528856e+01   1.4921876381e+01     1.375705    0.7350975 -51.93 0.0008291189    1.968    0.492
        80  -9.8106    213.8189    115.3296   3.9903600384e+01   1.4069626442e+01    0.4368309    0.2910848 -68.90  0.001603062    2.135    0.532
        81 -10.4071    201.3391    115.9629   4.2404912626e+01   1.6849914525e+01    0.4987345    0.3299119  49.79  0.002251409    1.517    0.341
        82 -11.2853    205.6250    109.5959   4.0018454092e+01   1.7029458289e+01    0.6033185    0.5403172  26.75  0.002103003    1.222    0.182
        83 -11.3572    203.7930     46.9580   2.3948153033e+01   2.8112873751e+01    0.7708539    0.3594533 -25.87  0.002921812    2.638    0.621
        84  -7.8995    148.5148    117.4930   5.4317589363e+01   2.8953156429e+01     0.157812    0.1503531  82.85 0.0008103092    1.028    0.027
        85 -10.0934     61.9477    114.1322   7.7092479884e+01   4.5608253714e+01    0.2071019    0.1798963 -72.69 0.0002593502    1.020    0.020
        86 -11.0353    135.0764    102.3815   5.3783577757e+01   3.5241122818e+01    0.6640957    0.4483248 -30.94  0.002129109    1.761    0.432
        87  -7.7334    110.6451    114.2658   6.3301616377e+01   3.7694020595e+01    0.1535302    0.1146202  76.41 0.0006327563    1.628    0.386
        88 -11.5246    134.8101    110.7250   5.6025820753e+01   3.3488932780e+01     0.890335    0.3856612 -45.93  0.003192977    2.319    0.569
        89  -8.3607    182.1621    109.4232   4.4639874545e+01   2.2682871177e+01    0.2185064    0.1492122  66.73 0.0009276479    1.671    0.401
        90  -8.8552    216.0362    107.3717   3.7571851350e+01   1.4993904890e+01    0.2644561    0.2062125 -25.45  0.001302761    1.369    0.270
        91 -10.5404    149.9925    106.9709   5.1273895934e+01   3.0860364048e+01    0.3892955    0.3054895  50.45 0.0007022687    1.257    0.205
        92  -9.4818    109.9948    107.1395   6.1741970328e+01   3.9440710421e+01    0.3786637    0.2378228 -42.73   0.00104467    1.641    0.390
        93 -10.9658    144.0422     98.3280   5.0423524915e+01   3.4058549700e+01    0.7020112     0.345475 -50.49  0.001925906    2.171    0.539
        94 -10.1127    219.1545    113.5518   3.8516917402e+01   1.3170582688e+01    0.3706743    0.2805006  88.44 0.0005376068    1.736    0.424
        95  -9.3956    158.0780     85.8848   4.3591891445e+01   3.3206749040e+01    0.2690119    0.2223841 -44.17 0.0004239907    1.224    0.183
        96  -9.5388    138.2902     87.8920   4.8952896423e+01   3.7542500557e+01    0.3586998    0.2370195 -51.19  0.001148507    1.578    0.366
        97  -9.2280    142.9161     83.4951   4.6521357233e+01   3.7339554360e+01    0.3909813     0.272936 -87.93  0.001590298    2.146    0.534
        98  -9.1604    133.4049     85.0146   4.9378558506e+01   3.9247712350e+01    0.3392156    0.2220412  66.49 0.0009951468    1.889    0.471
        99  -9.5013    165.4305     82.5407   4.0991701765e+01   3.2021977356e+01     0.302772    0.2528125 -67.99 0.0006336234    1.293    0.227
       100 -10.3803    140.6645     76.4205   4.4987991429e+01   3.9248596407e+01    0.6056589    0.3296043 -27.14  0.001483017    2.410    0.585
       101 -10.6305    136.8118     68.9454   4.3667977621e+01   4.1565052517e+01    0.5108861      0.35725  77.92  0.001152305    1.919    0.479
       102  -9.0787    213.2272    175.0156   5.3223784273e+01   3.6143481884e+00    0.2505578    0.2322329 -75.58 0.0003796986    1.354    0.261
       103  -8.8534    153.7602     76.9897   4.2013963631e+01   3.5966879145e+01    0.2457756    0.2041584 -70.47  0.001172088    1.338    0.253
       104  -8.8729    132.0152     74.5113   4.6610177313e+01   4.1638138117e+01    0.2305485    0.1492362  50.86 0.0004605252    1.532    0.347
       105  -9.3573    151.5040     70.5055   4.0602251538e+01   3.7719690684e+01    0.2766298    0.2722558  53.92 0.0008164073    1.034    0.033
       106  -9.5453    168.9868     68.6894   3.6236781922e+01   3.3636286797e+01    0.3618904    0.2044708 -45.09  0.001477653    1.813    0.448
       107  -9.3917    163.1495     65.8984   3.6635395641e+01   3.5610145339e+01    0.2645562    0.2012375 -48.18 0.0003947253    1.352    0.260
       108 -11.7445    147.9280     52.1174   3.5697726431e+01   4.1752359132e+01     0.670669    0.4639783 -87.32  0.002663292    2.019    0.505
       109 -11.3909    152.9017     62.5165   3.7847029426e+01   3.8782320228e+01    0.8264116    0.3897347 -35.00  0.001128786    2.219    0.549
       110  -9.6059    186.4173     62.7139   3.1146830862e+01   3.0156008635e+01    0.4250859    0.2668709 -28.00  0.001588972    1.796    0.443
       111  -9.5965    102.6000     63.3703   5.1339804763e+01   5.0088111223e+01    0.2764349    0.2516439 -83.86  0.000500712    1.299    0.230
       112 -14.4902    198.5279     93.0153   3.7137835771e+01   2.1796519520e+01     5.937481     1.231802  47.79   0.01448423    5.215    0.808
       113 -10.3450    144.3158     59.2608   3.8800333313e+01   4.1469308162e+01    0.3410994    0.2910044 -61.70 0.0005581668    1.274    0.215
       114  -9.0166    134.6191     60.1894   4.1448570919e+01   4.3652226367e+01    0.2174737    0.1453318 -24.54 0.0009598708    1.729    0.422
       115  -8.3002     72.5484     58.4623   5.9512086361e+01   5.6326315701e+01    0.1337806    0.1208136 -25.54 7.269196e-05    1.002    0.002
       116 -14.4178    247.4507     78.9698   2.5842698619e+01   1.2614522152e+01     1.521479     1.319059 -29.58  0.005128914    1.198    0.165
       117  -9.6618    179.0022     52.1241   2.9447270825e+01   3.3771204583e+01     0.475136    0.2814165  18.11  0.001604396    3.576    0.720
       118  -9.2463    209.0532     51.7441   2.4451606000e+01   2.6058461505e+01    0.2910472    0.2059409 -30.85 0.0005769076    1.513    0.339
       119  -9.4328    246.1060    245.3524   5.9745839272e+01  -1.1511228735e+01    0.1580334   0.08776947  43.25 0.0009395807    1.799    0.444
       120 -10.1042    107.9131    242.1478   8.4182432927e+01   1.1219836516e+01    0.2035826    0.1731492 -77.68 0.0005010249    1.379    0.275
       121 -10.4314    188.6347     45.4213   2.5868593123e+01   3.2265581607e+01     0.623193    0.2164712 -40.36  0.002174301    2.766    0.638
       122 -10.5130    187.4710     41.4987   2.4940643608e+01   3.3134959768e+01    0.3476498    0.3029502  71.96  0.001144647    1.076    0.071
       123  -9.6167    131.2711     45.8669   3.7543548696e+01   4.6804341456e+01    0.4103783    0.2063281 -26.61  0.001169809    2.323    0.570
       124 -12.3405     66.3420    235.1460   9.1061374645e+01   1.8596457046e+01    0.7307998    0.5074285  67.40  0.004848162    1.085    0.079
       125  -9.5557    191.0050     35.3637   2.2656926484e+01   3.3063252348e+01    0.4915032    0.3535598  48.74  0.001993285    1.466    0.318
       126 -10.5736    139.0617     43.8119   3.4997308067e+01   4.5235554341e+01    0.3267131    0.2188376 -25.11  0.001526219    1.656    0.396
       127  -9.9423     91.4358     40.1432   4.6689163107e+01   5.6303429944e+01    0.2694277    0.2254252 -17.13 0.0004258022    1.161    0.139
       128  -8.9524    182.9628     37.9416   2.4642024331e+01   3.4812713892e+01    0.2172574    0.2037655  75.05 0.0004465706    1.054    0.051
       129  -9.8231    150.8197     39.1164   3.0882435396e+01   4.2984860533e+01    0.2769141    0.2197591  29.33 0.0009164974    1.409    0.290
       130  -9.5909    141.4774     37.4796   3.2333307824e+01   4.5560594119e+01    0.1461581    0.1364832  50.58   4.8091e-05    1.013    0.013
       131  -9.1266    200.8410     30.1487   1.9826715435e+01   3.1201794969e+01    0.2286842    0.1933827  74.56 0.0003246041    1.102    0.093
       132  -9.2445    197.7190     28.1007   1.9689536120e+01   3.2273144623e+01    0.2216774     0.202465 -56.72 0.0004216639    1.126    0.112
       133  -8.5409     78.0938     42.1230   5.1872706936e+01   5.8383881519e+01    0.1956316    0.1623438  -7.70 0.0003927891    1.167    0.143
       134  -9.6471    165.4788     25.8984   2.3926041778e+01   4.0960017341e+01    0.4189747    0.2877192 -85.88  0.001992365    1.678    0.404
       135  -9.9437    159.3080     22.6484   2.3966858174e+01   4.2952351001e+01    0.3112466    0.2470633 -53.19  0.001555893    1.355    0.262
       136 -12.0620     59.6711    232.0632   9.2010163820e+01   2.0062904813e+01    0.5434994    0.4312001 -84.18  0.001143013    1.335    0.251
       137  -9.4503    165.8079     20.8216   2.2300110934e+01   4.1484121209e+01    0.3414187    0.2855217  75.17   0.00129819    1.099    0.090
       138  -9.0190    132.0802    230.2960   7.8337428849e+01   9.2836973367e+00    0.1854226    0.1636963  70.80 0.0003246483    1.154    0.134
       139  -9.0563    240.9562    228.6740   5.7943005724e+01  -8.8597917645e+00    0.1676691    0.1245552  25.83 0.0004675714    1.099    0.090
       140 -13.3705    244.9370     63.5373   2.2543365341e+01   1.5574704626e+01     1.009341    0.9371085  56.16  0.003053106    1.234    0.190
       141 -10.0689    202.9922     17.9764   1.6297038290e+01   3.2158376331e+01    0.4235653    0.2776511 -77.07  0.002105542    1.564    0.361
       142  -9.0805    249.8385    222.5342   5.5400546147e+01  -9.4739436971e+00    0.1788535    0.1326857 -26.27 0.0008100877    1.443    0.307
       143  -8.4585    224.0351    218.2078   5.9163236002e+01  -4.8371138414e+00    0.1899196    0.1349273  57.89  0.001069073    1.944    0.486
       144  -8.5151    145.2057     15.7176   2.4235514310e+01   4.7338947572e+01    0.1905918    0.1458998  38.50 0.0003835323    1.326    0.246
       145  -9.8465     74.8669    213.8194   8.7607600125e+01   2.1446598198e+01    0.1746008    0.1509576  74.56 0.0004942193    1.188    0.158
       146  -9.3040    250.3828    211.4964   5.3392944500e+01  -8.2060476571e+00    0.2182437    0.1392045 -23.46 0.0006217979    1.562    0.360
       147  -8.4991    191.1288    212.1109   6.4261975445e+01   1.7765105057e+00    0.1906567    0.1568878  25.81 0.0003405223    1.133    0.117
       148 -10.0494    207.6800    206.5524   6.0169128370e+01  -3.5687446577e-01    0.4876737    0.2814039  63.74  0.001997473    3.348    0.701
       149  -9.3786    229.5008    207.6705   5.6356775804e+01  -4.3187321328e+00    0.2565138    0.1878835  51.03 0.0007182562    1.603    0.376
       150 -10.6871    192.9597    194.7541   6.0915400390e+01   4.2328119536e+00    0.9163953    0.5013936 -65.51  0.003185953    4.569    0.781
       151  -8.6927    225.2787    191.6342   5.4191599743e+01  -1.2735291699e+00    0.1204413    0.1061849 -79.38 0.0005560319    1.679    0.404
       152  -9.5865    222.8131    162.6466   4.8895551502e+01   3.7971769394e+00    0.2571397    0.2296059  53.16 0.0006687815    1.239    0.193
