#   1 NUMBER                 Running object number                                     
#   2 MAG_AUTO               Kron-like elliptical aperture magnitude                    [mag]
#   3 X_IMAGE                Object position along x                                    [pixel]
#   4 Y_IMAGE                Object position along y                                    [pixel]
#   5 X_WORLD                Barycenter position along world x axis                     [deg]
#   6 Y_WORLD                Barycenter position along world y axis                     [deg]
#   7 A_WORLD                Profile RMS along major axis (world units)                 [deg]
#   8 B_WORLD                Profile RMS along minor axis (world units)                 [deg]
#   9 THETA_WORLD            Position angle (CCW/world-x)                               [deg]
#  10 FWHM_WORLD             FWHM assuming a gaussian core                              [deg]
#  11 ELONGATION             A_IMAGE/B_IMAGE                                           
#  12 ELLIPTICITY            1 - B_IMAGE/A_IMAGE                                       
         1 -10.4090     51.1195     36.7539   9.4347605644e+01   6.2200261083e+01    0.7566115    0.5112433 -68.13  0.004060218    2.297    0.565
         2  -9.6046     38.5358      8.6363   8.7937488334e+01   6.8311203910e+01    0.5812586    0.3249664  -7.78   0.00311678    2.284    0.562
         3 -10.4239     39.5324     29.6511   9.6162347588e+01   6.4748793102e+01    0.6121969     0.297027 -52.70  0.002553338    1.984    0.496
         4 -11.8449     44.2239     21.4558   9.1159518243e+01   6.5651536042e+01    0.9937244    0.8318774 -70.23  0.006535506    1.885    0.469
         5  -9.9734     96.9274      3.9974   6.5429133895e+01   5.9638733972e+01    0.5271867    0.4508047 -38.17  0.003264458    1.396    0.284
         6 -11.7270    128.2668     14.6720   6.2135456033e+01   5.1652326754e+01     1.404717     1.132447 -45.24  0.007716835    1.425    0.298
         7 -11.8776    130.9691      3.6406   5.7238877826e+01   5.2167317150e+01     2.322515    0.6944711  64.51  0.007657709    3.626    0.724
         8 -10.6215    121.0559      3.9870   5.9481726039e+01   5.4445804497e+01    0.5949691    0.4732061  52.20  0.002279943    1.222    0.182
         9 -10.9790    109.6059      4.4710   6.2354633454e+01   5.6943866850e+01     1.008129    0.4724191  56.74  0.004538049    2.118    0.528
        10 -12.1333    155.1293     20.7722   5.8866842260e+01   4.4387007665e+01     1.419227    0.7507014  70.10  0.005331153    2.147    0.534
        11 -13.6822    169.4252     13.4595   5.3845169804e+01   4.1524014316e+01     3.234425     2.093933  64.03   0.01438443    1.466    0.318
        12 -10.0555    104.4899     11.9102   6.6826774607e+01   5.7215900652e+01    0.4945953    0.3861252 -19.44  0.002863446    1.229    0.186
        13  -9.9612    117.1305     16.3015   6.5400393241e+01   5.3990876115e+01    0.9665729    0.3026637 -33.25  0.003505716    3.014    0.668
        14  -9.7457    112.0177     15.8161   6.6487610103e+01   5.5163171372e+01     0.489673     0.277358  30.55  0.002257015    1.914    0.477
        15 -11.3387     78.1373     14.1800   7.5641667137e+01   6.1919944502e+01     0.948675    0.5808597 -25.71   0.00506564    1.471    0.320
        16 -11.3591     84.3049      4.0404   6.9082596528e+01   6.2068884217e+01    0.8559422    0.4813518  44.60  0.003297986    1.739    0.425
        17 -10.4538     71.5351      5.8000   7.4004910838e+01   6.4099002737e+01    0.5297745    0.4463344  32.38  0.003166876    1.295    0.228
        18  -9.7267     93.8342     17.8183   7.2333852273e+01   5.8604257687e+01    0.4148333    0.3998666  24.85  0.001901621    1.232    0.189
        19  -9.8336     64.6544     16.3057   8.1220842491e+01   6.3773645403e+01    0.3512821    0.2914203  61.22  0.002198442    1.876    0.467
        20  -8.2236     52.2763      1.8946   7.9111119720e+01   6.7518581097e+01    0.2518851     0.158748  32.60  0.001552093    1.650    0.394
        21 -10.6810     60.4686      4.0665   7.7078576632e+01   6.6059492966e+01    0.8827415     0.462985 -26.01  0.004817498    1.671    0.402
        22  -8.7762     54.7762      7.6199   8.0918716212e+01   6.6415211907e+01    0.2870387    0.2395126 -78.42  0.001561403    2.444    0.591
        23 -10.6822    248.6683     14.8841   4.4481919964e+01   2.0888361074e+01    0.7527034    0.3702317 -26.02   0.00338332    2.038    0.509
        24  -9.6934    244.7161      1.7333   4.1544798677e+01   2.3269322154e+01    0.4071861    0.2430262  72.66  0.002078544    1.622    0.383
        25  -9.4979    250.3246      4.5112   4.1759960801e+01   2.1625732906e+01    0.4339898    0.2412441 -21.59   0.00209504    1.957    0.489
        26  -8.9329     20.1663     13.9097   9.8192987901e+01   6.9240355740e+01    0.5075686    0.1663142 -36.15  0.002348313    2.762    0.638
        27  -9.4321     69.8008     13.8462   7.8307097127e+01   6.3332957132e+01    0.3261837    0.2955378  80.08  0.002115381    1.761    0.432
        28 -10.5189    200.3659      8.0732   4.7788000141e+01   3.3930195005e+01    0.3570774    0.2678645  88.97  0.001178641    1.357    0.263
        29  -9.3300    230.6321      5.8798   4.3880807634e+01   2.6327299866e+01    0.2437532    0.1771317  64.50 0.0007494452    1.350    0.259
        30  -8.3902     49.5282      6.4983   8.2432180116e+01   6.7278065745e+01     0.206341    0.1108037  34.74 0.0009789513    2.018    0.505
        31  -9.3910    213.0422      5.0226   4.5447014231e+01   3.0922579347e+01    0.2235626    0.2072077 -89.24  0.001321452    1.006    0.006
        32  -9.6511    221.6906      2.8911   4.3958473769e+01   2.8906369581e+01    0.4102842    0.3042929 -80.33   0.00220433    1.340    0.254
        33 -10.8920     75.6554     26.7875   8.1845350343e+01   6.0500307837e+01    0.6864469    0.4461147  50.84  0.003700803    1.982    0.495
        34  -8.4269     26.8591      2.8545   9.0348085024e+01   7.0398794236e+01    0.2344711    0.1136114 -36.23   0.00109452    1.605    0.377
        35  -8.5258     40.4883      1.7099   8.3804086542e+01   6.9072870864e+01     0.195272    0.1437476  21.54 0.0009244205    1.421    0.296
        36  -8.6988     16.7258      1.8541   9.4606004683e+01   7.1463025370e+01    0.1813098    0.1492613  13.62  0.001430784    1.467    0.318
        37  -8.6703     66.3256     54.3637   9.4962232640e+01   5.6970393494e+01    0.3191801    0.1340262 -48.02  0.001418245    2.040    0.510
        38  -8.2772     22.7878     52.2819   1.0925531309e+02   6.1856461160e+01     0.167612    0.1456052  18.66  0.001257388    1.467    0.318
        39 -10.2069     84.3077     47.9807   8.7031209875e+01   5.5513356519e+01    0.6011205    0.4938617  60.84  0.003470121    1.604    0.376
        40  -9.7689     82.0151     39.0245   8.4528201501e+01   5.7469824661e+01    0.4848379    0.2912975 -44.48  0.002470561    1.618    0.382
        41  -8.6270    111.6947     44.9851   7.7847067630e+01   5.1015705806e+01    0.3623429    0.1586365 -40.27  0.001445214    2.199    0.545
        42  -8.4792     97.5849     43.7731   8.1456990123e+01   5.3952802123e+01    0.2025812    0.1210476 -45.67 0.0009547795    1.716    0.417
        43 -10.2367      3.3866     40.3540   1.1335469415e+02   6.5432128109e+01    0.3641682    0.3291636  78.19  0.002466163    1.453    0.312
        44  -8.9075     41.0541     38.2582   9.8581080760e+01   6.3020347487e+01    0.4896954    0.2849368  38.97  0.002827364    2.195    0.544
        45 -10.4035    184.4663    246.1684   1.0532492427e+02   1.1190563296e+00     0.385229    0.1176921  45.08  0.001793854    2.446    0.591
        46  -9.7535    160.6351    240.3449   1.0847627866e+02   5.7076059631e+00    0.2241048    0.1460457  66.08  0.001418332    1.704    0.413
        47 -10.5601    171.5404    242.6326   1.0697545041e+02   3.6426179803e+00    0.3918234    0.2095717  64.59  0.002016085    2.705    0.630
        48  -9.8537    124.0009    205.9919   1.1061747421e+02   1.6881483429e+01    0.1720081    0.1388248  63.30            0    1.015    0.014
        49  -9.0170    194.9561     36.4796   5.7138091900e+01   3.2011041854e+01    0.2298124    0.1460824  64.43 0.0009568239    1.559    0.359
        50  -9.1947     11.5558     34.0076   1.0858964056e+02   6.6209879531e+01    0.3951856     0.227986 -39.28  0.002210233    1.437    0.304
        51  -9.2385     68.8561     36.6218   8.8006727683e+01   5.9907770586e+01    0.3731206     0.287295  49.36  0.002226753    1.685    0.406
        52  -8.5958     27.6083     35.1067   1.0265962256e+02   6.4848866029e+01    0.2061315    0.1563102 -14.37  0.001435274    1.409    0.290
        53 -10.3080    225.1141     28.8571   5.0706812513e+01   2.5110749804e+01    0.5832338     0.433544  65.58    0.0023425    1.335    0.251
        54  -9.8817     86.1349     31.5117   8.0324425585e+01   5.8015796229e+01    0.4124742    0.2099987  31.12  0.001847114    2.344    0.573
        55  -9.0758    239.0596    202.2037   8.9678719798e+01  -2.9248342291e+00    0.2401411    0.2114084 -47.46  0.001623412    1.621    0.383
        56  -8.6562     40.6746    142.3948   1.1943244281e+02   4.0966466371e+01    0.2013977    0.1689517 -41.56  0.001409729    1.650    0.394
        57 -10.5140     11.3365    140.8992   1.2546990580e+02   4.3953726304e+01    0.3043147    0.2492575 -67.07  0.002411553    1.363    0.266
        58 -12.5980    241.0686    132.5675   7.5201696342e+01   6.0559857249e+00     1.560804     1.110595  47.41  0.005597139    1.431    0.301
        59  -8.4811     18.3007    127.6387   1.2272907529e+02   4.6168517228e+01      0.11861   0.06735253  77.24 0.0007036042    1.720    0.419
        60  -7.9402     22.9709    125.7076   1.2147007054e+02   4.6193025910e+01    0.1556583    0.1277328 -87.01  0.001157574    1.105    0.095
        61  -8.2732     94.5215    121.4834   1.0366210138e+02   3.8534877093e+01    0.1355084    0.1224072 -73.57 0.0004755794    1.030    0.029
        62  -8.5307    125.5892     28.8945   6.8240508887e+01   5.0479893233e+01    0.2934542    0.2123665  22.05  0.001136178    1.486    0.327
        63  -9.5688     10.8781    127.7501   1.2437996018e+02   4.6723114223e+01    0.2292065    0.1088238  80.63  0.001256547    2.163    0.538
        64  -8.7973     10.5049    117.5001   1.2343752984e+02   4.8910653957e+01    0.1127518   0.08232846 -84.06 0.0008103007    1.043    0.041
        65  -7.6276    192.7061    116.3338   8.0170055935e+01   1.9510607360e+01      0.15204    0.1202509 -73.56 0.0006804104    1.639    0.390
        66  -8.3469     20.5742     22.6587   1.0131197364e+02   6.7692224100e+01    0.2271468    0.1348822  21.95  0.001470146    2.044    0.511
        67  -7.9603     10.9620     22.6833   1.0538295227e+02   6.8360332785e+01    0.1532492    0.1189917 -37.34 0.0007678034    1.094    0.086
        68  -7.6531     87.6328     22.6952   7.6271905241e+01   5.9081621127e+01    0.1405471   0.09328852  10.03 0.0007035507    1.746    0.427
        69  -9.6520     16.7170    104.5023   1.2042979012e+02   5.1235458473e+01    0.3217775    0.2147942 -84.25  0.001586982    1.252    0.201
        70  -8.4681     69.9977    102.7804   1.0618898279e+02   4.6233509165e+01    0.1984062    0.1259944 -44.35 0.0009226024    1.616    0.381
        71  -9.7023     47.1361    100.5058   1.1188631591e+02   4.9425240392e+01    0.3733701    0.1709952 -62.14  0.001873312    1.764    0.433
        72  -9.0120     30.2385    101.7344   1.1657132313e+02   5.0759248418e+01    0.2405342    0.1320694 -42.85  0.001332349    2.104    0.525
        73  -9.1063      2.4396     88.6414   1.2209752088e+02   5.5541110453e+01    0.3618394    0.1674004 -81.47  0.002045236    1.877    0.467
        74 -11.7727     43.9512     82.2032   1.0925783231e+02   5.3751416444e+01    0.9769364    0.6397491 -39.93  0.005288006    1.584    0.369
        75  -8.5961    220.9981     80.8535   6.5660174220e+01   1.8726587315e+01    0.2855949    0.2228289 -30.93  0.001410214    1.241    0.194
        76 -10.9682      4.7649     76.5527   1.1976451621e+02   5.7958764601e+01    0.7478263    0.5540056  64.46  0.005212791    1.606    0.377
        77 -10.2854     24.9806     64.8912   1.1143020440e+02   5.9096168639e+01    0.8159922    0.2035011 -50.68  0.003458587    2.850    0.649
        78 -10.6494     12.6000     70.8692   1.1649662857e+02   5.8693385187e+01    0.6071368    0.2757409 -53.35  0.003507318    1.682    0.406
        79  -9.8665     36.5875     80.5718   1.1110277586e+02   5.4801299915e+01    0.3584499    0.2525996  87.31  0.001917595    1.664    0.399
        80 -10.0844     73.7519     69.2915   9.7055688380e+01   5.2947659550e+01    0.3971401    0.3054002 -88.95  0.002174956    1.806    0.446
        81  -9.3378    227.6938     79.3055   6.4156677582e+01   1.7333170636e+01    0.4716042     0.340922  13.81   0.00216511    1.754    0.430
        82  -9.7080     97.2380     29.1694   7.5994844039e+01   5.6359928495e+01    0.6055008    0.2818582 -14.18  0.001986552    4.106    0.756
        83  -7.0800     10.9844     14.3370   1.0245680443e+02   6.9840729001e+01    0.1634565   0.07071996 -11.33 0.0007050302    4.353    0.770
        84  -8.9299    104.0441     26.0386   7.2780868803e+01   5.5484074246e+01    0.4323028     0.291449  62.68  0.002153004    1.934    0.483
        85  -7.5926     77.3074     66.3116   9.5107565161e+01   5.3048648563e+01    0.1348352   0.09706096 -21.88 0.0007024329    1.620    0.383
        86  -9.3523     66.4601     29.9861   8.6291139594e+01   6.1379967759e+01    0.3233074    0.2202941 -23.59  0.001485206    1.350    0.259
        87  -8.5381     83.1379     69.0203   9.4131018681e+01   5.1621497136e+01    0.2736749    0.2256305  76.22  0.001414498    1.589    0.371
        88  -9.2335     48.9201     61.6998   1.0284026984e+02   5.7583931122e+01    0.2925669    0.2685372   3.41  0.002047387    1.281    0.219
        89  -8.9396    138.5144     78.0259   8.1690467977e+01   3.9317666396e+01    0.3638336    0.3206198  86.79  0.001698621    1.314    0.239
        90  -8.1383     75.5172     60.4705   9.3908769722e+01   5.4484130950e+01    0.2558036    0.1051745 -39.33  0.001036663    2.379    0.580
        91  -8.3207     93.0177     56.9300   8.7392942186e+01   5.2392764134e+01    0.2564715    0.2308069 -81.69  0.001498862    1.387    0.279
        92  -9.2751    198.8763     55.4329   6.2198673358e+01   2.8288967828e+01    0.2807736    0.2610034  31.42   0.00048543    1.111    0.100
        93 -10.3905     16.8873     74.5908   1.1585850369e+02   5.7629916154e+01    0.4495331    0.3363858 -55.64  0.002969997    1.135    0.119
