#   1 NUMBER                 Running object number                                     
#   2 MAG_AUTO               Kron-like elliptical aperture magnitude                    [mag]
#   3 X_IMAGE                Object position along x                                    [pixel]
#   4 Y_IMAGE                Object position along y                                    [pixel]
#   5 X_WORLD                Barycenter position along world x axis                     [deg]
#   6 Y_WORLD                Barycenter position along world y axis                     [deg]
#   7 A_WORLD                Profile RMS along major axis (world units)                 [deg]
#   8 B_WORLD                Profile RMS along minor axis (world units)                 [deg]
#   9 THETA_WORLD            Position angle (CCW/world-x)                               [deg]
#  10 FWHM_WORLD             FWHM assuming a gaussian core                              [deg]
#  11 ELONGATION             A_IMAGE/B_IMAGE                                           
#  12 ELLIPTICITY            1 - B_IMAGE/A_IMAGE                                       
         1 -14.0548    214.1272      3.9387   5.0118089971e+01   3.0965597087e+01      1.64839    0.9393024  75.95  0.005823836    1.741    0.426
         2 -15.1839    190.8559     32.2032   5.8924212228e+01   3.3115010441e+01     2.754676     1.931315  15.73   0.01373757    2.372    0.579
         3 -13.0137     43.4735      4.2196   8.1012331394e+01   7.2942731613e+01    0.7224144    0.3920264  55.31   0.00278376    1.891    0.471
         4  99.0000     66.7509    224.9938   1.2760580803e+02   1.9467624462e+01    0.4859301   0.08484674  40.80  0.001681213    3.506    0.715
         5 -16.5510     72.5628    148.8309   1.1730982277e+02   3.5920975320e+01     9.364783     4.584219  68.83   0.01983784    3.808    0.737
         6 -10.9428     39.2718    212.7272   1.3331787787e+02   2.5143663123e+01    0.2196983    0.1152443  40.58 0.0006884807    1.483    0.326
         7 -11.8143     71.7504    211.0834   1.2517789202e+02   2.1632954119e+01    0.2593803     0.182252  42.22 0.0005477663    1.166    0.142
         8 -10.3851     76.3486    206.8286   1.2361407542e+02   2.1915372601e+01    0.3876674    0.2133118 -54.11 0.0009607261    2.135    0.532
         9 -17.4415     26.7905    242.6721   1.3770122445e+02   2.0513915208e+01     4.041642     3.489765 -79.51   0.02897547    1.446    0.308
        10  -9.1033     73.9009    217.8820   1.2528534097e+02   1.9977412203e+01    0.1766599    0.1246142  54.21 0.0003669953    1.308    0.236
        11 -10.3529     37.1359    206.7209   1.3346546173e+02   2.6653352747e+01    0.1824129    0.1236311  45.81 0.0004309644    1.185    0.156
        12  -9.4712     87.7494    201.5690   1.2016665604e+02   2.1458888808e+01     0.192506    0.1704201  55.74  0.001175776    1.116    0.104
        13  -9.1607    163.4490    203.5013   1.0270821864e+02   9.8256319620e+00    0.1298854    0.1091772  14.04 8.547557e-05    1.006    0.005
        14 -11.2155    156.0083    199.8080   1.0371189646e+02   1.1563655473e+01    0.4170789    0.3163127  75.12  0.002174384    2.348    0.574
        15 -11.4075    152.4501    193.9166   1.0354445883e+02   1.3144173374e+01    0.3616544    0.2182764  51.04  0.001191627    2.072    0.517
        16 -10.3391     95.2050    200.2352   1.1812486156e+02   2.0674871029e+01    0.3071465    0.1971192  53.11 0.0008805586    1.579    0.367
        17 -11.4092     99.8054    196.9484   1.1654801231e+02   2.0684058675e+01    0.4360691    0.2714462   6.70  0.001845121    2.310    0.567
        18 -12.1613     37.4280    200.4187   1.3297952366e+02   2.7999393587e+01    0.2082657    0.1753411  49.48 0.0005823627    1.049    0.046
        19 -12.0533    135.6987    198.9794   1.0813338251e+02   1.4823675259e+01    0.2774038    0.2642934  66.72  0.001533276    1.273    0.215
        20 -13.2534     46.8412    215.7013   1.3167142273e+02   2.3686647728e+01    0.4830998    0.2115976  52.94     0.001537    2.030    0.507
        21 -11.6615    141.1734    197.6840   1.0667793123e+02   1.4217070694e+01    0.3041787    0.2382844 -63.58 0.0008671281    1.678    0.404
        22 -10.7803    209.0398    198.0084   9.2972302482e+01   4.2037627266e+00    0.1833493    0.1540317  -1.42 0.0006848932    1.102    0.093
        23 -10.1234     81.9943    195.5146   1.2093947183e+02   2.3553178705e+01    0.2645651    0.2284935 -37.71  0.001561988    1.397    0.284
        24  -8.6858     25.4480    195.3904   1.3575098662e+02   3.0348786105e+01    0.1301859    0.1019882  52.85 0.0002051152    1.039    0.037
        25 -13.0322     69.6195    189.7569   1.2356102205e+02   2.6517897812e+01    0.7365486    0.7328858  22.83  0.004377327    1.180    0.153
        26 -11.0989     44.2500    210.3898   1.3194121535e+02   2.5091074342e+01    0.2618898    0.1407029  46.43 0.0006710439    1.498    0.333
        27 -13.3164     60.9347    204.4913   1.2728765302e+02   2.4388416860e+01    0.7315109    0.5514469  82.57  0.001834142    1.418    0.295
        28 -11.1126     96.4281    188.2892   1.1626372917e+02   2.3022122909e+01     0.467409    0.2864997  44.94  0.001445031    1.482    0.325
        29 -11.8910     54.6543    210.5860   1.2937715156e+02   2.3852197123e+01    0.4995225    0.1691816  49.35  0.001943106    2.637    0.621
        30 -11.0650    151.1062    183.0858   1.0203062448e+02   1.5331480341e+01    0.2159681    0.2080061 -71.21  0.000487751    1.290    0.225
        31 -11.0235     99.4594    180.7200   1.1439863397e+02   2.4209193498e+01    0.2655587     0.231096  33.60 0.0005556485    1.049    0.047
        32 -12.0942    144.5211    178.7595   1.0279071551e+02   1.7240109795e+01    0.4771153    0.2520677  28.39  0.002103628    1.900    0.474
        33  -9.9910     69.5620    178.1683   1.2225105739e+02   2.9192092721e+01    0.2398291    0.1639389  42.58 0.0004921904    1.282    0.220
        34  -9.6266    168.4228    176.5379   9.7073593252e+01   1.3676958872e+01    0.1972782    0.1836625  17.41 0.0002144414    1.120    0.107
        35 -10.0892    165.9031    172.8979   9.6941824000e+01   1.4746490219e+01    0.2809741    0.2258288 -78.69 0.0009464722    1.953    0.488
        36  -9.3119     81.0134    220.5566   1.2382986290e+02   1.8531844156e+01    0.1999042    0.1068874  31.14 0.0004786255    1.546    0.353
        37 -10.4545      2.3779    170.1740   1.4071866613e+02   3.8190735752e+01     0.272262    0.1595767  59.08 0.0009655115    1.444    0.308
        38 -11.5938    194.5386    167.7396   9.0210672821e+01   1.0931812112e+01    0.3189588    0.2829517 -19.71 0.0008415723    1.116    0.104
        39 -11.3506    230.2446    166.4819   8.3856962138e+01   5.7694140791e+00    0.2884675    0.1482928 -42.47  0.001524936    2.014    0.504
        40 -10.4471    203.5939    165.0257   8.8035928750e+01   9.9359988782e+00    0.3745719     0.240191 -37.40  0.002082993    1.496    0.331
        41 -10.4820    160.1312    164.8410   9.6679014526e+01   1.7222458756e+01    0.2887232    0.2017133 -62.28 0.0009297118    1.974    0.494
        42 -19.1937     14.0253    106.6098   1.3248674763e+02   5.3660395012e+01      18.0995    0.9480469 -76.26   0.02668414   17.149    0.942
        43 -10.7521    189.9664    160.6831   8.9714725141e+01   1.2846057400e+01    0.3437911     0.235434 -48.64  0.001043739    1.670    0.401
        44 -11.2000    189.2423    155.1356   8.8753607249e+01   1.3908001751e+01    0.3954621    0.3630002  33.17  0.001895303    1.192    0.161
        45 -10.6123     48.5796    205.2196   1.3048383211e+02   2.5707927000e+01    0.4585354    0.2476732  23.55  0.002271626    1.840    0.456
        46 -12.8978     96.8299    154.4259   1.1091074822e+02   3.0668134716e+01    0.7570582    0.5529455 -26.30  0.003531584    1.780    0.438
        47 -11.8154    133.7323    144.5965   9.8878645097e+01   2.6178811918e+01     1.244992    0.3611032 -55.40  0.003134405    5.615    0.822
        48 -10.5420    174.4935    148.8045   9.0387244810e+01   1.7632107561e+01    0.2741242    0.2533513  64.03 0.0007221631    1.300    0.231
        49 -11.5357    143.9947    147.0203   9.6837271721e+01   2.3700986533e+01    0.4103492    0.3313889 -59.09  0.002112896    1.406    0.289
        50  -9.8171    115.8259    144.5780   1.0364033993e+02   2.9583355785e+01    0.2190858    0.1339493  48.80 0.0005391518    1.656    0.396
        51 -12.1724    107.8942    139.9740   1.0494491060e+02   3.2128245170e+01    0.5737396    0.3990491 -30.90  0.002511709    1.796    0.443
        52 -12.4225     96.1659    140.0060   1.0842492151e+02   3.4249047621e+01    0.3350411    0.3197095 -76.37 0.0004111146    1.089    0.082
        53 -10.1556    113.1140    151.5550   1.0576877582e+02   2.8487486387e+01     0.272844    0.2138999 -81.42 0.0007071536    1.577    0.366
        54 -11.2870    105.9490    130.7794   1.0356750909e+02   3.4667919016e+01    0.4235174    0.3563191 -79.24  0.001217973    1.335    0.251
        55 -11.2780    102.7693    126.3864   1.0355270601e+02   3.6323457121e+01    0.3363044    0.2757017 -12.60  0.001058267    1.526    0.345
        56 -11.3823    115.1507    130.2178   1.0076349936e+02   3.3015011323e+01    0.3900165     0.318373   3.34 0.0009915987    1.509    0.337
        57 -11.3762    136.0115    127.9795   9.4618600011e+01   2.9302020037e+01    0.4996073    0.2521566 -48.22  0.001968043    2.048    0.512
        58 -10.2070    160.6350    127.8573   8.8750849559e+01   2.4272527780e+01    0.2876543    0.2294432 -76.21  0.001420695    1.648    0.393
        59 -11.0412    119.9760    124.3677   9.8056822186e+01   3.3387423752e+01    0.3582175    0.2645956 -13.78  0.001558799    1.892    0.471
        60 -10.2044    110.4017    119.2095   9.9588494144e+01   3.6518898225e+01    0.2631696     0.207706  41.97 0.0002955796    1.226    0.184
        61 -10.0900    167.9560    112.9077   8.3646065797e+01   2.5613001239e+01    0.3390512    0.2328514 -78.51  0.001434908    2.354    0.575
        62 -11.4561    119.2393    110.7339   9.4911699211e+01   3.6617486763e+01    0.6726655    0.3638663  53.89  0.002577192    2.038    0.509
        63 -10.2537    205.5294    110.1383   7.6240530597e+01   1.8486962405e+01    0.2679871    0.1927118  38.81 0.0009736887    1.569    0.363
        64 -11.4757     52.9651     91.0107   1.1317735461e+02   5.3762265972e+01    0.3796606    0.2576165 -59.49  0.001667488    1.445    0.308
        65 -10.5628     41.7884     91.8350   1.1821911936e+02   5.5014279913e+01    0.2368116    0.2264954 -39.76 0.0004661512    1.062    0.059
        66 -16.7254     65.4406    248.1577   1.2962642602e+02   1.5338539394e+01     10.73897     3.132499  21.04    0.0236352    8.019    0.875
        67  -9.0774     70.4615     72.4412   1.0043087413e+02   5.5408822345e+01     0.150108    0.1455793  54.51 0.0001130022    1.042    0.040
        68 -12.4569    165.9464     64.0688   7.1079848917e+01   3.4649237851e+01     1.236403    0.3657189 -40.29  0.001784207    3.058    0.673
        69  -9.0179     71.9849     67.7691   9.8228300579e+01   5.6169489573e+01    0.1942772    0.1234538  39.55 0.0004162907    1.539    0.350
        70  -9.4927     62.7463    234.3438   1.2925283835e+02   1.8159225620e+01    0.1675408   0.09642623  28.92  0.000928497    1.471    0.320
        71 -13.4077    175.8987     47.2089   6.4784392445e+01   3.4733890701e+01    0.7316938    0.6746952 -49.46 0.0008547865    1.120    0.107
        72 -10.0563     71.9694    229.8863   1.2678801966e+02   1.7885341983e+01    0.1680986    0.1189801  41.31  0.000355421    1.109    0.098
        73  -9.9805    198.8755    222.7859   9.8749789466e+01   2.1056658285e+00    0.1721659    0.1252298   5.81 0.0003864874    1.119    0.106
        74  -9.1041    115.4942     31.4553   7.0177637359e+01   5.2404129153e+01    0.1479578    0.1343367  71.71 0.0001502003    1.006    0.006
