#   1 NUMBER                 Running object number                                     
#   2 MAG_AUTO               Kron-like elliptical aperture magnitude                    [mag]
#   3 X_IMAGE                Object position along x                                    [pixel]
#   4 Y_IMAGE                Object position along y                                    [pixel]
#   5 X_WORLD                Barycenter position along world x axis                     [deg]
#   6 Y_WORLD                Barycenter position along world y axis                     [deg]
#   7 A_WORLD                Profile RMS along major axis (world units)                 [deg]
#   8 B_WORLD                Profile RMS along minor axis (world units)                 [deg]
#   9 THETA_WORLD            Position angle (CCW/world-x)                               [deg]
#  10 FWHM_WORLD             FWHM assuming a gaussian core                              [deg]
#  11 ELONGATION             A_IMAGE/B_IMAGE                                           
#  12 ELLIPTICITY            1 - B_IMAGE/A_IMAGE                                       
         1 -12.2341     14.0697     38.7630   1.0370964939e+02   6.6832240225e+01      0.63341    0.3472666 -61.92  0.002986991    1.834    0.455
         2 -12.2677    107.6695     28.6958   6.3611585423e+01   5.4516180868e+01    0.4723815    0.3516121 -31.73  0.002541622    1.402    0.287
         3 -11.9787      2.0152     24.5091   1.0490468290e+02   7.0259256493e+01     0.391026    0.1481129 -58.62  0.001369214    2.336    0.572
         4 -12.0718      5.9095     16.3534   9.9820201040e+01   7.1493437439e+01    0.3694001    0.2744564 -49.84  0.001514991    1.373    0.271
         5 -11.8106    166.3098     17.9557   4.7762872211e+01   4.1445104925e+01    0.3830749    0.2850773  50.19 0.0004246936    1.307    0.235
         6 -11.0885     74.1595      8.7619   6.5157904571e+01   6.3750206890e+01     0.327987    0.2180644 -33.23  0.001642605    1.660    0.398
         7 -11.0001     70.5188     11.9724   6.7925326662e+01   6.4064691989e+01    0.2917697    0.1845547  43.28 -3.415852e-05    1.521    0.342
         8 -11.0757     64.5302     15.9279   7.1977996451e+01   6.4634543013e+01     0.459359    0.2622074  29.55  0.001674129    1.707    0.414
         9 -11.2272    116.6008     15.1261   5.6056236461e+01   5.4063453817e+01    0.3219932     0.229172  40.82 0.0007324874    1.280    0.219
        10  -9.3864     63.0048     12.2218   7.0798874373e+01   6.5353121358e+01    0.1849564    0.1384555  11.09            0    1.180    0.152
        11 -11.2330    133.1138     12.9570   5.1758128694e+01   5.0322338881e+01    0.2871031    0.2336774 -10.01 0.0003444907    1.345    0.257
        12 -11.6311    173.4747     13.0373   4.5245555145e+01   4.0133434681e+01    0.3350554    0.2585447 -30.94  0.001413268    1.399    0.285
        13 -10.9544    176.2339     10.9465   4.4262117381e+01   3.9643747468e+01    0.2740379    0.1765096 -48.18 0.0008027747    1.616    0.381
        14 -10.2782     88.4913     13.5496   6.2793150785e+01   6.0415613796e+01    0.2860687    0.1632544  51.04 7.602592e-05    1.669    0.401
        15 -11.1555     14.3693     10.3019   9.2561780765e+01   7.1868050682e+01    0.4893933    0.2111401 -32.29  0.001914241    1.956    0.489
        16 -11.4147    147.9408     12.0081   4.8760966130e+01   4.6726098026e+01    0.4282945    0.3308806  73.71  0.001865218    1.242    0.195
        17  -9.6105     43.3268     11.6581   7.8697583309e+01   6.8450006650e+01    0.2920448     0.158535  -3.16  0.001047587    2.415    0.586
        18  -9.8055     32.5845     12.6708   8.4249770494e+01   6.9673452254e+01    0.1861844    0.1738664  36.80 0.0008790064    1.664    0.399
        19 -10.0365    219.0279     11.4792   3.9710065673e+01   2.8976056295e+01    0.1911784    0.1649166 -60.42 0.0004266962    1.087    0.080
        20 -10.2764     97.9597     10.8841   5.8961201816e+01   5.8699894609e+01    0.2929013    0.1737144 -31.46 0.0008591184    1.808    0.447
        21 -10.6244    165.1752      8.4635   4.4995725934e+01   4.2701231998e+01    0.3446897    0.1978832 -41.46  0.001671272    1.836    0.455
        22 -11.9173    107.2790      7.1624   5.5064649595e+01   5.6990842111e+01    0.7703403    0.3748896  50.90   0.00364092    1.748    0.428
        23 -10.2243    211.9218      8.8561   3.9728983645e+01   3.0963821626e+01    0.1983414    0.1709213  61.87 0.0007506348    1.248    0.199
        24 -10.5448    120.0376      7.9593   5.2536738915e+01   5.3955571174e+01     0.239845    0.1885419 -14.76  0.000700429    1.374    0.272
        25  -8.8288     79.5109      9.5348   6.3764543902e+01   6.2642533443e+01    0.1285716    0.1104674  17.99 0.0003487302    1.041    0.039
        26 -10.4126     24.7622      6.7206   8.5233224079e+01   7.1407287847e+01    0.2093998     0.170819 -32.34  0.001107887    1.414    0.293
        27 -10.7035     20.6151      6.4052   8.7269225714e+01   7.1882744506e+01    0.2995867    0.1577861 -36.43  0.001006527    1.604    0.377
        28 -10.3640     18.4756      2.5033   8.6414484294e+01   7.2652986930e+01    0.1966455    0.1749021 -18.97  0.001187911    1.456    0.313
        29  -9.4936      4.9793      8.6341   9.7054945783e+01   7.2849440502e+01    0.1508682    0.1174454 -20.91  0.001140628    1.112    0.101
        30 -10.4753    203.1403      8.1940   4.0421690110e+01   3.3174934341e+01    0.1968501     0.171927  58.59 0.0006111767    1.234    0.190
        31  -9.4164    185.4888      8.5476   4.2435712128e+01   3.7540001490e+01    0.1351637     0.120262  79.42 0.0001145107    1.037    0.035
        32 -10.1160     47.1692      8.3649   7.5339645552e+01   6.8333106718e+01    0.3460122    0.1139554  33.49  0.001423027    3.262    0.693
        33 -10.8019     87.6001      6.4067   5.9885634411e+01   6.1333831945e+01    0.2617281     0.204275  57.49  0.000667803    1.386    0.278
        34  -9.8040     62.2862      6.5602   6.8307654462e+01   6.6130677698e+01    0.2491981    0.2108745 -78.63   0.00149735    2.196    0.545
        35 -10.4180     39.0142      5.0000   7.7278509127e+01   6.9904641568e+01    0.3220807    0.1850346  41.03  0.001787176    1.994    0.498
        36 -10.3046     38.0165      1.9449   7.6118403928e+01   7.0415698518e+01    0.2822994    0.1811569  27.71  0.001015162    1.458    0.314
        37 -10.0813    142.6882     11.2984   4.9416928080e+01   4.8112850840e+01    0.1775006    0.1330149   0.44 0.0003922276    1.559    0.358
        38  -9.8444    248.1979      3.9637   3.5636490041e+01   2.3136532535e+01    0.1825423      0.14111  18.04  0.001082961    2.082    0.520
        39 -10.6310    208.5567      3.7803   3.8770282268e+01   3.2300911127e+01     0.350978    0.1859916 -70.92  0.001647073    2.036    0.509
        40 -11.5363    195.4739      3.5093   3.9968957801e+01   3.5537248089e+01    0.4837691    0.2113616  66.49  0.002002584    2.002    0.500
        41 -11.2474    160.2631      2.9355   4.3956734276e+01   4.4454659899e+01    0.3543192    0.2884164  70.19 0.0008972933    1.088    0.081
        42 -10.4384     30.9621      3.3483   8.0295222254e+01   7.1152887335e+01    0.1887372    0.1401606 -32.75 0.0003930742    1.466    0.318
        43 -10.2265    217.6783      2.0114   3.7529535720e+01   3.0290544719e+01    0.2845048    0.1843102 -88.16  0.001577846    1.423    0.297
        44 -11.1459    115.6606      2.0529   5.1164094825e+01   5.5502260727e+01    0.2373954    0.1920157  52.49 0.0003279556    1.091    0.083
        45 -10.4338     49.7037      2.2268   7.1079106341e+01   6.8674436785e+01    0.2398847     0.148664  25.23 0.0003636396    1.457    0.314
        46 -10.5452    204.1643     24.3621   4.4557530000e+01   3.1122217190e+01    0.3613534    0.2297431 -84.81  0.001764745    1.691    0.409
        47 -10.7117    179.9597      1.8117   4.1170612421e+01   3.9576521605e+01    0.3233993    0.1721793  72.92  0.001484698    1.676    0.403
        48  -9.5846     90.6866      1.2707   5.6731804279e+01   6.1155716584e+01    0.1911085    0.1184034  57.75 0.0002229271    1.571    0.363
        49  -9.5833     87.5412      1.5715   5.7725224768e+01   6.1790299615e+01    0.1993094    0.1619021  32.77 0.0001263942    1.041    0.040
        50  -9.6226    148.0428      1.4424   4.5223916355e+01   4.7660511883e+01    0.2063078     0.117447  66.37 0.0003570643    1.536    0.349
        51 -11.1911     74.0714      1.8982   6.1915429420e+01   6.4457279839e+01    0.3412206    0.1855952  45.86 0.0007194027    1.631    0.387
        52 -10.1969     80.8733      2.1906   5.9936506080e+01   6.3097036591e+01    0.4286815    0.1484823  49.85  0.001844257    2.421    0.587
        53  -9.0567     13.3031      3.3095   8.9729799972e+01   7.3023990063e+01    0.1165835   0.06568699 -17.01 0.0003082641    1.607    0.378
        54  -9.2318     54.3870    221.2150   1.2040350005e+02   2.2067017421e+01    0.1552364   0.09380895  88.18 0.0004541674    1.561    0.359
        55  -8.8131    237.7186    250.3581   8.9477668009e+01  -1.0192030979e+01    0.0939066   0.08715515  34.78 0.0007015713    1.667    0.400
        56 -10.2109    187.0545    250.2467   9.8430900951e+01  -2.7738724294e+00    0.1752367    0.1373007  30.06  0.001202246    1.014    0.014
        57 -11.3645    127.6874    247.9176   1.0913690637e+02   6.8185062007e+00    0.3247941    0.2811944  89.08  0.001502117    1.335    0.251
        58 -10.7246    115.8884    249.2982   1.1147132085e+02   8.3929188093e+00    0.2839999    0.2009051  64.12  0.001198213    1.364    0.267
        59 -10.4836    111.9194    246.3292   1.1189759738e+02   9.4732731769e+00    0.2030036    0.1881467 -65.95 0.0003929236    1.363    0.266
        60  -9.6136     30.9750    250.5490   1.2643491114e+02   1.9421976013e+01    0.1451376   0.07946388  47.44 5.267422e-05    1.472    0.320
        61  -9.7550     16.0957    250.3458   1.2880658201e+02   2.1053058447e+01      0.14881   0.09487417  60.73 0.0008420027    1.124    0.111
        62 -10.7310     10.9735    250.1455   1.2959993814e+02   2.1609805823e+01    0.2577099    0.1327438  33.49 0.0009966188    2.317    0.568
        63  -9.2916    228.5375    220.0235   8.6123351290e+01  -5.2043309794e+00    0.1353557    0.1095643 -60.09 -1.585828e-05    2.188    0.543
        64  -8.7776    110.2754    220.7026   1.0935846495e+02   1.4232125781e+01    0.1262125   0.08527299  67.04 0.0002583438    1.531    0.347
        65  -9.4235     14.4012    218.8246   1.2756496384e+02   2.6997568905e+01    0.1358098   0.08310495 -75.83 0.0004335443    1.534    0.348
        66 -10.1397     13.6480    214.5767   1.2747066933e+02   2.7899384833e+01    0.2618714    0.1455325 -64.40  0.001672672    1.956    0.489
        67  -9.5219     47.5721    218.0943   1.2144986377e+02   2.3515002946e+01    0.1754175    0.1221006  40.87 0.0003816376    1.484    0.326
        68  -9.9793     38.9902    218.0612   1.2306037288e+02   2.4528941436e+01    0.1630511    0.1356652  80.66 0.0004342139    1.173    0.147
        69  -9.4185     27.9857    218.0330   1.2508653433e+02   2.5754454178e+01    0.1344648   0.09861709  74.67 0.0009628914    1.019    0.018
        70  -9.3438    136.0016    217.4781   1.0371117852e+02   1.0631030407e+01    0.2010977    0.1128322  40.50 0.0004788357    1.541    0.351
        71 -11.3832     90.3747    215.7786   1.1281635745e+02   1.8219330074e+01    0.4162725    0.2587248  61.67  0.000678723    1.507    0.337
        72 -10.3477     72.6980    215.1243   1.1630259161e+02   2.0871171537e+01    0.3507808    0.1786486 -83.08  0.001201607    2.253    0.556
        73 -10.5772     58.3895    215.7285   1.1917840108e+02   2.2644479330e+01    0.1960369    0.1631526  68.51 0.0003622118    1.100    0.091
        74  -9.0168     68.4796    215.3936   1.1716630648e+02   2.1390073636e+01    0.1224161   0.09646209  65.72 0.0001058681    1.025    0.025
        75 -10.0504    111.7727    213.3380   1.0814215213e+02   1.5390554832e+01    0.1915348    0.1771966 -89.37 0.0002557883    1.163    0.140
        76 -11.0856      8.5104    209.8579   1.2813915516e+02   2.9319542069e+01     0.260219    0.1611918 -79.95 0.0008825563    1.408    0.290
        77 -11.0874    126.6821    210.1812   1.0461842148e+02   1.3545815993e+01    0.3136099    0.2513898 -19.61 0.0006205119    1.764    0.433
        78  -9.6165    117.9738    212.2164   1.0671097503e+02   1.4601529393e+01    0.1816637   0.09363589  41.56 0.0008726378    1.696    0.411
        79  -9.0857     52.5308    212.5650   1.2005235059e+02   2.4014496243e+01    0.1183217   0.09504122  72.00 0.0003843149    1.044    0.042
        80  -9.7100     29.2142    212.6033   1.2451011680e+02   2.6697897448e+01    0.1308242    0.1030394  37.33 0.0002779992    1.550    0.355
        81  -9.3372     47.2423    210.4174   1.2090797669e+02   2.5092579482e+01    0.1611972    0.0888203  51.46  0.000312251    1.535    0.349
        82  -9.7093     38.9293    209.9918   1.2248553291e+02   2.6149747157e+01    0.1906031    0.1578082 -15.89  0.001248251    2.187    0.543
        83  -9.4458    155.5575    209.4916   9.8509358936e+01   8.6969625306e+00    0.1335565    0.1175096  39.34 8.206152e-05    1.007    0.007
        84 -10.0238    144.6838    208.4506   1.0060339456e+02   1.0786270480e+01    0.2634562    0.1652279 -70.07  0.001264851    2.287    0.563
        85 -10.7972     67.1483    207.1870   1.1664414774e+02   2.3229516204e+01     0.346471     0.223047  63.68  0.002040387    1.378    0.274
        86  -9.6123     63.5733    207.5021   1.1740157596e+02   2.3638904375e+01    0.2155233    0.1091593  65.83 0.0009387653    2.043    0.510
        87 -10.4409     22.5017    208.4954   1.2549769132e+02   2.8226665564e+01    0.1680978    0.1382675  48.54  0.000848483    1.380    0.276
        88 -10.5902     18.2488    207.7693   1.2624444299e+02   2.8801189819e+01    0.3142426    0.1726333  59.81  0.001217627    1.479    0.324
        89  -9.0739    196.2718    208.3133   9.0124221584e+01   1.7589946290e+00    0.1302322   0.09355074   5.31 0.0002025969    1.554    0.357
        90 -10.2590     57.7036    204.3070   1.1829252548e+02   2.5058174770e+01    0.3818939   0.09441681 -61.22  0.001368448    3.712    0.731
        91  -9.4292     40.1880    204.8024   1.2184278811e+02   2.7068856904e+01    0.1449786    0.1276929 -83.72 0.0006447804    1.291    0.225
        92  -9.5544      1.4713    204.5125   1.2913302796e+02   3.1018722389e+01    0.1755047   0.07661668  84.89 0.0005639684    1.907    0.476
        93 -10.4314    142.2734    203.2864   1.0031532937e+02   1.2168263179e+01    0.2326163     0.198592  53.68 0.0002193007    1.099    0.090
        94  -9.2453     11.4328    203.7159   1.2727079156e+02   3.0277793540e+01    0.1417262   0.08454668 -73.95 0.0005421042    1.532    0.347
        95 -10.6789    121.6559    199.7954   1.0420413551e+02   1.6417828600e+01    0.3349717    0.2409253 -76.50 0.0009804638    1.626    0.385
        96 -11.2452     33.0672    199.3935   1.2283211229e+02   2.8987038559e+01    0.2965275    0.2074848  53.24   0.00098051    1.293    0.227
        97 -10.0402     95.9997    200.0238   1.0977842619e+02   2.0544419209e+01    0.2146494    0.1374629  67.47 0.0005389182    1.644    0.392
        98  -9.3384     87.6597    200.6585   1.1164546026e+02   2.1680224815e+01     0.121362    0.1028901 -21.28 0.0007049281    1.773    0.436
        99 -10.4890      5.9458    199.9670   1.2807998469e+02   3.1541084914e+01    0.1640823    0.1169403  78.79 0.0003602842    1.017    0.017
       100 -10.5947     62.4551    198.2999   1.1672823145e+02   2.5708252745e+01     0.202499    0.1782428  71.48 0.0002393877    1.132    0.117
       101 -10.4500     39.4157    198.0729   1.2145677347e+02   2.8562599535e+01     0.270487    0.1460242  61.46  0.001180839    1.650    0.394
       102 -10.0768     12.7388    197.5301   1.2666212822e+02   3.1422080259e+01    0.2528324    0.1384761 -66.87  0.001565818    1.776    0.437
       103 -10.1207    109.6185    196.2653   1.0631747008e+02   1.9148032589e+01    0.4787288     0.259315  88.07  0.001765207    3.693    0.729
       104  -9.1560     24.9591    197.0018   1.2425914824e+02   3.0340557497e+01    0.1404544    0.1053336  80.48 0.0003446064    1.024    0.023
       105 -10.3657     95.6124    194.5030   1.0914923842e+02   2.1760887401e+01    0.2174816    0.1916425  63.96 0.0001690348    1.041    0.039
       106 -10.2055     82.8779    195.0382   1.1199985041e+02   2.3572533962e+01    0.1923027    0.1645928  73.01 0.0003728759    1.011    0.011
       107  -8.8596      1.7246    195.2495   1.2861339823e+02   3.2873247645e+01    0.1084656   0.05987502  67.07 0.0006816592    1.452    0.311
       108 -10.1250     63.5314    193.7401   1.1602934292e+02   2.6542828011e+01     0.237194    0.2000642 -35.44 0.0006879888    1.717    0.417
       109 -10.7325     58.9651    191.0955   1.1673244275e+02   2.7707826581e+01    0.3348162    0.1632198 -70.25  0.001483559    1.935    0.483
       110  -8.9638     52.2713    193.3601   1.1838351611e+02   2.8055603704e+01    0.1147404   0.08910605 -50.78 0.0006999074    1.650    0.394
       111  -9.1073    100.2563    192.3544   1.0783614968e+02   2.1484071497e+01    0.1240709    0.1041812 -30.94 0.0003305249    1.609    0.378
       112 -11.3141     91.1701    188.5569   1.0934612666e+02   2.3722319785e+01    0.3830029    0.2496176  65.57  0.001991416    1.577    0.366
       113  -9.7967     86.5244    186.5267   1.1012008862e+02   2.4871398899e+01    0.1989597    0.1697873  68.16 0.0001147953    1.034    0.033
       114 -10.2416      5.9098    193.3247   1.2771719658e+02   3.2909739979e+01    0.2472068    0.1323633  72.73  0.001061736    1.527    0.345
       115 -10.6798    105.4096    185.9792   1.0577333527e+02   2.2011935423e+01    0.2625352    0.2245566  73.06 0.0004476039    1.099    0.090
       116  -9.2352    128.7476    186.6173   1.0060330226e+02   1.7865711205e+01    0.1348052    0.1088181 -19.21 0.0006958826    1.661    0.398
       117 -10.1382     44.7194    184.7421   1.1916870881e+02   3.0834852552e+01    0.3382362    0.1593524  89.19  0.001180731    2.353    0.575
       118 -10.1931     15.9196    182.5673   1.2505352558e+02   3.4292435948e+01    0.2411178    0.1578537 -73.41  0.001369996    1.364    0.267
       119 -10.0732     54.6381    180.5840   1.1656835264e+02   3.0573094694e+01    0.3137539    0.1515438  68.65  0.001392076    2.486    0.598
       120 -10.6616     31.8541    180.6584   1.2156370254e+02   3.3149973012e+01    0.2310144    0.1392927 -79.25 0.0009256005    1.412    0.292
       121 -10.6326     32.4312    175.9743   1.2102460871e+02   3.4131039335e+01    0.2044127    0.1730136  86.38 0.0003606672    1.104    0.094
       122  -8.9150    120.7298    178.7245   1.0112398444e+02   2.0957573194e+01    0.1285679    0.1118904  -7.56 0.0001913848    1.484    0.326
       123  -8.9792      3.4675    177.9729   1.2728388163e+02   3.6359415107e+01    0.1689472   0.06739232  76.28 0.0008088365    2.467    0.595
       124  -9.1933     92.4304    177.4800   1.0751265302e+02   2.5968886621e+01    0.1360714    0.1226436  78.59 -9.548819e-05    1.021    0.021
       125 -10.2053     46.6096    177.1345   1.1799778237e+02   3.2311603753e+01    0.2606638    0.1503314  50.59 0.0008218944    1.628    0.386
       126  -8.7312     24.2704    176.3256   1.2282487022e+02   3.4871154100e+01    0.1116955   0.08017123 -57.49 0.0001871315    1.576    0.365
       127 -10.8723     17.4476    175.6612   1.2422811473e+02   3.5659437762e+01    0.2143705    0.1684078 -86.94 0.0002439558    1.100    0.091
       128  -8.8361    199.2728    175.2930   8.3296733347e+01   6.7070439094e+00     0.139518    0.1041482   3.26 0.0002111896    1.518    0.341
       129 -11.4248     78.8522    174.1437   1.1022255151e+02   2.8775654848e+01    0.2819589    0.2188908  75.92 0.0003472962    1.224    0.183
       130  -9.8824     76.6838    170.6991   1.1026085235e+02   2.9877606477e+01     0.184313    0.1691924  22.21 0.0003707849    1.364    0.267
       131  -9.0938     19.4901    169.4915   1.2329992580e+02   3.6843009454e+01    0.1206507   0.09369473  87.16  0.000185453    1.009    0.009
       132  -9.5319      5.0591    168.5774   1.2634180768e+02   3.8274414492e+01    0.1493935     0.122218  75.23 0.0003420597    1.148    0.129
       133 -10.6588     48.2124    166.1448   1.1643519523e+02   3.4635355998e+01    0.4142825    0.1978869  31.76  0.001991131    2.359    0.576
       134 -10.1534     24.7122    162.8483   1.2155229340e+02   3.7861706229e+01    0.1953262    0.1543374  61.38 0.0003344163    1.230    0.187
       135  -9.7762    139.8969    160.7994   9.3345682337e+01   2.1268949333e+01    0.2127715    0.1959625  20.67 0.0003837828    1.160    0.138
       136  -9.2508     74.9948    161.7621   1.0939525981e+02   3.2196221123e+01    0.1715271     0.111683  39.20 0.0006120128    1.585    0.369
       137 -11.5034     36.8163    158.9595   1.1833340354e+02   3.7560706722e+01    0.6399218    0.2363277  50.47  0.002759787    2.811    0.644
       138 -10.8490     30.5087    154.2607   1.1934101676e+02   3.9290284504e+01     0.399227    0.2054784  43.43  0.001888374    1.968    0.492
       139  -8.9860     94.4598    159.5477   1.0421377337e+02   2.9751152718e+01    0.1410752    0.1302187  85.29 8.685298e-05    1.013    0.013
       140  -9.4867    114.0622    158.2908   9.9118160198e+01   2.6691245033e+01    0.2016903    0.1742229  51.37 0.0001850992    1.127    0.113
       141  -9.0794     66.0445    158.0000   1.1107000822e+02   3.4318331028e+01    0.2058033   0.07545183  34.14 0.0007963421    2.900    0.655
       142  -8.8472    152.2396    154.6738   8.9181826747e+01   2.0119358678e+01    0.1447923    0.1180514 -84.17 0.0002264038    1.527    0.345
       143  -9.3472    144.0096    153.3048   9.0831841562e+01   2.2081137400e+01    0.2009218    0.1867522  47.36 0.0003050384    1.050    0.048
       144  -9.0367    113.2755    153.3323   9.8376980088e+01   2.7971842749e+01    0.1435596    0.1160827 -22.42 0.0001938758    1.599    0.375
       145  -9.4518     45.9033    151.4872   1.1523121427e+02   3.8336000897e+01    0.1900129    0.1472664 -78.51 0.0002879131    1.102    0.093
       146 -11.6918      5.2857    147.3535   1.2469611586e+02   4.3012880001e+01     0.365947    0.2082309  87.43  0.002161565    1.483    0.326
       147  -8.6671    159.7035    148.6638   8.6145169757e+01   1.9848597067e+01    0.1547998    0.1207985  -3.02 0.0004177678    1.651    0.394
       148  -9.8873     29.9827    147.2330   1.1870359516e+02   4.0987524337e+01    0.2017613    0.1750146 -18.96  0.001322579    1.595    0.373
       149 -10.5348     13.4773    143.5307   1.2239442453e+02   4.3277273525e+01    0.3160691    0.2597549  23.23  0.002185754    1.595    0.373
       150  -9.8864     16.6772    140.7061   1.2132506540e+02   4.3681384828e+01    0.1882779    0.1646935 -61.90 0.0006481179    1.261    0.207
       151 -10.4933     23.1725    143.4259   1.1998553006e+02   4.2501980422e+01    0.3820607    0.1927235  60.76  0.001251962    2.172    0.540
       152 -10.4430      2.1967    139.9093   1.2481039832e+02   4.4926171467e+01    0.1883651    0.1467722 -87.99 0.0006519506    1.038    0.036
       153  -9.8541    236.0404    137.3054   6.8158877872e+01   6.1344761762e+00    0.1910633    0.1794952  10.51  0.000542199    1.108    0.098
       154 -10.1542     34.6248    136.7758   1.1625141860e+02   4.3023719151e+01    0.2819469    0.1368587  43.27  0.001273713    2.175    0.540
       155 -12.2123     28.3618    131.9290   1.1729833306e+02   4.4765097348e+01    0.3116995    0.2568043  69.23  0.002028441    1.231    0.188
       156  -9.8903     50.1411    136.1175   1.1200218294e+02   4.1540948352e+01    0.2029343    0.1648916 -50.53 0.0006331627    1.290    0.225
       157  -9.9862      2.3865    134.7462   1.2431693598e+02   4.6096994133e+01    0.2036936    0.1263867  48.45  0.001272472    1.728    0.421
       158  -8.8680     76.2188    132.9888   1.0430369050e+02   3.8912394854e+01    0.1837856    0.1076192 -61.17  0.000433506    1.574    0.365
       159 -10.4177     41.8933    132.3731   1.1369396498e+02   4.3348088409e+01    0.3742627    0.1804875 -50.71  0.001371711    2.032    0.508
       160 -10.9742     12.9110    131.0647   1.2128216541e+02   4.6224380302e+01    0.1891097    0.1475823 -81.86  0.001261715    1.015    0.014
       161  -8.9626     20.3343    131.3073   1.1936085007e+02   4.5595414374e+01     0.124643   0.08012845 -47.50 0.0007041089    1.671    0.401
       162 -10.1758      7.5859    133.6371   1.2291047782e+02   4.6004458160e+01    0.2200006    0.1348407 -60.52 0.0008156954    1.448    0.309
       163 -10.1216     33.9810    129.0118   1.1538693796e+02   4.4945269491e+01    0.2072161    0.1329285 -44.12  0.001125918    1.724    0.420
       164  -9.2378     38.6093    126.5043   1.1374385773e+02   4.5098064817e+01    0.1317472    0.1076505 -74.97 -0.0001145103    1.027    0.026
       165 -10.0671     30.0091    125.4531   1.1599486556e+02   4.6164594678e+01    0.1917853    0.1416412 -72.19 4.614728e-05    1.112    0.101
       166  -9.6534      2.6423    122.9458   1.2313959921e+02   4.8802896223e+01    0.1757551    0.1403767  75.29  0.001040444    1.236    0.191
       167 -10.3789      6.3071    122.1381   1.2207952210e+02   4.8761739088e+01    0.3323274    0.1557125  56.86  0.001675347    2.489    0.598
       168 -10.0922    237.4923    121.4727   6.4288060569e+01   8.5005746895e+00    0.1425856    0.1278478 -24.11 0.0008099946    1.008    0.008
       169  -9.5180     32.8237    121.1573   1.1459117109e+02   4.6938671889e+01    0.1725795    0.1334893 -49.95 0.0002669574    1.298    0.229
       170 -10.2496     21.9910    120.7153   1.1759932201e+02   4.7973082974e+01    0.2663121    0.1686006 -52.05 0.0002943749    1.494    0.331
       171 -11.3438     20.0003    118.0000   1.1780394807e+02   4.8773030047e+01      0.55432      0.17474  23.91  0.002319729    3.810    0.738
       172  -9.5697     93.2352    118.8489   9.6552529212e+01   3.9646245708e+01    0.2007444    0.1701891 -28.48 0.0004591678    1.321    0.243
       173 -10.3029     54.6108    117.9764   1.0771217147e+02   4.5419091207e+01    0.2284145    0.2006724  33.55 0.0004756258    1.307    0.235
       174 -10.6998     10.3429    117.0960   1.2041021455e+02   4.9676334526e+01     0.221544    0.1699702 -63.40 0.0007745366    1.149    0.129
       175 -10.7221     14.4133    113.2981   1.1878719520e+02   5.0291938959e+01    0.3526269    0.1940231  -1.25   0.00179637    2.908    0.656
       176 -10.8349     19.7585    109.9616   1.1677107859e+02   5.0694695730e+01    0.3548661    0.2005713 -44.73  0.001927596    1.799    0.444
       177 -10.4082      2.8005    116.1817   1.2239673439e+02   5.0359955113e+01    0.2755137     0.166097  25.27  0.001475194    2.078    0.519
       178 -11.3172     61.3175    113.1589   1.0477343644e+02   4.5759514152e+01    0.3372972    0.2235251 -45.75 0.0009869825    1.469    0.319
       179  -9.5919     33.9914    114.5031   1.1323350195e+02   4.8427910355e+01    0.1929726    0.1472164  65.18 0.0007951506    1.448    0.309
       180  -9.6730     31.9404    111.2582   1.1332687948e+02   4.9390823110e+01    0.1872892    0.1518233  89.74            0    1.216    0.177
       181 -10.6005      3.8130    110.9096   1.2152852937e+02   5.1523515045e+01    0.3197496    0.1370492 -82.41  0.001149908    2.115    0.527
       182 -10.0364     37.3823    106.8912   1.1092791212e+02   4.9933052743e+01    0.3510824    0.1360636 -53.79  0.001527524    2.111    0.526
       183 -10.3176     47.9545    103.5417   1.0697972891e+02   4.9652310322e+01    0.3367987    0.1717224 -61.50  0.001004988    1.682    0.406
       184  -9.9838     29.1827    103.5113   1.1289397308e+02   5.1475135772e+01    0.2699659    0.1446224 -57.89 0.0009737083    1.504    0.335
       185  -9.8918    174.9431    102.9405   7.1375932111e+01   2.5853861214e+01    0.2232269    0.2180713 -12.30  0.001174384    1.029    0.028
       186  -8.9378     80.5555    101.5766   9.6236893469e+01   4.5798580289e+01    0.1434377    0.1332119 -61.40 3.856862e-05    1.051    0.048
       187 -11.4065     41.9502     98.8965   1.0797398769e+02   5.1387943972e+01    0.2550814     0.223319 -33.26 0.0003570127    1.219    0.179
       188 -10.5420      8.8182     99.2112   1.1856266083e+02   5.3946634331e+01    0.2684593    0.2003493  65.21 0.0007596958    1.523    0.344
       189 -10.7261      3.6952     97.9779   1.1997141881e+02   5.4521622134e+01    0.2727486    0.1666829 -62.89  0.001673595    1.255    0.203
       190  -9.5776    111.7396     98.1120   8.5939934778e+01   4.1040375333e+01    0.4365232    0.2677885 -12.19  0.001453134    3.361    0.702
       191  -9.5493     50.6521     99.1776   1.0521169153e+02   5.0390147773e+01    0.1943443    0.1035823 -51.88 0.0003243526    1.605    0.377
       192 -10.5141    245.1572     98.3792   5.7702953433e+01   1.0745153672e+01    0.1822425     0.135439  74.64 0.0007835635    1.694    0.410
       193  -9.1145    106.6590     97.6925   8.7298736147e+01   4.2128479470e+01    0.1558159     0.119897  -7.43  0.000704304    1.687    0.407
       194  -9.3161    103.4545     96.8910   8.8022147303e+01   4.2919445953e+01     0.224639    0.1436182 -48.49 0.0006004479    1.498    0.332
       195  -8.9284    129.7358     96.6988   8.0540953139e+01   3.7586874850e+01    0.1524009    0.1229885  -5.65 0.0001470745    1.519    0.342
       196  -8.9863     23.3107     95.6842   1.1342369484e+02   5.3790638024e+01     0.123497   0.08832089  76.92 0.0002413234    1.636    0.389
       197 -10.0273     46.6202     94.0071   1.0541866863e+02   5.2054171518e+01    0.2595853    0.1738616  37.58 0.0006317953    1.713    0.416
       198 -10.4526     29.6693     92.9813   1.1084727372e+02   5.3915046956e+01    0.3180609    0.1144989  42.50 0.0009939773    3.504    0.715
       199  -9.7445      1.5884     92.7894   1.1993261491e+02   5.5822027139e+01    0.2082164    0.1219716 -78.36 0.0007403352    1.430    0.301
       200 -10.9457    105.4510     90.8866   8.5733074028e+01   4.3866894035e+01    0.3020698    0.2565068  36.56  0.001097388    1.227    0.185
       201 -10.2546      7.1014     89.4672   1.1768716073e+02   5.6292988945e+01    0.2322791    0.1615017 -74.87 0.0005554723    1.206    0.171
       202  -9.5432     88.0001     88.5268   9.0427184321e+01   4.7570330451e+01    0.2335262    0.1832125 -46.13 0.0003857568    1.187    0.158
       203  -9.9253    123.8969     87.3332   7.9395111382e+01   4.0830659593e+01    0.3075543     0.209319 -56.48 0.0009304456    1.665    0.399
       204 -10.8504     27.4931     87.0232   1.1042301268e+02   5.5479002953e+01     0.317165     0.201712 -49.22  0.000810146    1.332    0.249
       205 -10.1757     30.8295     84.1875   1.0868731514e+02   5.5855972995e+01    0.2701683    0.1786463 -33.17 0.0005844927    1.582    0.368
       206 -10.8751     21.2674     87.7093   1.1267598358e+02   5.5796416470e+01    0.2111032    0.1722726 -61.63 0.0002873577    1.022    0.021
       207  -9.7639      2.3403     86.7745   1.1884180513e+02   5.7156487243e+01    0.2012619    0.1135914 -70.97 0.0007255155    1.382    0.276
       208  -9.6196     10.9326     85.3175   1.1575157187e+02   5.7024075595e+01    0.2168376    0.1377278 -75.96  0.001282191    1.400    0.286
       209  -9.8407    155.1004     85.0140   7.0772063248e+01   3.4104186979e+01     0.229931    0.2272896  40.80 0.0004478582    1.017    0.017
       210  -9.6103     43.8802     88.4842   1.0511621725e+02   5.3631763339e+01     0.172492    0.1330822  25.15 0.0008379124    1.510    0.338
       211 -11.0676     50.4724     83.2255   1.0158352597e+02   5.4121771896e+01    0.4409309    0.2684222   8.23  0.001196373    2.274    0.560
       212 -10.2915     44.9068     80.0463   1.0275673297e+02   5.5456713442e+01    0.2510852    0.1878268  42.68 0.0006484434    1.599    0.375
       213  -9.3428     17.2502     85.1944   1.1358272131e+02   5.6654773451e+01    0.1564464     0.130969 -88.28  0.000649022    1.269    0.212
       214 -10.4560     73.2862     81.1276   9.3143025857e+01   5.1574114795e+01    0.4847767     0.219708 -44.16  0.001994688    2.029    0.507
       215  -9.7415     19.8570     81.1485   1.1191521925e+02   5.7401311232e+01    0.1838458    0.1529788 -86.29 0.0008977396    1.295    0.228
       216  -9.3987      2.7750     80.6077   1.1775334166e+02   5.8531041341e+01    0.1357892     0.106551  41.13 0.0002891414    1.608    0.378
       217  -9.5817     28.9601     75.6071   1.0746670725e+02   5.7962185321e+01     0.388604    0.1342113 -59.49  0.001655163    2.291    0.564
       218 -10.3346     63.9509     75.6853   9.4800983768e+01   5.4111624035e+01    0.3703666    0.2078708  50.88  0.001615521    2.474    0.596
       219 -11.1891     52.8646     75.2240   9.8633629111e+01   5.5636794572e+01    0.2632968    0.2119602 -13.96  0.001534717    1.339    0.253
       220 -10.7875     18.2109     73.7384   1.1100475518e+02   5.9186884760e+01    0.3574381    0.2264206 -33.10  0.001503421    1.594    0.373
       221  -9.6699    175.1126     75.1320   6.3538442283e+01   3.0998551057e+01    0.2219174    0.2047657  26.34 -0.0006383859    1.159    0.137
       222 -10.4476     89.0211     71.6619   8.5003879178e+01   5.1003513627e+01    0.4273604    0.2117501 -54.34  0.001367081    2.396    0.583
       223  -9.9993    169.8272     72.6800   6.3893814481e+01   3.2745618435e+01    0.4099307    0.2462221  75.84  0.001144027    2.366    0.577
       224  -9.1729     68.9434     73.5136   9.2402518444e+01   5.3874076791e+01    0.1816251    0.1382471  29.12 0.0003292115    1.429    0.300
       225  -9.3473     44.8685     73.1644   1.0099684407e+02   5.6998439047e+01    0.1808294    0.1305194 -37.71 0.0005267896    1.253    0.202
       226 -10.8732    199.8636     71.5214   5.7968614235e+01   2.5469874245e+01    0.2623314    0.2355254 -44.17 0.0002795993    1.075    0.070
       227  -8.9524    222.7194     71.3158   5.4342976128e+01   2.0029144259e+01    0.1486583    0.1028933 -61.90 0.0002986152    1.575    0.365
       228  -9.1299    137.4728     71.5951   7.0938671939e+01   4.0846660951e+01    0.1511524    0.1486707  37.42 0.0001140849    1.027    0.027
       229  -9.4959     94.6250     70.8396   8.2926666309e+01   5.0147219964e+01    0.2073964    0.1324278 -52.53 0.0007747056    1.702    0.413
       230 -11.8101     79.7624     69.8551   8.7517216177e+01   5.2962588295e+01    0.2385015    0.2188104 -18.71 0.0002650227    1.030    0.029
       231 -10.6324     52.6679     69.4035   9.7058967703e+01   5.6929192954e+01    0.2398584    0.2109413 -48.93 0.0003764539    1.109    0.098
       232 -10.5547     45.2161     68.6858   9.9640623718e+01   5.7939869075e+01    0.4731814    0.2539199 -21.67  0.002055666    2.681    0.627
       233 -10.3304      1.3006     69.2911   1.1636516481e+02   6.1121370850e+01    0.2662466    0.2044832  41.41  0.001838159    1.683    0.406
       234 -11.7025      5.8726     59.0411   1.1258432394e+02   6.3132911483e+01    0.4172884    0.3681855  58.21 0.0006204579    1.487    0.327
       235 -10.6297      1.3889     65.5002   1.1563552709e+02   6.1948221613e+01    0.1939833    0.1246693 -77.47  0.001197971    1.486    0.327
       236 -10.9766      1.5129     62.0270   1.1491796585e+02   6.2697075678e+01    0.2754556     0.148973 -55.91 0.0005384432    1.348    0.258
       237  -9.5180     64.0031     69.3000   9.2878425494e+01   5.5476292867e+01     0.183541    0.1686292   0.72 0.0004447845    1.133    0.118
       238  -9.7477    105.9539     66.8078   7.8075214673e+01   4.8721365630e+01    0.2615266    0.1977707  43.96  0.001221816    1.358    0.263
       239  -9.3745     92.7601     66.9703   8.2251046345e+01   5.1265168791e+01    0.2070082    0.1701222  72.91   0.00105052    1.661    0.398
       240 -10.5736     14.3847     64.9299   1.1053943215e+02   6.1380355701e+01    0.2338277    0.1996243  29.73 0.0009357728    1.471    0.320
       241 -10.4199     16.6446     60.3993   1.0859197911e+02   6.2216286014e+01    0.2858383    0.1767822 -81.36 0.0007449273    2.082    0.520
       242  -9.1221    144.0078     65.9992   6.7555498365e+01   4.0292403822e+01    0.1812479    0.1783511  -3.50 0.0004263326    1.015    0.015
       243  -9.5780     75.2766     66.0229   8.7826662679e+01   5.4473150613e+01    0.1945899    0.1636148 -35.09            0    1.082    0.075
       244  -9.7517    202.2835     64.2066   5.5582782385e+01   2.6052480030e+01     0.386623    0.2348764  -8.18  0.001485154    2.720    0.632
       245 -11.2335     32.2262     64.6328   1.0351259654e+02   6.0100720624e+01    0.2760693    0.2219508   7.62  0.001766092    1.412    0.292
       246 -10.5362     31.4154     58.7273   1.0220577311e+02   6.1431406312e+01    0.3372447    0.1884883 -62.03  0.001066372    1.775    0.437
       247 -10.9276     21.8575     63.9150   1.0738648802e+02   6.1095925044e+01    0.2890212    0.1566073 -40.61 0.0007282454    1.605    0.377
       248 -11.4125     23.9154     57.0707   1.0479128710e+02   6.2404403136e+01    0.4873435    0.2840019 -49.54  0.002011018    1.346    0.257
       249 -10.6941     29.9311     53.5924   1.0131654275e+02   6.2631409399e+01    0.4326799    0.2629666  24.65  0.001864889    1.887    0.470
       250  -9.3816    245.4508     64.0138   4.9548682718e+01   1.6023138281e+01    0.2117411    0.1208444 -36.17 0.0004761772    1.566    0.361
       251  -9.6322    134.5204     64.0166   6.9238776609e+01   4.2910587064e+01    0.3405812    0.2081138  73.63    0.0012852    2.564    0.610
       252  -9.4248    193.4947     62.5502   5.6563391232e+01   2.8494209976e+01    0.1470645    0.1431179 -77.18 0.0001244024    1.024    0.024
       253 -10.2266     71.1641     60.3014   8.7381236346e+01   5.6265288117e+01    0.3928772    0.2208375  49.58  0.001756331    2.353    0.575
       254 -10.0486     59.3173     58.9616   9.1310564030e+01   5.8253342064e+01    0.2981112    0.1981839 -27.32  0.001029667    1.502    0.334
       255  -8.8674    238.4548     58.4749   4.9072527905e+01   1.8380159685e+01    0.1378503    0.1224742 -54.42 5.301493e-05    1.011    0.011
       256  -9.1301    126.7871     57.1133   6.8914025022e+01   4.5911841441e+01    0.2038942    0.1696482  15.99 0.0004139979    1.296    0.228
       257  -8.9238     85.6459     57.5115   8.1352159700e+01   5.4380662914e+01    0.1417955    0.1243187 -21.02  0.000791627    1.050    0.048
       258  -9.5345     39.1417     57.3387   9.8683394909e+01   6.0982808940e+01    0.1641522    0.1131936  35.89 0.0006326155    1.738    0.425
       259 -10.5554    145.1818     54.2721   6.3482931900e+01   4.1970389347e+01    0.2566928    0.2411366   6.07 0.0007570179    1.097    0.088
       260 -10.0323    119.0008     54.7929   7.0192039941e+01   4.8080997627e+01    0.2951791    0.2131579  16.09 0.0006398041    1.677    0.404
       261 -10.2361    122.0410     52.2345   6.8477256265e+01   4.7816464861e+01     0.386367    0.2180738  42.83  0.001418155    1.756    0.431
       262 -10.8926     93.1320     54.6006   7.7837543087e+01   5.3523890596e+01    0.2814537    0.2230548 -25.09 0.0003188914    1.214    0.176
       263 -10.8424     94.7923     49.5616   7.5461360816e+01   5.4082310261e+01    0.4444144    0.2482966  33.17  0.001159608    1.940    0.484
       264 -10.0933     89.5189     49.9572   7.7318743593e+01   5.5030401504e+01    0.3928429    0.2516154 -53.04  0.001823122    1.983    0.496
       265 -11.1576     42.0681     51.4071   9.5605617707e+01   6.1876724269e+01    0.3775536    0.1909761 -38.71  0.001070168    1.734    0.423
       266  -9.2580     13.9914     53.4637   1.0793918087e+02   6.3857471283e+01    0.1500768    0.1151098   6.69 0.0005069301    1.517    0.341
       267 -10.2830    200.1720     51.1763   5.2350527762e+01   2.8556201805e+01    0.3738559    0.2539153  18.23  0.001213278    2.275    0.560
       268  -9.1639     75.4737     52.5356   8.3101277681e+01   5.7059324166e+01    0.1398267    0.1223154 -13.61 0.0004370082    1.029    0.028
       269  -9.9693     60.9197     51.9358   8.8284725727e+01   5.9408208367e+01    0.1987798    0.1773545 -18.99 0.0005413259    1.055    0.052
       270 -10.2628     20.8816     40.3883   1.0111526300e+02   6.6023517865e+01     0.351519    0.1818349   0.88  0.001729383    2.494    0.599
       271 -11.1679      6.0173     49.0014   1.1018034354e+02   6.5242070725e+01    0.5219839    0.3135285  21.12  0.003267446    2.026    0.506
       272 -11.8324     12.3887     43.9104   1.0602363054e+02   6.5919726366e+01     0.315958    0.1628674 -45.55 0.0004067051    1.463    0.316
       273  -9.6090    201.2608    249.4393   9.5741060135e+01  -4.8326327264e+00    0.1627741   0.09313033  42.52 0.0009428677    1.578    0.366
       274 -10.0836    234.9964     49.5046   4.7316149528e+01   2.0447826347e+01    0.3405903    0.1860058 -28.29 0.0009675804    1.915    0.478
       275 -12.0275     61.9482     44.3022   8.5076065385e+01   6.0671863592e+01    0.3379514    0.2450207 -40.61 0.0004196606    1.318    0.241
       276 -10.5298     65.7445     49.3654   8.5517551626e+01   5.9184986713e+01    0.3161138    0.2063175 -23.73  0.001094233    1.560    0.359
       277 -10.3121     67.7990     44.2053   8.2802457699e+01   5.9798022223e+01    0.2718216    0.2087078  -8.54 0.0005977946    1.284    0.221
       278  -8.6033    152.2988     48.3813   6.0007372512e+01   4.1109186398e+01    0.1582928    0.1133891  19.94  0.000702186    1.768    0.434
       279 -10.2808     46.8899     47.3026   9.2215227551e+01   6.2125782646e+01    0.2377357    0.1527371 -35.82 0.0003310104    1.341    0.254
       280  -9.8401     31.8559     47.8072   9.8703016129e+01   6.3627068648e+01    0.1772696    0.1394738 -24.56 0.0009605716    1.135    0.119
       281 -10.8706     17.3855     46.8398   1.0466821257e+02   6.4998611393e+01    0.3023147    0.2357705  -6.62  0.001304903    1.365    0.267
       282  -9.4420     22.0102     45.9697   1.0238396759e+02   6.4834061338e+01    0.1462536    0.1146271 -38.58            0    1.003    0.003
       283  -9.6590    114.5556     46.7500   6.8547824876e+01   5.0388091060e+01    0.2538049    0.1421194 -27.16 0.0005865039    1.899    0.473
       284  -9.6106     39.1265     46.8906   9.5307231578e+01   6.3081882964e+01    0.1797636    0.1655904 -46.85 0.0006448611    1.266    0.210
       285  -8.9217    165.2164     45.9625   5.6679197797e+01   3.8190242150e+01    0.1912255     0.120523 -32.30 0.0004320153    1.630    0.387
       286 -10.1411    124.0738     45.1055   6.5426070035e+01   4.8471387374e+01    0.3879455    0.1996331  49.67  0.001628396    1.849    0.459
       287  -9.7275     42.8630     44.6237   9.2936794696e+01   6.3106086254e+01    0.1696118    0.1484282 -16.45 0.0004786862    1.097    0.089
       288  -9.9442    102.5040     43.8960   7.0955522350e+01   5.3445281807e+01     0.294922    0.2124749  12.92  0.001453634    1.592    0.372
       289 -11.6758    103.6144     38.7164   6.8654559844e+01   5.4003851204e+01    0.2495936    0.2336085   7.04 0.0002814434    1.047    0.045
       290  -9.6762    200.0827     43.1563   5.0163879725e+01   2.9718964110e+01    0.2065566    0.1901187  37.78 0.0004110672    1.228    0.186
       291  -9.2401     52.9888     42.7063   8.8031912411e+01   6.2213900834e+01    0.1716033    0.1478121 -12.47 0.0003046318    1.055    0.052
       292  -9.8712     91.6891     40.6805   7.3077366628e+01   5.6147411471e+01    0.2320489    0.1880499  38.03 0.0006727186    1.227    0.185
       293 -11.0017     40.2433     37.1313   9.1284657541e+01   6.4790646518e+01    0.7495347    0.3154705 -34.54  0.002398073    2.275    0.560
       294 -10.5881    127.3902     39.7973   6.2701612452e+01   4.8472044839e+01    0.2780599     0.245668  57.06 0.0008470717    1.143    0.125
       295  -9.8554    131.9914     36.4801   6.0429245901e+01   4.7831015767e+01    0.2197922    0.1383859  58.14 0.0003913381    1.547    0.354
       296 -10.1995    128.5376     35.4553   6.0868660574e+01   4.8801466622e+01    0.2404662    0.2213389 -39.64 0.0006739378    1.172    0.147
       297  -9.9392      4.9358     32.0627   1.0592058066e+02   6.8681297307e+01    0.2410402    0.1232366 -47.84 0.0009790414    1.426    0.299
       298 -10.7529      6.4995     38.9836   1.0726949953e+02   6.7247158144e+01    0.3011141    0.2307199  -4.74  0.002147604    1.421    0.296
       299 -10.1579      2.9984     36.4946   1.0817845585e+02   6.7920519141e+01    0.2398843    0.1742249  -8.81  0.001319405    1.465    0.317
       300  -9.3159     82.5268     38.9817   7.5448865811e+01   5.8157728517e+01    0.1895369    0.1644333 -12.48 0.0003784001    1.058    0.055
       301  -9.7653     85.9841     36.9883   7.3483959853e+01   5.7823107708e+01    0.2033031    0.1763998   2.39  0.001195578    1.042    0.040
       302 -10.3516    228.0224     37.7252   4.5235450264e+01   2.3669091266e+01     0.228243    0.1773128 -44.30 0.0003669434    1.196    0.164
       303  -9.7825    157.1701     37.7613   5.5595283734e+01   4.1385669037e+01    0.2614216    0.1497939 -69.86 0.0009616848    2.887    0.654
       304  -9.6331    176.6344     36.5956   5.1828631861e+01   3.6559457149e+01    0.3444864    0.1431007  70.36  0.001224661    2.711    0.631
       305 -10.6242    136.7799     35.5605   5.9025798943e+01   4.6788321971e+01    0.4758658    0.2122935  39.93 0.0007935571    2.541    0.606
       306 -10.8821    142.7900     31.7852   5.6441595730e+01   4.5793833293e+01    0.3381877    0.2223008  20.70  0.001527047    1.952    0.488
       307  -8.9384     55.5302     29.4661   8.1645659038e+01   6.4115338297e+01    0.1868729    0.1081062 -26.72 0.0009681562    1.628    0.386
       308 -10.6395     56.1910     33.8755   8.3229782207e+01   6.3305548932e+01    0.4174069    0.2743873  55.50  0.001733724    2.568    0.611
       309  -9.5491     61.0000     32.4899   8.0722467752e+01   6.2818780620e+01    0.3639469    0.0879842 -36.47  0.001176577    4.116    0.757
       310 -10.8167    165.4003    248.1752   1.0213823497e+02   8.8127196108e-01    0.3150706    0.2193909  69.84  0.001078525    2.195    0.544
       311 -11.0980    109.2258     21.0718   6.0187789613e+01   5.5104203043e+01    0.4434767    0.2550254  26.12  0.002006497    2.032    0.508
       312 -10.9021    105.0148     20.9281   6.1232971757e+01   5.6061320543e+01    0.2408473     0.227185  82.81 0.0003330491    1.289    0.224
       313 -10.1196     78.4345     34.2414   7.4948118081e+01   5.9640686268e+01    0.1882463    0.1207973 -42.22 0.0009525534    1.698    0.411
       314  -9.6802    153.1431     32.6842   5.4704571766e+01   4.3074142649e+01    0.2368741    0.1829969  87.78  0.001193538    1.460    0.315
       315  -9.7162     83.0530     33.0307   7.2859462362e+01   5.8973575111e+01    0.1994047    0.1710386 -69.49  0.001122541    1.725    0.420
       316  -9.1450     66.6354     32.8074   7.8667437800e+01   6.1881651338e+01    0.1783319    0.1140945 -41.39 0.0005484236    1.630    0.387
       317  -9.3420    232.9166     31.8635   4.3289413645e+01   2.3292469333e+01    0.1905077     0.136578 -66.86 0.0004528143    1.320    0.243
       318  -9.7266    186.8568     32.0047   4.8925841114e+01   3.4539007188e+01    0.2505526    0.1387517 -54.04  0.001079967    1.995    0.499
       319 -11.7551    221.3783     29.5132   4.3933178219e+01   2.6298704455e+01    0.3568185    0.2327465 -43.24 0.0004001035    1.422    0.297
       320 -10.3629     32.8608     28.9793   9.1393476543e+01   6.7036784126e+01    0.3740657    0.2758775 -63.04  0.002213615    2.043    0.511
       321 -10.6189     24.4785     30.8060   9.6056522462e+01   6.7525291535e+01    0.3967516    0.1764067  26.38  0.002066683    2.480    0.597
       322 -10.2105     19.1603     29.0938   9.7966121813e+01   6.8284339655e+01    0.1935136    0.1344555 -41.56 0.0004427548    1.177    0.150
       323  -9.8986    159.0301     29.9548   5.2741056633e+01   4.1918770518e+01    0.2074371    0.2007545  65.37 0.0003436992    1.033    0.032
       324 -10.8144     72.1410     29.4890   7.5209269881e+01   6.1465710296e+01    0.2656296    0.1936179 -11.46  0.001066908    1.320    0.243
       325 -11.3198     48.7998     26.4542   8.3171703836e+01   6.5536567077e+01    0.3969218    0.3235335  70.44  0.001881023    2.380    0.580
       326 -10.5370    211.3856     27.9883   4.4665652125e+01   2.8903240529e+01    0.3399498    0.1957229  78.48 0.0004379253    1.767    0.434
       327  -9.6376    192.9821     28.4809   4.7080967239e+01   3.3424043997e+01    0.2143263    0.1312185  69.02 0.0004977157    1.553    0.356
       328  -9.6374    134.5103     26.8581   5.6450671203e+01   4.8452660997e+01    0.2582783    0.1446356 -18.44  0.001130246    2.064    0.516
       329  -9.8288     99.8848     26.9426   6.5091809131e+01   5.6435670444e+01    0.2130042    0.1660716  19.19  0.001174874    1.252    0.201
       330  -9.8630     37.4426     27.0343   8.8470475156e+01   6.6863876767e+01    0.2603869    0.1303792  -7.13  0.001040707    3.616    0.723
       331  -9.0492    139.5605     26.4285   5.5249720815e+01   4.7258184520e+01    0.1417476    0.1303128  47.37 0.0001396125    1.011    0.011
       332  -9.3016    157.3244    249.7134   1.0383565117e+02   1.9281581974e+00    0.1176476   0.08070083  57.75 0.0002239548    1.604    0.377
       333 -10.2973      8.1444     21.6871   1.0071603983e+02   7.0413721702e+01    0.2767271    0.1386713  21.70  0.001642128    2.250    0.556
       334  -9.8530    137.9717    248.7101   1.0731255298e+02   5.1033825911e+00    0.1930194    0.1501132  84.70  0.001003453    1.634    0.388
       335 -10.1080    232.0340     23.7346   4.1437195755e+01   2.4506873174e+01     0.284095    0.1527667  79.77  0.001374937    1.903    0.475
       336  -9.8131    159.0238     24.5076   5.0993452413e+01   4.2573480694e+01    0.2070568    0.1324005  65.43 0.0009884924    1.463    0.316
       337 -11.1873    153.6104     23.0465   5.1451940364e+01   4.4120209808e+01    0.2615005    0.2354673  39.64 0.0002995793    1.119    0.106
       338 -11.0181     18.5447     23.6391   9.6154990129e+01   6.9305349948e+01     0.243893    0.1642184 -39.94 0.0005219321    1.211    0.174
       339 -11.3347    174.6313     22.2773   4.7845645681e+01   3.8835264911e+01    0.3899912    0.2359819  43.46  0.001823065    1.797    0.444
       340  -9.9339    124.6299     23.1882   5.7284814537e+01   5.1279017904e+01    0.4468847    0.2612586 -72.06  0.001645901    3.548    0.718
       341 -12.4275    116.9467     22.2946   5.8743008351e+01   5.3193832282e+01    0.2965477    0.2499746   8.80 0.0004907867    1.202    0.168
       342 -10.6515     27.0230     21.8942   9.1215585778e+01   6.8833235986e+01    0.3530168    0.2257972  13.20  0.001348533    1.610    0.379
       343 -10.2321    132.2840     21.5980   5.5037105758e+01   4.9611149036e+01    0.2500097    0.1663582 -38.88  0.001244757    1.637    0.389
       344  -9.8166     41.0679     21.5177   8.4398813179e+01   6.7316508828e+01    0.1660585    0.1114216  24.98 0.0003884224    1.509    0.337
       345 -10.2470     36.1706     21.0454   8.6448842346e+01   6.7982974254e+01    0.1913913    0.1534553  -0.69 0.0004617211    1.127    0.113
       346 -10.8592    182.2953     18.8947   4.5781875889e+01   3.7259005872e+01    0.3057207     0.244051  -3.28  0.001392596    1.551    0.355
       347 -10.1039     38.9213    248.7608   1.2502970822e+02   1.8832264014e+01    0.1828282    0.1519979  82.42  0.001479239    1.292    0.226
       348 -10.5854    163.0377     14.9842   4.7330005583e+01   4.2595428913e+01    0.2197939    0.1829522  71.41  0.001244428    1.101    0.091
       349  -8.9232     93.6927     20.2666   6.4138658811e+01   5.8572105871e+01    0.1197544    0.1074095 -76.96 0.0003915132    1.534    0.348
       350 -10.4705     15.4380     18.2401   9.5523044790e+01   7.0484512288e+01    0.3899844    0.1798507  -2.04  0.001833962    3.177    0.685
       351 -10.2468     61.3330     23.7533   7.6803149401e+01   6.4097183696e+01     0.291904    0.1859235 -13.35  0.001576228    1.599    0.374
       352  -8.6849    192.7227     17.2680   4.4002590124e+01   3.4798790277e+01    0.1363068   0.09461191 -67.57 0.0002038239    1.483    0.326
       353  -8.7123     81.3520     17.2737   6.6672102351e+01   6.1411114199e+01    0.1386428   0.08762906  21.61 0.0007001788    1.637    0.389
       354  -9.4541     26.4911    249.5400   1.2711022143e+02   2.0090267108e+01    0.1074302   0.07275788  66.74 0.0001214388    1.028    0.027
       355 -10.7868      4.2247    247.6368   1.3054667343e+02   2.2709393020e+01    0.2035081      0.12545  79.80 0.0009827346    1.213    0.176
       356 -11.1944     20.1785    245.2149   1.2791943661e+02   2.1522801346e+01    0.3558257    0.1646765 -72.12  0.001679597    2.137    0.532
       357  -9.7164     45.8232     17.1544   8.0243449620e+01   6.7343016273e+01     0.174985    0.1600028 -23.55  0.001213639    1.384    0.278
       358  -9.6193    230.0030     15.9837   3.9789585178e+01   2.5890615814e+01    0.2089606    0.1263623 -62.43 0.0003185924    1.573    0.364
       359 -10.7927     15.5811    243.8067   1.2859550850e+02   2.2248863915e+01    0.2339522    0.1125455  64.31 0.0009921131    1.556    0.357
       360 -10.0712    211.1246    245.6608   9.3410040442e+01  -5.8414179056e+00    0.1682877    0.1497119   2.70  0.000489463    1.248    0.199
       361 -10.6403    148.3736    245.7655   1.0501169577e+02   3.9224659606e+00    0.2391581     0.167505  62.09 0.0007155499    1.619    0.382
       362 -11.2316    201.9165    244.3914   9.4880782983e+01  -4.2917248927e+00    0.2308686    0.1849146  -3.04 0.0008733971    1.278    0.218
       363  -9.4292     73.1083    244.1394   1.1879437848e+02   1.5379780611e+01      0.15634    0.1217405  70.14 0.0005998766    1.087    0.080
       364 -10.6747     76.1457    241.1947   1.1800322551e+02   1.5490216727e+01    0.3008723    0.1641678  71.23  0.001065823    1.905    0.475
       365 -10.0374     31.9325    244.0586   1.2592896361e+02   2.0454295580e+01    0.1323822    0.1205682 -75.44 0.0003363808    1.589    0.371
       366 -10.5623     26.1577    245.1759   1.2694338924e+02   2.0891298826e+01    0.3696106   0.05878322  54.22  0.001421036    4.556    0.781
       367 -10.3059    139.2085     13.9259   5.0951060761e+01   4.8720662554e+01    0.2987976    0.1735851  57.70  0.001436997    1.516    0.340
       368  -9.5231     51.4035     13.2492   7.5951501299e+01   6.7078374110e+01    0.1690049    0.1047772 -37.17 0.0009540741    1.715    0.417
       369  -9.4581     91.6946    242.0679   1.1522655018e+02   1.3165770629e+01    0.1563945     0.128635  67.49 0.0004626378    1.094    0.086
       370 -10.4852    109.5068    239.6311   1.1164805166e+02   1.0962629205e+01    0.2968239    0.1860325  84.83  0.001320731    2.094    0.522
       371  -9.8825     55.0643    241.0032   1.2176795619e+02   1.8271028582e+01    0.1688433    0.1198432  70.28 0.0004398385    1.109    0.098
       372  -9.3030    206.9449    239.6640   9.3251093138e+01  -4.4517812362e+00    0.1672805    0.1278487  25.69 0.0005568693    1.042    0.040
       373  -9.0547    190.5322    240.5308   9.6398690441e+01  -2.0149627676e+00    0.1222354   0.09841391  30.51 0.0002379653    1.052    0.049
       374  -9.8558    119.8029    240.6391   1.0980578859e+02   9.2182929352e+00    0.1767099   0.08947968  47.63 0.0004746088    1.611    0.379
       375 -11.3066     33.9984    239.1508   1.2530295932e+02   2.1104411841e+01    0.2028613    0.1560962  62.27 0.0003479284    1.153    0.132
       376 -10.1188    246.4962    239.4926   8.6258156959e+01  -1.0186636766e+01    0.1160861   0.08727908  11.94 -9.681637e-05    1.020    0.020
       377  -9.9370    148.6544    239.1327   1.0411703490e+02   4.9014939451e+00      0.15793    0.1478402  27.52 0.0009463423    1.176    0.150
       378  -9.7011    168.0638    237.8274   1.0023444889e+02   1.9647919511e+00    0.1846398    0.1488049  50.88 0.0005978656    1.265    0.209
       379 -11.2668    144.3530    237.8387   1.0477525710e+02   5.7984750085e+00    0.2883649    0.1818833  35.06 0.0006078433    1.400    0.286
       380  -9.5941      5.2312    237.6108   1.2998889473e+02   2.4382430967e+01    0.1394104   0.08854058  74.88 0.0004608849    1.118    0.105
       381  -9.4618    221.3256    237.3507   9.0295558105e+01  -6.3335720640e+00    0.1265919   0.07760692   8.77 0.0007048416    1.758    0.431
       382 -10.4037    104.2621    236.9957   1.1236579931e+02   1.2208643643e+01    0.2025861    0.1785019  -2.96  0.001056612    1.687    0.407
       383 -10.2256    133.1296    234.5826   1.0653249510e+02   8.1338264268e+00    0.2161884    0.1634905  72.02  0.001332077    1.501    0.334
       384 -10.2825     18.6532    235.2748   1.2768394187e+02   2.3468520634e+01    0.1710297    0.1111322  64.45 0.0003411567    1.117    0.105
       385 -10.5912     15.2862    235.3277   1.2824695835e+02   2.3803671265e+01    0.3011861     0.133082  31.24  0.001135229    2.834    0.647
       386 -11.6518     15.4568    232.8204   1.2809701988e+02   2.4246560826e+01    0.5375756    0.2065079  34.25  0.002936584    2.786    0.641
       387  -9.3266     41.4056    233.7927   1.2368844268e+02   2.1238671110e+01    0.1326034   0.09133532 -73.77 0.0003482264    1.522    0.343
       388  -9.7176    173.4862    233.4952   9.8579962779e+01   1.7299458268e+00     0.126521    0.1034054  31.37 5.166743e-05    1.021    0.020
       389  -9.2687    230.6748    232.6934   8.7881086603e+01  -7.1419668133e+00    0.1244536   0.07652108   9.86 0.0003780565    1.648    0.393
       390  -9.9798    209.5355     13.9630   4.1256970889e+01   3.0993010730e+01    0.2083752    0.1641873  83.27 0.0005126895    1.161    0.139
       391 -10.0590    146.2676    231.7323   1.0360554585e+02   6.4759932527e+00    0.2326805    0.1686517  35.81 0.0009165959    1.209    0.173
       392  -9.6893    142.2186    232.1852   1.0445661140e+02   7.0631373874e+00     0.230559    0.1349559  49.24 0.0005962655    1.511    0.338
       393 -11.3417     46.6278    230.1183   1.2250758626e+02   2.1308092445e+01    0.3639175    0.1678543  67.86  0.001158262    2.084    0.520
       394 -10.4486     29.4224    230.6586   1.2559600867e+02   2.3178320049e+01    0.1853267    0.1463706  80.86 0.0004960439    1.170    0.145
       395  -9.2756    152.3018    230.3022   1.0223098292e+02   5.7166777594e+00    0.1210888   0.09248735  12.49 0.0001969746    1.589    0.371
       396  -9.7050    169.2486    229.6042   9.8827277486e+01   3.0202756975e+00    0.1846673    0.1028902  32.20 0.0009469716    1.640    0.390
       397  -8.9121     39.7142    229.2780   1.2369343020e+02   2.2280622089e+01    0.1150759   0.06256238  65.30 0.0001908168    1.514    0.340
       398  -9.4826    138.4983    228.0251   1.0464042790e+02   8.3696041695e+00    0.1655481    0.1273621 -55.13 0.0005103702    1.545    0.353
       399  -9.5975     22.9649    226.9740   1.2650983389e+02   2.4564604220e+01    0.1733642   0.08828858  65.45  0.001078666    1.566    0.361
       400  -9.2340     14.5432    227.5205   1.2798887246e+02   2.5324935378e+01    0.1092421   0.07605401  71.92 0.0001342689    1.015    0.015
       401  -9.7652     73.0923    225.9036   1.1723854978e+02   1.8718810729e+01    0.2972839   0.09388226  53.79  0.001178281    3.107    0.678
       402 -10.3121      2.3298    224.7083   1.2991720030e+02   2.7027158790e+01    0.2139477    0.1810155 -61.92  0.001060934    1.733    0.423
       403 -10.0433    164.8055    225.1639   9.9039763931e+01   4.4618516968e+00    0.1816803    0.1565079  47.66 0.0003323283    1.148    0.129
       404  -9.1000    108.6115    225.2213   1.1022433895e+02   1.3655529674e+01    0.1522134    0.1148836 -49.43 0.0005207987    1.653    0.395
       405 -10.2355     88.8730    221.7947   1.1376234819e+02   1.7275706579e+01    0.1772131     0.151177  53.85 0.0005181007    1.138    0.121
