#   1 NUMBER                 Running object number                                     
#   2 MAG_AUTO               Kron-like elliptical aperture magnitude                    [mag]
#   3 X_IMAGE                Object position along x                                    [pixel]
#   4 Y_IMAGE                Object position along y                                    [pixel]
#   5 X_WORLD                Barycenter position along world x axis                     [deg]
#   6 Y_WORLD                Barycenter position along world y axis                     [deg]
#   7 A_WORLD                Profile RMS along major axis (world units)                 [deg]
#   8 B_WORLD                Profile RMS along minor axis (world units)                 [deg]
#   9 THETA_WORLD            Position angle (CCW/world-x)                               [deg]
#  10 FWHM_WORLD             FWHM assuming a gaussian core                              [deg]
#  11 ELONGATION             A_IMAGE/B_IMAGE                                           
#  12 ELLIPTICITY            1 - B_IMAGE/A_IMAGE                                       
         1 -17.8725     67.5844    216.3113   1.1900792166e+02   2.4093135001e+01      2.83499     2.230008  75.36    0.0195909    1.246    0.197
         2 -18.8734     53.9803     94.1172   1.0782751927e+02   5.1170524229e+01     16.90887    0.7676625 -62.44   0.02439072   18.452    0.946
         3 -17.2539    210.6102     65.7450   6.1083043447e+01   2.3566191054e+01     2.221485     1.868202 -14.39   0.01241581    1.136    0.120
         4 -14.8702    114.3817     30.0427   6.6846675875e+01   5.2847970207e+01    0.7443206    0.5777718 -64.16  0.003618796    1.557    0.358
         5 -16.5978    243.3302      9.6520   4.2732004563e+01   2.2345681678e+01     1.665249    0.8046771 -41.59  0.008286843    1.733    0.423
         6 -16.2136     72.0069      9.4612   6.9535837584e+01   6.5591798551e+01    0.7594132    0.6158886 -53.02  0.004197708    1.497    0.332
         7 -17.1973    139.2054    227.1187   1.0656367006e+02   1.3021095535e+01     3.059675    0.7702914  43.14   0.01302501    3.111    0.679
         8 -14.3403    120.0808    249.7503   1.1215599597e+02   1.2681449045e+01    0.6902826    0.1556429  38.23  0.003108608    3.076    0.675
         9 -15.8234    247.3904    237.1051   9.0109643423e+01  -2.5544062886e+00    0.6044759       0.3438  -2.12  0.004424027    1.648    0.393
        10 -15.1025    100.3899    200.8855   1.1113318037e+02   2.2392028653e+01    0.7172712     0.523307 -65.41   0.00482792    1.635    0.388
        11 -15.6532    123.9697    188.2862   1.0478757411e+02   2.1011835186e+01     3.361706     0.803299  47.45   0.01075338    4.671    0.786
        12 -16.0861    111.7175    187.2742   1.0720995200e+02   2.3049633193e+01     1.156408    0.8255496 -20.17  0.006532725    2.260    0.558
        13 -17.3248    136.7485    158.4928   9.7499085549e+01   2.4026844466e+01     3.600691     1.758358  52.09   0.01579565    2.230    0.552
        14 -16.0563    150.8552    182.9126   9.8546667243e+01   1.7578466691e+01     1.262315     0.827315 -67.72   0.00664446    2.522    0.603
        15 -15.8959    148.6611    168.5740   9.6684444578e+01   2.0231253891e+01    0.8587314    0.5366113  64.10  0.004104365    2.394    0.582
        16 -14.6237    195.5689    167.7541   8.7430232353e+01   1.2227615141e+01    0.4972794    0.3726282  31.40  0.003076314    1.161    0.139
        17 -15.9232    106.8642    150.1750   1.0295693130e+02   3.0705703177e+01     1.143393    0.4351965  39.94  0.004650999    2.389    0.581
        18 -16.8544     84.5549    143.4018   1.0742263100e+02   3.5621529045e+01     1.758488    0.9737074  56.93  0.008375885    1.929    0.482
        19 -16.8592     99.2749    136.1249   1.0244023294e+02   3.4842291912e+01     1.638231      1.02475  54.16   0.00812138    1.621    0.383
        20 -17.0152    243.9474    137.4889   7.3477242338e+01   7.7632565521e+00     1.761673    0.9165737 -20.95  0.009250254    1.776    0.437
        21 -16.4062    175.2508    146.7558   8.7211366951e+01   1.8946414781e+01    0.8508242    0.6340542  49.19  0.004735993    1.383    0.277
        22 -16.3905    170.5308    136.1079   8.5935160829e+01   2.1568622019e+01     1.041974    0.7360756  40.82  0.005513202    1.327    0.247
        23 -13.7387    129.1719    137.0898   9.5242235077e+01   2.9369060105e+01    0.5449251    0.2316082  47.33  0.002173017    2.292    0.564
        24 -14.2257    123.1534    136.1847   9.6499883161e+01   3.0655467453e+01    0.4016958    0.2573905  48.98  0.001904393    1.504    0.335
        25 -15.3938    119.3635    130.3954   9.6269446818e+01   3.2508163714e+01    0.8950325    0.5572513  54.31  0.004021394    1.690    0.408
        26 -15.6693    158.9266    117.2517   8.4097184282e+01   2.7154619943e+01     1.526575    0.9172369  63.16  0.006421873    2.278    0.561
        27 -14.5491     79.4677    117.8245   1.0447191578e+02   4.2028586674e+01      0.33878    0.2678384 -65.20  0.001487994    1.238    0.192
        28 -16.7643     13.5887    175.0415   1.2756800626e+02   3.7269741510e+01     3.825705     1.510804  54.52   0.02131696    1.982    0.495
        29 -17.1181    244.9928    103.5462   6.5882234733e+01   1.1610869468e+01     1.499295     1.289151  -7.41  0.009682903    1.032    0.031
        30 -17.5171    225.3805     89.3412   6.5179449962e+01   1.7237316046e+01     4.235912     1.566047  59.13   0.01604664    3.257    0.693
        31 -15.5597     11.9236    100.2302   1.2292929830e+02   5.3800143186e+01      1.34479    0.3388383  29.76  0.005550516    3.574    0.720
        32 -15.8505     25.7074     89.1147   1.1682815631e+02   5.5395742988e+01     1.197168    0.6617018  25.51  0.006256065    2.073    0.518
        33 -14.9372     74.5296     76.9967   9.6632528446e+01   5.2192220232e+01     1.105758    0.4531783  48.01  0.004101606    2.820    0.645
        34 -16.9023    191.3119    236.2226   9.8663167532e+01   4.7302805641e+00     1.392414    0.6752852  35.84  0.008455737    1.525    0.344
        35 -15.6979     92.7997    220.3909   1.1451123269e+02   2.0294954708e+01    0.7597948    0.5489035  55.69   0.00397678    1.182    0.154
        36 -16.2018    119.2927    215.5740   1.0899428677e+02   1.7431925448e+01     1.613593    0.3987987  43.86  0.006615068    3.171    0.685
