#   1 NUMBER                 Running object number                                     
#   2 MAG_AUTO               Kron-like elliptical aperture magnitude                    [mag]
#   3 X_IMAGE                Object position along x                                    [pixel]
#   4 Y_IMAGE                Object position along y                                    [pixel]
#   5 X_WORLD                Barycenter position along world x axis                     [deg]
#   6 Y_WORLD                Barycenter position along world y axis                     [deg]
#   7 A_WORLD                Profile RMS along major axis (world units)                 [deg]
#   8 B_WORLD                Profile RMS along minor axis (world units)                 [deg]
#   9 THETA_WORLD            Position angle (CCW/world-x)                               [deg]
#  10 FWHM_WORLD             FWHM assuming a gaussian core                              [deg]
#  11 ELONGATION             A_IMAGE/B_IMAGE                                           
#  12 ELLIPTICITY            1 - B_IMAGE/A_IMAGE                                       
         1 -13.6078     30.6563     59.6606   1.1643651964e+02   6.1195434521e+01     1.328472    0.9825191  42.75  0.006062515    1.836    0.455
         2 -12.9916     42.5025     20.6239   9.7671631045e+01   6.5979559464e+01    0.6289676    0.3407591  26.63  0.003704861    1.745    0.427
         3 -12.5067    216.7051     14.7973   5.8968855860e+01   3.0007420555e+01    0.6654446     0.443964  78.10  0.002563992    1.297    0.229
         4 -11.8659     43.8498      8.7218   9.2036011302e+01   6.7155878618e+01    0.2840683    0.2182412  30.43  0.001059131    1.314    0.239
         5 -13.4859    187.0616      6.6927   6.0188407671e+01   3.7712671161e+01    0.9383234    0.5175014 -84.50  0.004752385    1.920    0.479
         6 -11.7853     57.4830      6.9021   8.6305013652e+01   6.5290204329e+01    0.4731439    0.4559473 -54.75  0.003603669    1.639    0.390
         7  -9.4375    149.0323      8.2348   6.5528243643e+01   4.6495937790e+01    0.1686734   0.09086768  65.35 0.0003836051    1.558    0.358
         8 -10.1991    109.8185      8.8219   7.2797524884e+01   5.5251857677e+01     0.160272    0.1388459  78.58 0.0005231767    1.312    0.238
         9 -11.7055    166.8984      1.9961   6.1381509190e+01   4.2870807753e+01    0.5260966    0.1572871  69.25  0.002087089    2.786    0.641
        10 -10.2164    104.5151    225.2144   1.2819600783e+02   1.3296961101e+01    0.2398166    0.1299566 -67.25   0.00113072    2.014    0.503
        11 -11.2734     95.9782    223.7865   1.2979142571e+02   1.4992204572e+01    0.4259287    0.2006259 -57.78  0.001951254    2.206    0.547
        12 -10.6853    149.3985    223.1976   1.1845438254e+02   5.8857411571e+00    0.2354944    0.1851469  61.31  0.001294315    1.311    0.237
        13 -11.8311    226.4872    220.1088   1.0242358422e+02  -7.0021850519e+00    0.3898859    0.2064831 -23.94  0.001792459    2.238    0.553
        14 -10.0779    211.2646    217.7791   1.0489813083e+02  -4.1163476024e+00    0.2326879    0.1608087 -41.81   0.00126271    1.527    0.345
        15 -11.8308    221.0796    213.1561   1.0215511554e+02  -4.9889420885e+00    0.5466909    0.2286016  45.40  0.002284993    2.604    0.616
        16  -9.2361      2.6852    214.6946   1.4727176849e+02   2.8993048935e+01    0.1029564    0.0762867 -61.68 0.0007025321    1.623    0.384
        17 -10.9026    232.6870    211.0849   9.9591174368e+01  -6.5459992020e+00     0.217409    0.1778556  40.21 0.0009395036    1.360    0.265
        18 -10.6153    115.5295    209.4641   1.2360428081e+02   1.4799115944e+01    0.2931653    0.2011306 -89.50   0.00142021    1.758    0.431
        19  -9.7522     41.4998    201.9556   1.3867786184e+02   2.7633827458e+01    0.1912594    0.1071661 -74.43  0.000620467    1.546    0.353
        20 -11.1725      5.0502    199.6553   1.4579280282e+02   3.2022167904e+01    0.3219812    0.1606008  59.05  0.001033208    1.847    0.459
        21 -10.3500     48.4394    200.9082   1.3710898037e+02   2.7013315503e+01    0.3660756    0.1173997 -72.72  0.001370813    3.149    0.682
        22  -9.8792    133.6063    196.3247   1.1741445483e+02   1.4416128726e+01    0.2256323    0.1661835  80.57 0.0007035965    1.653    0.395
        23 -12.2996    159.7354    191.6628   1.1069573108e+02   1.0401269088e+01    0.7554151    0.5300252  88.60  0.002641228    2.193    0.544
        24  -9.5463    215.2289    193.4694   9.9479641861e+01  -5.4392716778e-01    0.2956142    0.1020502 -51.08 0.0008938212    4.374    0.771
        25  -9.3759    193.9831    189.2324   1.0288159541e+02   4.2149783439e+00    0.1953774    0.1179428  42.01 0.0008823639    1.647    0.393
        26 -10.0017    226.2979    188.6221   9.6399675842e+01  -1.6412292827e+00    0.1343021     0.109448 -72.06 0.0007024442    1.756    0.430
        27 -10.7212    223.7952    183.1144   9.5752980048e+01  -2.0000896625e-01    0.3165349    0.1586681 -43.92  0.001380673    1.944    0.486
        28 -10.1852    183.2648    183.1247   1.0388963241e+02   7.5346353404e+00    0.3959609    0.1832663 -41.63  0.001535645    2.210    0.547
        29  -9.5317    191.4943    178.0063   1.0110170955e+02   6.9424147284e+00    0.2094759    0.1294374 -66.67 0.0008103666    2.552    0.608
        30  -9.4456    128.6605    177.6940   1.1516064097e+02   1.9601951851e+01    0.1494951    0.1226152  -8.21 0.0007041534    1.680    0.405
        31  -9.5882     28.2077    176.8578   1.3891442426e+02   3.4968261855e+01    0.1661136     0.128186 -61.71 0.0004103596    1.310    0.236
        32 -11.1247     34.4772    173.4986   1.3710696753e+02   3.5097836213e+01    0.3258509    0.1615127  89.99  0.001461473    2.264    0.558
        33 -11.5640     55.5741    167.5447   1.3130322765e+02   3.4033421810e+01      0.50263     0.273973 -81.37  0.002153987    1.971    0.493
        34  -9.5381    168.3229    169.6488   1.0433941559e+02   1.3430193353e+01     0.159386    0.1220226  89.54 0.0007048192    1.752    0.429
        35 -10.7204     44.3771    168.5861   1.3416308345e+02   3.5158052174e+01    0.3333376   0.09286657 -61.58  0.001234454    2.841    0.648
        36 -11.5279     24.5112    159.6139   1.3780265940e+02   3.9428819044e+01    0.2667902     0.196136 -37.87  0.001017052    1.737    0.424
        37 -11.2249    106.3068    157.7003   1.1677017140e+02   2.8582079657e+01    0.6648548    0.4635645 -87.38  0.002955227    1.802    0.445
        38 -10.4844    167.4269    157.3101   1.0185516090e+02   1.6335599265e+01    0.3545026    0.2348469  81.46  0.001334691    2.558    0.609
        39 -10.7190    118.7132    156.7848   1.1343202025e+02   2.6487626491e+01    0.3818061     0.320004  41.07  0.001734037    1.248    0.199
        40 -10.3233    218.2750    156.4203   9.1147448569e+01   5.9013818788e+00    0.4039455    0.1131415 -46.35   0.00120742    3.634    0.725
        41 -10.9330     23.0914    153.5351   1.3740495866e+02   4.1011189726e+01    0.2433441    0.1509031 -89.11 0.0008645432    1.534    0.348
        42 -10.1356    189.6613    150.5177   9.5493049052e+01   1.3030372669e+01    0.2749592    0.1869093 -63.39  0.001183306    1.791    0.442
        43 -10.9175    241.0112    150.1914   8.5756136755e+01   2.7006903091e+00    0.2217378    0.1661759 -86.35  0.001090243    2.020    0.505
        44 -10.3593     12.1136    148.7751   1.3952711008e+02   4.3084649685e+01    0.2530307    0.1112588 -52.70  0.001243378    2.101    0.524
        45 -11.2317    233.8946    147.2870   8.6343454691e+01   4.5895881731e+00    0.2671461    0.1793377 -47.85  0.001258884    1.407    0.289
        46 -10.9176    107.1630    145.3716   1.1399253507e+02   3.1427750267e+01    0.5127972    0.2812471  71.98  0.001555709    4.074    0.755
        47 -10.2137     55.4837    145.9691   1.2795276073e+02   3.9332314873e+01    0.2008538    0.1111878 -88.72 0.0008099889    2.532    0.605
        48 -10.0737    148.4962    145.0056   1.0346146354e+02   2.3182793501e+01    0.2300137     0.137581 -70.59 0.0008104257    2.551    0.608
        49 -10.0630    181.8257    141.7117   9.5115765944e+01   1.6607701571e+01    0.3066951    0.2022087 -69.17  0.001231459    2.081    0.519
        50 -10.3084    244.6668    136.3289   8.2182582822e+01   4.5587625195e+00    0.1430134    0.1038153 -68.98 0.0007051894    1.720    0.419
        51 -10.2083     83.0245    132.0675   1.1768825870e+02   3.8819083674e+01    0.2392894    0.1762554  83.50 0.0009418609    1.715    0.417
        52 -12.0252     98.2198    127.4764   1.1240139612e+02   3.7360628001e+01    0.8837142    0.4885659 -79.17  0.002717202    4.082    0.755
        53 -10.8688     43.1807    123.5335   1.2739843052e+02   4.6200459433e+01    0.6139939    0.3148744 -78.58  0.002580315    2.525    0.604
        54 -11.2751     27.4761    121.4762   1.3158248385e+02   4.8231959765e+01    0.5737566    0.2763545  87.20  0.002023905    4.299    0.767
        55 -11.7364    193.0782    118.0510   8.7131129719e+01   1.9012443308e+01    0.6649542    0.4560102 -68.42  0.002254317    1.802    0.445
        56 -11.5342     84.3155    119.0624   1.1438107087e+02   4.1717088999e+01    0.4988302    0.4007691  29.60  0.001971487    1.383    0.277
        57 -10.2272     59.4455    124.9407   1.2293865248e+02   4.3936598941e+01    0.3799377    0.2071652  78.88  0.001217199    4.623    0.784
        58 -10.9775     14.3858    120.1717   1.3511486636e+02   4.9600138805e+01    0.2609829    0.1586066 -37.65  0.001093503    1.793    0.442
        59 -11.0059    140.6763    117.1998   9.8564485175e+01   3.1183232396e+01    0.5038944    0.1551199 -49.38   0.00144405    3.451    0.710
        60 -10.6507      1.9498    116.1166   1.3803097857e+02   5.1360427515e+01    0.3155933    0.1451358 -71.39  0.001647777    1.740    0.425
        61 -10.3473    108.4072    112.8046   1.0593907575e+02   3.8880860508e+01    0.4952955    0.2146059 -60.59  0.001522015    3.525    0.716
        62 -10.4748     78.3850    112.1195   1.1446782596e+02   4.4273602225e+01    0.5088513    0.2564544 -73.28  0.001558216    4.372    0.771
        63 -12.1958    159.9905    110.5085   9.2223987350e+01   2.8239553267e+01    0.8430933    0.4709704 -59.31  0.003152134    2.255    0.556
        64 -10.7062    174.5027    111.1217   8.9194258474e+01   2.4728502421e+01    0.3728032    0.2825809 -52.35  0.001014483    1.303    0.232
        65 -11.5831     13.7274    109.1111   1.3354259455e+02   5.2180427930e+01    0.5291684    0.2366377 -70.96  0.002554758    2.020    0.505
        66 -12.6252    141.6449    105.4258   9.5217511284e+01   3.3506357298e+01    0.6368071    0.4152336  70.20  0.002577047    2.087    0.521
        67 -11.1961    141.8320    100.3439   9.3792166409e+01   3.4521608177e+01    0.4117003    0.3080969  67.92  0.001895298    1.538    0.350
        68 -10.7982     21.7023    100.8607   1.2960368855e+02   5.3442292012e+01    0.6164211    0.3091877  83.45  0.001932619    6.345    0.842
        69 -11.9323     44.7185    101.4534   1.2239601254e+02   5.1152783520e+01    0.6049355    0.3850812 -89.36  0.002789794    2.552    0.608
        70 -11.8649    127.5110    100.4551   9.7445268109e+01   3.7666252558e+01    0.5875233    0.2710387 -51.84  0.002118838    2.400    0.583
        71 -12.5506    109.5263     99.5149   1.0206266886e+02   4.1582354204e+01     1.119918    0.6099521  66.05  0.003639578    3.774    0.735
        72 -10.6219     82.1522    100.5673   1.1039780409e+02   4.6282947873e+01    0.2670191    0.2268617 -85.43 0.0009180477    1.444    0.308
        73  -9.9607     94.4323     97.2290   1.0579188612e+02   4.4913674309e+01    0.2116429     0.136186 -57.72 0.0009521948    1.707    0.414
        74 -10.6196     62.8181     95.6453   1.1517454615e+02   5.0234545671e+01    0.2970919    0.1637386 -73.79   0.00109217    3.456    0.711
        75 -12.8587    170.3961     90.8638   8.4772951404e+01   2.9702435398e+01    0.4927301     0.402004 -72.88 0.0008849757    1.325    0.246
        76  -9.6977     83.0022     93.4771   1.0821582981e+02   4.7677900778e+01    0.2011937    0.1246465   9.04 0.0008098797    2.621    0.618
        77 -11.6915     42.2399     87.8855   1.1999157862e+02   5.4394051423e+01    0.6508766    0.3451937   2.44  0.002252861    3.161    0.684
        78 -10.6447     45.3830     82.1746   1.1744896358e+02   5.5253207957e+01    0.2813642     0.190776 -64.51 0.0009033144    1.670    0.401
        79 -11.1475     86.8139     87.0430   1.0521457210e+02   4.8379192938e+01    0.4102773    0.3079786  88.55  0.001935087    2.160    0.537
        80 -10.6790     33.8020     87.4437   1.2274197175e+02   5.5335599825e+01    0.3160711    0.1529291 -59.94  0.001527457    1.899    0.473
        81  -9.6083    247.7043     85.3105   7.0713988164e+01   1.3012393404e+01    0.1410045   0.09150564 -66.64 0.0003538219    1.594    0.373
        82 -10.9023    104.7650     84.1002   9.8992828645e+01   4.5674400888e+01    0.3548891    0.2658797 -85.36  0.001630642    2.079    0.519
        83  -9.7945    140.5161     83.0068   8.9244281888e+01   3.8227918286e+01    0.2229154    0.1245614 -60.77 0.0008104003    2.623    0.619
        84 -10.5883     24.0404     80.5835   1.2447321923e+02   5.7642247361e+01    0.3441209    0.1674264 -74.69  0.001392426    3.551    0.718
        85  -9.9858      1.8664     77.8975   1.3162040467e+02   5.9688997480e+01    0.1894239    0.1162385 -44.42 0.0007254204    1.293    0.227
        86 -10.8801     82.2213     73.0504   1.0244756241e+02   5.1899949771e+01    0.3871319    0.2476414 -68.96  0.001612338    2.927    0.658
        87  -9.8788    115.9808     73.4733   9.2646509722e+01   4.5391519101e+01    0.2002702    0.1297099  73.02 0.0008094597    2.498    0.600
        88 -11.5101    223.4924     71.5647   7.0887323480e+01   2.0547250710e+01    0.2715102    0.2387119 -78.30 0.0001375186    1.037    0.036
        89 -10.6980     62.4143     70.2373   1.0812904380e+02   5.5486200248e+01    0.2579399    0.1123234 -42.08 0.0009753538    2.089    0.521
        90 -10.7049     51.7537     70.0723   1.1179811279e+02   5.6924226620e+01     0.334731    0.2192186 -60.14  0.001682102    1.859    0.462
        91 -11.5945    221.4319    248.7169   1.0836079370e+02  -1.0514876046e+01    0.5084395     0.276055  46.62  0.002646885    2.128    0.530
        92 -10.0665    195.8029     67.8279   7.4116075804e+01   2.7631366372e+01    0.3706595     0.110092  62.70   0.00114264    3.693    0.729
        93 -12.2743    236.8798     63.6187   6.7379435502e+01   1.8838276670e+01    0.4066027    0.2741286  75.45  0.002204102    1.499    0.333
        94  -9.4179    189.1608     63.1630   7.4012612418e+01   2.9980023327e+01    0.1915654     0.152747 -75.23 0.0002704342    1.261    0.207
        95 -11.3920     19.3525     59.3728   1.2070549551e+02   6.2227090658e+01    0.2964329    0.2192676 -33.36  0.001438378    1.081    0.075
        96 -11.3239      9.5891     57.5579   1.2400842709e+02   6.3267318426e+01    0.5280889    0.3916821  76.63  0.003246668    2.432    0.589
        97 -11.8617     39.8812     51.4654   1.1029242769e+02   6.1708829990e+01    0.5008298    0.2096351 -37.21  0.001945422    2.145    0.534
        98 -10.1113    162.2315     53.3946   7.6108151593e+01   3.8013112075e+01    0.2087627    0.1308518  71.46  0.000956753    1.685    0.407
        99 -11.4399    149.7798     52.4291   7.8257149404e+01   4.1145362163e+01    0.3185078    0.2408228  65.78 0.0008184931    1.287    0.223
       100  -9.6490    205.8498     46.8551   6.7501890048e+01   2.8431205263e+01    0.1851773     0.139782 -71.83  0.000270254    1.256    0.204
       101 -10.3874     82.0834     47.0820   9.3848853820e+01   5.6299794184e+01    0.1892561    0.1658251 -76.48 0.0007489395    1.690    0.408
       102 -10.5740    156.9862     45.0035   7.4709168346e+01   4.0468072290e+01    0.2599508    0.1824415  60.30 0.0004431851    1.308    0.235
       103 -11.4831     71.3945     42.7483   9.5773287977e+01   5.8752306569e+01    0.5141687    0.2783391  53.45  0.002401005    2.613    0.617
       104 -11.1184      7.5333     43.2743   1.2074321030e+02   6.5991200412e+01    0.4332995    0.2473066  36.31  0.002647958    2.438    0.590
       105 -10.5224     83.3187     38.3351   9.0330158080e+01   5.7319018940e+01    0.3118003    0.1782234  50.91  0.001327402    1.888    0.470
       106 -11.8122     42.3795     37.2235   1.0428021891e+02   6.3713738737e+01    0.3851487    0.2653711 -20.85  0.001271113    1.264    0.209
       107 -12.3085     46.4224     35.8784   1.0220275380e+02   6.3405523224e+01     0.910517    0.4158087  23.64  0.001655596    2.527    0.604
       108 -10.8831    119.7073     34.0044   7.9052341765e+01   5.0519310898e+01    0.2961142    0.2615156  68.15 0.0009082163    1.200    0.167
       109  -9.6947    177.9587     38.7240   6.9447679378e+01   3.6233813252e+01    0.1916005    0.1620532  80.41 0.0004064898    1.064    0.060
       110 -11.3974    104.8635     30.2623   8.1387434180e+01   5.4136954833e+01    0.5876833    0.3136206  61.52  0.002666211    2.116    0.527
       111  -9.4379    154.2961     24.3050   6.9270184872e+01   4.3657517264e+01    0.1323836   0.09290719  37.84 0.0002694504    1.583    0.368
       112  -9.4858    188.0371    248.4463   1.1464959629e+02  -5.2371596255e+00    0.1878436    0.0984583  21.00 0.0008079666    2.627    0.619
       113 -11.1310    239.9240     20.5472   5.8041446891e+01   2.4193623085e+01    0.2544203    0.1839824  89.54 0.0005090759    1.178    0.151
       114 -12.1857     22.8856    240.0985   1.4538758832e+02   2.1620050117e+01    0.3459727    0.2038147  69.22  0.002220429    1.341    0.254
       115 -11.8703    203.2564     20.9147   6.1728381988e+01   3.2395367944e+01    0.3146634     0.180014  78.76  0.001639051    1.591    0.372
       116 -10.0774    134.2915     18.0124   7.0908757964e+01   4.8987585188e+01    0.1734539    0.1572445  58.64 0.0004184921    1.044    0.042
       117  -9.8122     88.5841     17.7878   8.1180268320e+01   5.8748036157e+01    0.1608936    0.1105455 -35.34 0.0009467702    1.688    0.408
       118  -9.0124      5.4091     14.4542   1.1142131957e+02   7.0658873170e+01    0.1056023   0.07591839 -18.51 0.0001824585    1.022    0.022
       119 -10.9812     19.4851    236.5056   1.4573597918e+02   2.2727602192e+01    0.2088267    0.1395466  35.83  0.001284353    1.869    0.465
       120 -10.5871      8.0653    240.7417   1.4793710938e+02   2.3106912646e+01    0.1674646     0.152218  57.84  0.001211298    1.554    0.356
       121  -9.5917      2.6549    240.3014   1.4880372083e+02   2.3749684357e+01     0.119176   0.05661723  67.37 0.0005276641    1.682    0.406
       122 -10.7465      6.2526    235.5282   1.4793579362e+02   2.4334981046e+01    0.2058298    0.1394853  81.13 0.0004297766    1.055    0.052
       123 -10.8387     12.6685    227.4841   1.4632994440e+02   2.5313709072e+01    0.2143937    0.1518458  84.47 0.0005597089    1.052    0.050
