#   1 NUMBER                 Running object number                                     
#   2 MAG_AUTO               Kron-like elliptical aperture magnitude                    [mag]
#   3 X_IMAGE                Object position along x                                    [pixel]
#   4 Y_IMAGE                Object position along y                                    [pixel]
#   5 X_WORLD                Barycenter position along world x axis                     [deg]
#   6 Y_WORLD                Barycenter position along world y axis                     [deg]
#   7 A_WORLD                Profile RMS along major axis (world units)                 [deg]
#   8 B_WORLD                Profile RMS along minor axis (world units)                 [deg]
#   9 THETA_WORLD            Position angle (CCW/world-x)                               [deg]
#  10 FWHM_WORLD             FWHM assuming a gaussian core                              [deg]
#  11 ELONGATION             A_IMAGE/B_IMAGE                                           
#  12 ELLIPTICITY            1 - B_IMAGE/A_IMAGE                                       
         1 -13.9388    216.4899      7.9492   3.8296064620e+01   2.9919725359e+01     2.438785     1.463297  44.05   0.01223919    2.163    0.538
         2 -13.4251    191.0996     39.8251   4.9631870439e+01   3.2382853899e+01     1.055192     1.032347  88.36  0.003894658    1.082    0.076
         3 -12.8945    196.0324     33.7529   4.7255407295e+01   3.1937439937e+01    0.7257988    0.7152634 -46.90  0.001179485    1.130    0.115
         4 -13.1308    176.0135     53.1210   5.5907368402e+01   3.4321146263e+01     1.910769     1.223446  31.77  0.005589763    2.044    0.511
         5  -9.4611     67.3359      2.3130   6.2701568685e+01   6.5616154271e+01    0.1341284   0.07823744  22.12 0.0004911806    1.688    0.407
         6  -9.3109    167.7354    231.5975   9.8656519433e+01   2.8859463843e+00    0.2237456    0.1676672  17.15  0.000722567    1.420    0.296
         7 -12.3662    248.0452    246.6078   8.6459363589e+01  -1.1211169911e+01     0.791237    0.5368524 -14.53  0.005544925    1.384    0.278
         8 -12.3010    249.1961    228.1197   8.3207583126e+01  -9.2697255365e+00    0.8365077    0.3269435 -24.39  0.003904231    2.890    0.654
         9 -10.0787     32.9586    206.3244   1.2264039589e+02   2.7595483791e+01    0.2597253    0.1573115  79.80  0.001603109    1.408    0.290
        10  -9.6358     64.9126    223.8304   1.1788715372e+02   2.0183129303e+01    0.1523512     0.101805  88.00  0.000619947    1.416    0.294
        11  99.0000     43.2436    207.3216   1.2070379701e+02   2.6218150410e+01    0.4707206    0.2355021 -76.96 0.0006747088    1.844    0.458
        12 -10.2307     67.1897    204.1653   1.1556185356e+02   2.3852146866e+01     0.359556    0.2124953 -44.99 0.0009960243    2.494    0.599
        13  -8.5995     71.2354    200.6314   1.1434093249e+02   2.4044332809e+01    0.3255205     0.166273  84.80  0.001445938    2.597    0.615
        14 -10.9261    192.9783    194.9704   8.7583954450e+01   4.4607388148e+00    0.9425395     0.519237 -63.95  0.003129854    5.056    0.802
        15 -11.0702    202.7919    199.4940   8.6499036267e+01   1.9780639887e+00    0.4779057    0.1704619  41.70  0.001886847    2.611    0.617
        16  -9.3169    160.6193    205.1847   9.5971494938e+01   8.5120083138e+00    0.1806775    0.1258912 -33.07 0.0007214332    1.690    0.408
        17 -11.0178     57.5005    200.5498   1.1721084772e+02   2.5890081135e+01    0.2677771    0.1913583 -49.97  0.001594834    1.812    0.448
        18 -11.9910     58.4799    196.0776   1.1656035959e+02   2.6722165989e+01    0.6247891    0.2681639 -52.47  0.002812842    2.838    0.648
        19  -8.5384     44.4115    198.4637   1.1971899510e+02   2.7942913063e+01    0.1223526     0.095778  78.23 0.0001891314    1.017    0.016
        20  -9.7797     55.6592    223.2190   1.1959989208e+02   2.1499198507e+01    0.1392531    0.1086218  83.57 0.0002992129    1.130    0.115
        21 -11.3274    140.6246    195.7072   9.8639824634e+01   1.3872154483e+01    0.4582638    0.1966308 -58.54  0.001767559    3.009    0.668
        22  -9.7785     82.0637    195.0085   1.1136531154e+02   2.3701915285e+01     0.206877    0.1709617  58.00 0.0003619978    1.100    0.091
        23 -10.5600     58.9556    229.8541   1.1951862684e+02   1.9801053981e+01    0.1709781    0.1316204  77.90 0.0004054669    1.104    0.094
        24 -10.5029     95.5948    188.9783   1.0757949382e+02   2.2943371608e+01    0.4246418    0.3037408  81.31   0.00196626    1.501    0.334
        25 -11.0390     99.0157    181.9436   1.0578714077e+02   2.3937969097e+01    0.5935597    0.3157291 -55.50   0.00176338    1.921    0.479
        26  -8.3442    156.5019    189.5012   9.4146192846e+01   1.2174384060e+01    0.1404845    0.1294816  41.31 0.0008106121    1.020    0.020
        27  -9.4300      1.1046    187.3501   1.2759341219e+02   3.4662011925e+01    0.1036894    0.0510467 -74.42 0.0001725114    1.676    0.403
        28  -9.1838     41.5523    232.4050   1.2287880735e+02   2.1456806644e+01    0.1101369   0.08589612  69.26  7.55892e-05    1.081    0.075
        29 -10.5866    128.2876    184.4052   9.9489808202e+01   1.8384117172e+01    0.3714971    0.1304795 -58.92  0.001231624    3.662    0.727
        30 -11.6651    144.2240    179.2196   9.4987336544e+01   1.6524355171e+01    0.5418221    0.3193003 -50.57    0.0016443    1.803    0.445
        31 -10.6930    150.5344    179.0542   9.3546545147e+01   1.5361646908e+01    0.4572385    0.2895597 -69.68  0.001219006    2.308    0.567
        32 -11.4261    149.5140    188.0980   9.5412039321e+01   1.3746297909e+01    0.4267661    0.3117171  60.43  0.001233463    1.518    0.341
        33 -10.4310    189.2695    177.3153   8.4913973948e+01   8.2332169146e+00    0.4589977     0.365752 -62.67  0.002405497    1.638    0.390
        34 -10.6255    233.7270    174.4017   7.5804717724e+01   5.3904351140e-01    0.3356861    0.1513689 -24.53  0.001345557    2.640    0.621
        35  -9.3099     84.0143    173.6812   1.0807699769e+02   2.8154656043e+01    0.1852393    0.1622205  66.88  0.000322948    1.064    0.060
        36 -10.9593    139.9097    171.9254   9.4611346916e+01   1.8866494035e+01    0.4188139    0.2972977  53.44  0.001115207    1.424    0.298
        37  -9.5136     61.4882    219.9460   1.1820570895e+02   2.1394184719e+01    0.1579837    0.1041841 -66.19 0.0008423352    1.609    0.379
        38  -9.8033     55.9078    217.2020   1.1904987447e+02   2.2657137738e+01    0.2860898    0.1303156  76.77  0.001300599    2.762    0.638
        39  99.0000     49.5212    218.7423   1.2040597433e+02   2.3145620886e+01    0.3672739    0.1933587 -79.21  0.001424269    1.814    0.449
        40 -10.5639    238.7139    175.5734   7.5165934123e+01  -4.9938223279e-01    0.2479938     0.119934  37.29  0.001141529    2.097    0.523
        41  -8.5849    194.4962    172.5237   8.2874162896e+01   8.0928374074e+00    0.1437718    0.1308698   8.55 -2.449338e-05    1.023    0.023
        42 -10.8862     50.3618    224.7369   1.2071709219e+02   2.1864207220e+01    0.2101022    0.1266935  78.82 0.0008513039    1.501    0.334
        43  -9.3665    230.3015    166.3215   7.4734582189e+01   2.4314479142e+00    0.1414894     0.098497   1.24 0.0002781881    1.629    0.386
        44 -10.6675    241.4188    169.4830   7.3443544275e+01  -2.4861706248e-02    0.2715426     0.127782  43.12  0.001230805    2.240    0.554
        45 -11.5058     95.9595    151.6086   1.0151422280e+02   3.1420512189e+01    0.6005268    0.4585482 -25.68  0.002963016    1.786    0.440
        46 -10.7609    133.7403    145.1725   9.0642872854e+01   2.5947305387e+01     1.312771    0.2986151 -53.97  0.002869714    6.663    0.850
        47  -9.8824    187.7786    151.9566   7.9829155221e+01   1.3284595561e+01    0.2667072    0.2188914  43.33 0.0008425157    1.229    0.186
        48  -9.2084    113.2809    150.9469   9.6970700929e+01   2.8549469169e+01    0.2823167    0.2019672  69.12 0.0009951461    1.658    0.397
        49  -9.5947    174.4283    148.7493   8.1956481255e+01   1.6716369619e+01    0.3144277    0.2532532 -85.52 0.0008653138    1.685    0.407
        50  -9.0468    108.8308    147.1122   9.7341711009e+01   3.0252740964e+01    0.2273887    0.1909689  80.84 0.0004460576    1.268    0.211
        51  -9.6484    143.5892    145.3439   8.8278455979e+01   2.3907091597e+01    0.3073112    0.1477613 -52.61  0.001142727    2.222    0.550
        52 -10.9254    107.7544    138.4723   9.5843121335e+01   3.2485170987e+01    0.6271124    0.4333234 -44.74  0.002952066    1.486    0.327
        53  -9.0525    102.3195    133.2753   9.6186054702e+01   3.4696618114e+01    0.1846661    0.1277594  36.83 0.0002028599    1.541    0.351
        54 -10.7120    105.9605    130.8390   9.4666583128e+01   3.4620564593e+01     0.412192    0.3690183 -54.02   0.00115487    1.084    0.078
        55 -11.7084     95.8147    137.4070   9.8809692243e+01   3.4837283762e+01      0.30771    0.2687135 -71.13 0.0003066244    1.093    0.085
        56 -10.1184    135.7151    127.8260   8.6144254469e+01   2.9453163728e+01    0.5748384    0.1349478 -51.32  0.001341134    5.364    0.814
        57  -9.3064    160.8612    127.7744   8.0036840570e+01   2.4008926900e+01    0.3006507    0.2081351 -70.19  0.001232122    2.027    0.507
        58 -10.5263    102.3743    124.7400   9.4272661210e+01   3.6718833865e+01    0.3039874    0.2425192 -29.62 0.0005228065    1.444    0.307
        59 -10.0044    120.2933    123.1709   8.9018245452e+01   3.3678080021e+01    0.3745736     0.255461 -20.38  0.001534657    2.142    0.533
        60 -10.1886    114.8020    128.9521   9.1858370184e+01   3.3409780933e+01    0.3264865    0.2922848  -5.24 0.0007481513    1.311    0.237
        61  -9.4229    110.0199    118.2012   9.0596560808e+01   3.6839361766e+01    0.2409139    0.2094059 -55.07 0.0002940691    1.108    0.097
        62 -10.0446    231.2041    113.7691   6.2706853115e+01   1.1116263725e+01    0.2811653    0.2601838 -29.38 0.0008103751    1.026    0.025
        63  -9.1919    167.5599    112.3752   7.4561222953e+01   2.5689222381e+01    0.3427174    0.2451833 -74.00  0.001390387    1.980    0.495
        64 -11.1569    118.5327    110.3554   8.6249113018e+01   3.6966539006e+01    0.6280345     0.460945  73.67  0.002773725    1.826    0.452
        65  -9.6820    205.4733    110.1579   6.6266631578e+01   1.7361716600e+01    0.3269343    0.2181374  41.02  0.001110074    1.627    0.385
        66  -9.8062    134.5567    105.7715   8.0736838206e+01   3.4590422494e+01    0.3970257     0.150627 -46.40  0.001296183    2.616    0.618
        67  -9.6360     36.9083    224.5163   1.2318425261e+02   2.3504278431e+01    0.1294973    0.1172153 -29.73 0.0005475032    1.860    0.462
        68  -9.8239    184.1142    212.8437   9.2508934267e+01   3.0850463996e+00     0.198231    0.1740584  50.39  0.001232779    1.272    0.214
        69  -8.7143    154.5978     82.2260   6.9023891101e+01   3.4734473401e+01    0.2130107    0.1505874 -25.81 0.0004253063    1.553    0.356
        70  -8.9507     68.9730     71.8327   9.0577188495e+01   5.4351202907e+01    0.1923329    0.1801164 -74.93  0.000259578    1.266    0.210
        71 -10.8955     71.9144    245.3771   1.1840411557e+02   1.5257085990e+01    0.2981568    0.1594127 -73.82  0.001783168    2.015    0.504
        72  -9.1007     75.6144    247.5220   1.1791641465e+02   1.4383963727e+01    0.1129402   0.08784882  63.16  0.000181155    1.035    0.034
        73  -8.3635     84.1890    245.6057   1.1620740629e+02   1.3538903443e+01    0.1112739   0.07092237  76.72 9.648611e-05    1.600    0.375
        74 -10.6544     37.6523    211.9823   1.2215475337e+02   2.5909419757e+01    0.1516563    0.1135082  78.13 0.0002139388    1.049    0.047
        75 -19.5488     20.2414    145.5246   1.2008253148e+02   4.2433062385e+01     19.36278     4.662633 -75.18   0.06627806    3.909    0.744
