#   1 NUMBER                 Running object number                                     
#   2 MAG_AUTO               Kron-like elliptical aperture magnitude                    [mag]
#   3 X_IMAGE                Object position along x                                    [pixel]
#   4 Y_IMAGE                Object position along y                                    [pixel]
#   5 X_WORLD                Barycenter position along world x axis                     [deg]
#   6 Y_WORLD                Barycenter position along world y axis                     [deg]
#   7 A_WORLD                Profile RMS along major axis (world units)                 [deg]
#   8 B_WORLD                Profile RMS along minor axis (world units)                 [deg]
#   9 THETA_WORLD            Position angle (CCW/world-x)                               [deg]
#  10 FWHM_WORLD             FWHM assuming a gaussian core                              [deg]
#  11 ELONGATION             A_IMAGE/B_IMAGE                                           
#  12 ELLIPTICITY            1 - B_IMAGE/A_IMAGE                                       
         1 -14.8228    213.3937      6.1214   4.1604809890e+01   3.0465836567e+01     2.941298     1.822659  45.97   0.01082011    1.886    0.470
         2 -13.7574    193.9931     30.9921   5.1006234901e+01   3.2680714885e+01    0.8201209    0.7858319  62.36  0.001120418    1.087    0.080
         3 -13.9598    174.5485     51.0528   6.0365803467e+01   3.5027558721e+01     1.945795     1.357631  24.79  0.005460079    1.811    0.448
         4 -12.5487     43.9358     13.4188   8.2392014903e+01   6.9430664962e+01    0.5934989    0.2653387  19.16  0.002112992    4.547    0.780
         5 -14.1641    188.9918     37.1499   5.3607052952e+01   3.3201755019e+01       1.0699    0.9888086 -15.26  0.003879928    1.129    0.114
         6 -12.1826     58.6476      3.3528   7.0166732760e+01   6.8450586893e+01     0.434993    0.1936498  33.09  0.001939353    2.461    0.594
         7 -11.3694     97.3563    192.8923   1.1117648911e+02   2.2759657132e+01    0.3205921    0.2541101 -20.90  0.001747895    2.070    0.517
         8 -11.6931    248.1819    248.8911   9.1606404967e+01  -8.2134596151e+00    0.3334364    0.1698499  32.02  0.002219331    1.486    0.327
         9 -18.4524     41.2324    245.4838   1.2585191836e+02   2.0673320487e+01     6.478523     4.504301  32.60   0.04872379    1.831    0.454
        10 -19.2855     16.8067     99.1694   1.1937349766e+02   5.3576450664e+01     18.42258     1.826159 -72.16    0.0400333    9.354    0.893
        11  -9.4802     27.3493    192.4247   1.2532356942e+02   3.1737664854e+01    0.1323159   0.08383594  56.91 0.0002615905    1.285    0.222
        12 -11.1039    141.8608    189.5552   1.0151103449e+02   1.6129487856e+01    0.2483572    0.1789231 -79.43  0.001336383    1.889    0.471
        13  -9.1038     52.9280    188.2798   1.1989656219e+02   2.9731323040e+01    0.1515234    0.1368456  -7.82 0.0005759654    1.765    0.434
        14 -11.2286    153.7815    185.2198   9.8383639405e+01   1.4800140958e+01    0.3367854    0.2257316 -77.33  0.001312457    2.452    0.592
        15 -10.6067    161.3040    200.0645   9.9262337390e+01   1.0998464151e+01    0.1658453    0.1573694  48.89 0.0004661285    1.135    0.119
        16 -10.1269     60.8110    186.6422   1.1811548973e+02   2.9092751754e+01    0.2504478    0.1727036  32.36  0.000618458    1.702    0.413
        17 -11.2676     80.6221    194.7028   1.1483036387e+02   2.4837019247e+01    0.4107171    0.2119406  48.19    0.0016629    1.654    0.395
        18 -12.5767    147.5121    184.4788   9.9545721620e+01   1.6046137504e+01    0.5408978    0.3186296 -68.50  0.002446533    2.652    0.623
        19 -11.2631     99.2984    180.8768   1.0924109658e+02   2.4841461561e+01    0.2509311    0.2278221  43.56 0.0006685438    1.214    0.176
        20 -11.0084    204.6009    176.2185   8.6831465800e+01   7.0324429580e+00    0.3499385    0.2965716 -48.03  0.001263503    1.478    0.323
        21 -12.1981    152.1399    197.1481   1.0060951473e+02   1.3046433260e+01    0.3562616    0.2704469 -48.66  0.002148858    1.523    0.343
        22 -10.1923    197.2050    176.6838   8.8300987494e+01   8.3059813580e+00    0.2593158    0.2185283  33.66  0.001350447    1.110    0.099
        23 -12.3389    134.7764    198.3950   1.0425352259e+02   1.5771086588e+01    0.2763603    0.2610869 -68.52  0.001227913    1.208    0.172
        24 -12.7506    129.9284    198.1102   1.0518810257e+02   1.6624726368e+01    0.4832404    0.3034867  89.02  0.002319819    2.620    0.618
        25 -10.0992    162.0668    167.0478   9.3447515136e+01   1.6520514216e+01    0.2074308      0.19332  48.95 0.0004677039    1.072    0.067
        26  -9.8720    188.4406    175.2449   8.9700401865e+01   1.0144501727e+01    0.1750718    0.1290809 -49.49 0.0007402656    1.632    0.387
        27  -9.8123    236.6863    158.2972   7.7551838899e+01   3.8522707301e+00    0.1168996    0.1059873 -61.27 0.0002000909    1.603    0.376
        28  -9.6539    185.3372    155.2839   8.6320661524e+01   1.4075559044e+01    0.1449534    0.1055604  12.52 0.0003939009    1.626    0.385
        29 -12.5400    203.0726    199.1503   9.1277997356e+01   4.0048533327e+00    0.4771647    0.2958127  31.88  0.002697604    1.413    0.292
        30  -9.9115    113.1081    150.9822   1.0142191834e+02   2.8854656657e+01    0.2953687    0.1843705 -76.30  0.001286269    2.060    0.515
        31 -11.7115    133.9166    145.6194   9.5464390155e+01   2.6159428368e+01     1.244279     0.316537 -54.84  0.003113346    5.900    0.831
        32 -10.7305    174.4622    148.8516   8.7169208656e+01   1.7410015132e+01    0.3544595    0.2637053 -63.03   0.00160014    1.742    0.426
        33 -11.5680    144.3090    147.2043   9.3392513487e+01   2.3802903526e+01    0.5014607    0.2671492 -61.67  0.001955082    2.584    0.613
        34  -9.4513    119.2815    148.1164   9.9416325584e+01   2.8371519325e+01    0.2979623    0.1176703 -47.85  0.001110718    2.649    0.623
        35 -11.7935    108.2451    138.9240   1.0035071678e+02   3.2380634319e+01    0.5979852    0.3386156 -36.68  0.002470536    2.429    0.588
        36  -9.5846    112.6590    141.3503   9.9725094464e+01   3.1052038545e+01    0.2603082    0.1299553  51.27  0.000641145    2.107    0.525
        37 -12.5679     96.5455    138.4063   1.0321144643e+02   3.4502135609e+01    0.2895668    0.2594738  80.97 0.0003038194    1.051    0.048
        38 -11.4768    105.9567    130.8727   9.9323068292e+01   3.4611108475e+01    0.3839492    0.3231566 -82.49  0.001138468    1.208    0.172
        39 -11.2573    103.1226    125.3120   9.8901871142e+01   3.6389819418e+01    0.3082959    0.2618074 -24.83  0.001234656    1.452    0.311
        40 -11.1398    135.7603    127.6332   9.1124976107e+01   2.9618497199e+01    0.6355496    0.1786792 -50.03  0.001848475    3.806    0.737
        41 -10.1390    160.4995    127.8277   8.5406319764e+01   2.4368650032e+01    0.2971899    0.2478625 -89.73    0.0014737    1.498    0.333
        42 -10.9421    120.4456    123.1896   9.3916784351e+01   3.3650003988e+01    0.4796104    0.2987444 -20.52  0.001765916    3.025    0.669
        43 -11.0256    115.3035    129.5299   9.6641507905e+01   3.3210521514e+01    0.3166181    0.2687352 -26.88  0.000690293    1.405    0.288
        44  -9.4685    152.6909    119.9987   8.5269969962e+01   2.7642852659e+01    0.2127127    0.1946883 -37.03 0.0004575888    1.092    0.084
        45 -10.1269    110.4060    118.7683   9.5518120026e+01   3.6566603484e+01    0.2377617    0.2018386  49.70 0.0003923268    1.205    0.170
        46 -11.6088     64.3853    114.1563   1.0743969403e+02   4.5078612333e+01    0.2881584    0.2593423  45.11 0.0005839865    1.245    0.197
        47 -10.2886    167.9825    112.9554   8.0035217518e+01   2.5642683533e+01     0.387455    0.2839632 -71.88  0.001399784    1.890    0.471
        48 -10.3676    135.0000    112.5238   8.7635747070e+01   3.3028584280e+01    0.3426901   0.08605798 -45.25 0.0009320033    3.913    0.744
        49 -11.7292    119.2492    110.1712   9.1090061793e+01   3.6798398563e+01    0.5586431    0.4292043  64.79  0.002532582    1.472    0.321
        50 -10.2244    205.6084    110.0920   7.1795947845e+01   1.7617651855e+01    0.2673645    0.2154475  37.41 0.0006277091    1.282    0.220
        51 -10.0293    134.5573    105.2815   8.5849036987e+01   3.4678488848e+01    0.3870072    0.1489076 -42.22  0.001296389    2.585    0.613
        52  -8.9705    167.2928     94.6637   7.5201330597e+01   2.9327399526e+01    0.1602481    0.1226673 -69.21 0.0007025806    1.643    0.391
        53 -12.0448     96.8296    200.5607   1.1218051516e+02   2.1377302883e+01    0.3525376    0.3265999 -13.19  0.001192899    1.538    0.350
        54 -10.3873    187.5842     87.3670   6.9006758659e+01   2.5755831061e+01    0.3612839    0.2823914  88.14   0.00167955    1.643    0.392
        55 -12.4313    164.2493     64.9408   6.6825539912e+01   3.5462750500e+01    0.7261447    0.5653586 -46.20 0.0006147407    1.288    0.224
        56 -12.1215    193.9552    196.2996   9.2453289150e+01   5.9527055463e+00     1.153201    0.6208503 -58.37  0.004682748    4.068    0.754
        57 -11.3979    158.6116    235.6159   1.0468062205e+02   6.1796805924e+00    0.2676978    0.1923733  23.60  0.001176127    1.439    0.305
        58  -9.0594     93.4650     62.3823   8.4380708808e+01   5.2288266269e+01    0.1438581    0.1371836 -44.83 0.0001367748    1.077    0.071
        59 -11.0365     71.7110    230.8520   1.1976934512e+02   1.9440427012e+01    0.2391575    0.1399555  64.02 0.0007140912    1.454    0.312
        60 -10.3253     87.5282    203.2623   1.1433586571e+02   2.2221285475e+01    0.2321541    0.1965633 -71.75 0.0009921585    1.323    0.244
        61  -9.9725      1.4502    210.4117   1.3093358231e+02   3.0750424732e+01    0.1048512   0.06908645  69.09 0.0001450709    1.042    0.041
