#   1 NUMBER                 Running object number                                     
#   2 MAG_AUTO               Kron-like elliptical aperture magnitude                    [mag]
#   3 X_IMAGE                Object position along x                                    [pixel]
#   4 Y_IMAGE                Object position along y                                    [pixel]
#   5 X_WORLD                Barycenter position along world x axis                     [deg]
#   6 Y_WORLD                Barycenter position along world y axis                     [deg]
#   7 A_WORLD                Profile RMS along major axis (world units)                 [deg]
#   8 B_WORLD                Profile RMS along minor axis (world units)                 [deg]
#   9 THETA_WORLD            Position angle (CCW/world-x)                               [deg]
#  10 FWHM_WORLD             FWHM assuming a gaussian core                              [deg]
#  11 ELONGATION             A_IMAGE/B_IMAGE                                           
#  12 ELLIPTICITY            1 - B_IMAGE/A_IMAGE                                       
         1 -14.4447    221.6661      5.0393   3.8273168487e+01   2.8959752472e+01     2.533429     1.410919  49.49  0.008055557    2.149    0.535
         2 -14.0672    192.2746     38.5030   5.0455065127e+01   3.2275538375e+01     1.147507    0.9760595 -59.21  0.003382577    1.151    0.131
         3 -14.3008    199.2915     30.9036   4.7358615696e+01   3.1486219304e+01     1.201569     1.082908  15.14   0.00139827    1.338    0.253
         4  -9.6771     79.0447     14.7684   6.6557347294e+01   6.2167600369e+01    0.1645005    0.1011638  46.96 0.0003041703    1.588    0.370
         5 -14.0198    180.0099     49.3624   5.5563027014e+01   3.3884830036e+01     1.776527     1.333603  24.92 0.0008925229    1.665    0.400
         6 -11.2828     60.5932    233.0856   1.2062225636e+02   1.9041586993e+01    0.1939732    0.1314532  60.96 0.0004734654    1.148    0.129
         7 -16.9619     70.3019    145.9403   1.0862851264e+02   3.6576090408e+01     15.48388     7.570379  79.17   0.03435731    4.898    0.796
         8  -9.7311    164.3021    210.3164   9.7557902482e+01   6.9908882092e+00    0.1306202    0.0991293   7.79 0.0002862356    1.619    0.382
         9 -10.3324     29.4584    218.2343   1.2519139725e+02   2.5576744915e+01    0.2341709    0.1161241 -56.28  0.001095543    2.635    0.620
        10 -12.6759    202.9955    198.8255   8.7895448900e+01   2.0249577798e+00    0.7260781    0.3436417  25.65  0.002901623    2.765    0.638
        11  -9.3966     49.4458    217.1604   1.2143112734e+02   2.3483569691e+01     0.260281    0.1816562  16.07  0.001508673    2.551    0.608
        12  -9.6013     57.2164    210.4171   1.1937623008e+02   2.3864325340e+01    0.3440439    0.1385542 -66.83  0.001699094    2.387    0.581
        13 -13.4071     32.1124    206.5795   1.2391423464e+02   2.7612965736e+01    0.3588396    0.1660236  57.04  0.001650358    1.844    0.458
        14  -9.3735    161.4506    200.0247   9.6449534021e+01   9.3088150946e+00    0.1836598    0.1360759 -47.69 0.0003702519    1.512    0.339
        15 -12.3208     28.4559    196.6008   1.2389577702e+02   3.0068851990e+01    0.1977884    0.1492953  76.36 0.0006697035    1.023    0.022
        16 -10.9048    151.4824    195.8415   9.7835804673e+01   1.1892406125e+01    0.2663549    0.1782571  41.81 0.0006783397    1.350    0.259
        17 -10.1512     82.0710    195.2397   1.1270270518e+02   2.3626526019e+01     0.221053    0.2007429 -85.39 0.0008266082    1.170    0.145
        18 -10.6992     58.7895    192.6178   1.1736479186e+02   2.7385586307e+01    0.2167918    0.1186375  49.32 0.0006671672    1.647    0.393
        19 -13.4711     64.0755    188.1582   1.1576282062e+02   2.7665196036e+01    0.8099133    0.6817121 -43.39  0.004643378    1.603    0.376
        20 -11.7887    193.5512    195.7449   8.9173380577e+01   4.2101771515e+00     1.032861    0.5825325 -64.61  0.003568062    4.785    0.791
        21 -10.0759     36.8829    224.4032   1.2425959721e+02   2.3556422425e+01    0.1243395    0.1002668  36.96 0.0004278609    1.586    0.370
        22 -10.6743     95.4129    189.4290   1.0905725291e+02   2.2845754318e+01    0.3705851      0.25804  32.92  0.001075884    1.598    0.374
        23 -13.4918     54.9110    200.6811   1.1895270637e+02   2.6162547962e+01    0.4444523    0.3478874 -82.59  0.001404643    1.193    0.162
        24 -10.4312     43.8298    210.6227   1.2198409272e+02   2.5462398988e+01    0.2525712    0.1638985 -80.41  0.001042661    1.393    0.282
        25  -9.8470    153.4055    184.2296   9.5405161878e+01   1.3770289008e+01     0.190465    0.1366706 -62.57 0.0009460628    1.663    0.399
        26 -19.1596      4.7053    104.7235   1.2078122118e+02   5.2915087501e+01     16.43836    0.8648778 -72.05   0.02956053   14.448    0.931
        27 -11.3355     99.3527    180.7516   1.0694290336e+02   2.4102599966e+01    0.2752731    0.2366399  35.73 0.0005988952    1.286    0.222
        28 -10.4861    204.4273    175.9379   8.3177601750e+01   5.5356029670e+00    0.3152821    0.2632923 -39.86 0.0008722796    1.294    0.227
        29 -10.2978    196.7488    175.9502   8.4704178539e+01   6.9960281628e+00    0.2901449    0.2778624  21.83  0.001733498    1.112    0.101
        30  -9.8905     37.5179    176.5297   1.2033732060e+02   3.3454347474e+01    0.3023426    0.1367885  53.57  0.001507568    2.111    0.526
        31 -10.2063    188.4442    174.7941   8.6156195123e+01   8.8062037937e+00    0.2940429    0.2126449 -58.64  0.001070648    1.794    0.443
        32 -10.4733     58.0340    175.9712   1.1572360437e+02   3.1163152755e+01    0.2919897    0.1816674  56.93 0.0005148671    1.520    0.342
        33  -9.8513     53.9034    174.0000   1.1643242969e+02   3.2126626341e+01    0.2140056    0.1303439  47.90 0.0008540652    1.577    0.366
        34 -10.7774     46.3557    173.1067   1.1803696894e+02   3.3232137997e+01    0.3368493     0.239305  33.44  0.002019553    1.649    0.394
        35  -7.4286     41.5689    206.0278   1.2205853873e+02   2.6661882790e+01    0.2512942    0.2107844 -42.90  0.001606656    1.815    0.449
        36 -10.5877    229.8312    165.8699   7.6284647695e+01   2.4714663096e+00    0.1796301    0.1645891 -44.90 0.0006029757    1.326    0.246
        37  -9.7044    186.5377    164.9139   8.4508562288e+01   1.1007726969e+01    0.2175952      0.14237 -39.81 0.0006265332    1.561    0.359
        38  -9.7996    160.3777    164.1745   9.0005529717e+01   1.6428890588e+01    0.2104782    0.1393927 -58.15 0.0007468188    1.770    0.435
        39 -17.8707     22.7268    243.0477   1.2774434684e+02   2.1681655273e+01     5.565594     3.312285  45.43   0.03997351    1.520    0.342
        40 -11.6192    133.9462    145.5180   9.2263683646e+01   2.5761822617e+01     1.233369    0.3321398 -55.36  0.002976398    5.593    0.821
        41 -10.1189     63.5611    209.9325   1.1808248050e+02   2.3141553447e+01    0.2671467    0.1948567   9.68  0.001398328    2.542    0.607
        42 -10.6609    174.3342    148.7101   8.3577969394e+01   1.6684880485e+01    0.3479525    0.2814166 -73.23  0.001193373    1.576    0.366
        43 -10.8492    144.0713    146.0812   8.9932337464e+01   2.3585808514e+01    0.4418526    0.2209052 -61.80  0.001518735    2.901    0.655
        44  -9.4066    108.8816    147.1014   9.8869450960e+01   3.0155425673e+01    0.2221409    0.1844826  79.83 0.0003048248    1.280    0.218
        45 -11.4799     67.1434    204.9338   1.1688062710e+02   2.3687758705e+01    0.3712224    0.2176094 -49.80   0.00113925    2.254    0.556
        46 -11.4810    106.8654    138.7725   9.7705231476e+01   3.2474548103e+01    0.5229207    0.4497105 -24.49  0.002739997    1.393    0.282
        47 -12.3990     94.0863    138.7455   1.0107297439e+02   3.4688209470e+01     0.283003    0.2678236 -41.85 0.0004376241    1.164    0.141
        48 -11.3546    135.8638    127.8370   8.7744761604e+01   2.9349579747e+01    0.8430958    0.2106911 -50.59  0.002159871    4.503    0.778
        49 -11.1244    105.9318    130.7074   9.6231814446e+01   3.4550581893e+01    0.3847739    0.3200048 -64.63  0.001209304    1.172    0.147
        50 -11.0862    114.1778    129.7360   9.3812282931e+01   3.3251058768e+01    0.3682189    0.3154749  22.61 0.0009206063    1.339    0.253
        51 -10.0808    160.8129    128.0867   8.1758381848e+01   2.3894144196e+01    0.3392544    0.2178485 -55.01  0.001421832    1.734    0.423
        52 -11.4454    119.8095    123.9863   9.0975497168e+01   3.3498952350e+01    0.5698069    0.3065309 -34.80  0.002132303    2.360    0.576
        53 -11.1659    101.4503    125.6436   9.6327730438e+01   3.6555172521e+01    0.2797234    0.2378064 -24.04 0.0004312995    1.383    0.277
        54 -10.6030     72.2475    202.4932   1.1558529458e+02   2.3497802099e+01    0.3674606    0.2169174  81.45  0.001913231    1.825    0.452
        55 -10.2594    109.6135    118.8199   9.2490651283e+01   3.6671167669e+01    0.2463607    0.2366329  56.59 0.0003876782    1.079    0.073
        56 -10.0302    167.4436    112.3779   7.6217762144e+01   2.5662439811e+01    0.3377037    0.2590354 -78.36   0.00138955    1.741    0.426
        57 -10.1802    134.6668    106.4861   8.2572652908e+01   3.4352993343e+01    0.3959783    0.1478335 -44.64  0.001289117    2.617    0.618
        58 -11.5118    118.5284    110.4994   8.7949395633e+01   3.6852096909e+01    0.6401169    0.4021138  59.52  0.002646537    1.982    0.495
        59 -10.2360    205.4412    110.1971   6.7831071429e+01   1.7266408260e+01     0.323676    0.2164586  41.74 0.0009833146    1.600    0.375
        60 -10.4881     64.6219     99.9708   1.0132266546e+02   4.8450363375e+01    0.3287761    0.2053185  32.71  0.001326239    1.810    0.447
        61  -9.3698     72.1891    231.5475   1.1837662827e+02   1.7796648997e+01    0.1172118   0.06953202  78.51 0.0003598721    1.703    0.413
        62 -12.3195     52.6268     91.0064   1.0311864563e+02   5.2060353299e+01     0.549248    0.2439697 -57.00  0.002319702    1.914    0.478
        63 -10.9128     37.4755    211.1727   1.2323158889e+02   2.6086134773e+01    0.1494622    0.1109179  75.59   0.00029386    1.028    0.027
        64  -9.2106    220.4742    228.4579   8.9812299544e+01  -5.1124887962e+00    0.1949626    0.1119457 -46.43  0.001032584    2.484    0.597
        65  -9.2586    155.5376     81.4786   7.0217133619e+01   3.4637467877e+01     0.155966    0.1529289  -7.10  7.65016e-05    1.027    0.027
        66  -9.0218    184.3624     77.2940   6.2942401710e+01   2.8267766779e+01    0.1602098     0.119755  22.65 0.0007030299    1.706    0.414
        67  -9.9234     66.0041     70.7646   9.3011691070e+01   5.4872201845e+01    0.2852639    0.1784378  41.98  0.001411078    1.845    0.458
        68 -11.2547    248.7761    249.1288   8.8262097014e+01  -1.1583275818e+01      0.33418    0.1676537  23.98  0.001982106    1.699    0.411
        69 -11.2807    158.5209    237.6172   1.0271260688e+02   3.5502319312e+00    0.3734879    0.2228427 -55.18   0.00209334    2.181    0.542
        70 -10.1091    168.9974    235.8332   1.0048515639e+02   2.1129520432e+00     0.177288    0.1664745  17.67 0.0004043989    1.169    0.144
        71 -11.0837    156.8208     59.0912   6.3001922493e+01   3.8281761142e+01    0.3395963    0.2702437 -85.57 0.0006232028    1.521    0.342
        72 -10.7599    159.2496     53.0120   6.0562729756e+01   3.8637505291e+01    0.2727922    0.2191936  58.97 0.0002293336    1.225    0.184
        73  -9.9527     56.9337    224.9755   1.2065236752e+02   2.1033453481e+01    0.1194745   0.09148037  79.10  0.000823691    1.100    0.091
        74 -10.8800    189.6779     14.9146   4.4096693976e+01   3.5787833454e+01    0.2629521    0.1911515  82.04  0.000675772    1.301    0.231
        75  -9.9427     43.4733    236.4989   1.2389425547e+02   2.0526752744e+01    0.1099683   0.08376816  69.46 0.0008091863    1.067    0.063
