#   1 NUMBER                 Running object number                                     
#   2 MAG_AUTO               Kron-like elliptical aperture magnitude                    [mag]
#   3 X_IMAGE                Object position along x                                    [pixel]
#   4 Y_IMAGE                Object position along y                                    [pixel]
#   5 X_WORLD                Barycenter position along world x axis                     [deg]
#   6 Y_WORLD                Barycenter position along world y axis                     [deg]
#   7 A_WORLD                Profile RMS along major axis (world units)                 [deg]
#   8 B_WORLD                Profile RMS along minor axis (world units)                 [deg]
#   9 THETA_WORLD            Position angle (CCW/world-x)                               [deg]
#  10 FWHM_WORLD             FWHM assuming a gaussian core                              [deg]
#  11 ELONGATION             A_IMAGE/B_IMAGE                                           
#  12 ELLIPTICITY            1 - B_IMAGE/A_IMAGE                                       
         1 -11.8971    212.6518     24.5709   3.9397647574e+01   2.9228983772e+01     1.024816    0.7587665  23.65  0.005611097    1.974    0.493
         2  -7.2915    246.4747      9.4790   3.3079184563e+01   2.3482258378e+01    0.1181425   0.09750913 -69.35 0.0008094555    1.039    0.038
         3 -11.8825    199.6703     37.4212   4.4152888505e+01   3.0724904041e+01    0.9326209    0.8790222 -62.33  0.005787016    1.074    0.069
         4  -7.7951     27.4965      6.0071   7.8308163642e+01   7.1037535438e+01    0.1644509   0.08030172 -14.25 0.0005574619    2.344    0.573
         5  -9.7467    237.1069      2.0930   3.2204886001e+01   2.6226967869e+01    0.5673447    0.1970883  76.23  0.002568614    2.732    0.634
         6  -8.4122    212.5210    236.6285   8.6946990405e+01  -5.0059043060e+00    0.2067603    0.1650577  11.16 0.0003963007    1.027    0.026
         7 -14.5601      3.0299    203.8058   1.2604588571e+02   3.0416519090e+01     1.055913    0.3364525 -68.54  0.005212637    2.659    0.624
         8 -18.0788     11.6138    236.6408   1.2617497438e+02   2.3121616887e+01     2.833049     1.908697 -89.66   0.02094603    1.277    0.217
         9  -7.6141    250.5606    230.5406   7.9027693262e+01  -9.4947787102e+00      0.11928   0.08985434   2.08  7.40094e-05    1.022    0.022
        10  -8.9589    156.3152    229.8893   9.7005942924e+01   4.7701856301e+00    0.1919794    0.1666722  82.56  0.001186597    1.540    0.351
        11  -7.9063    108.3112    229.6348   1.0694006121e+02   1.2388367205e+01    0.1338184   0.08705006  66.15 0.0007038938    1.758    0.431
        12  -8.4338     73.6147    227.0146   1.1378942913e+02   1.7856260029e+01     0.222297    0.1349741  54.95 0.0003971409    1.447    0.309
        13  -9.8864    112.1880    224.2179   1.0546149682e+02   1.2821138957e+01    0.4364208    0.2136752  34.97  0.001199225    1.892    0.471
        14  -7.6318    178.3074    223.6885   9.1531725771e+01   2.2259797219e+00    0.1220276    0.1008037  60.75 0.0004267922    1.620    0.383
        15  -8.6619     72.9903    221.8157   1.1340666700e+02   1.8975336177e+01    0.2915305    0.1292202 -55.83 0.0009964154    2.500    0.600
        16  -8.5096     93.6564    221.2664   1.0902458822e+02   1.6184733511e+01    0.2095968    0.1656084 -54.06  0.001284666    1.462    0.316
        17  -7.7336    211.4867    219.4794   8.4233826745e+01  -2.4069350933e+00    0.1284542    0.1077886  11.54 3.117688e-05    1.068    0.064
        18 -14.9360     41.0090    247.5578   1.2162881326e+02   1.7991213547e+01    0.9484019    0.3796787  42.19  0.005289658    1.984    0.496
        19  -8.0566    199.3210    213.3841   8.5537247589e+01   4.5888465679e-01    0.2184873    0.1665041   9.29 0.0006507418    1.215    0.177
        20  -8.1801     98.8239    214.1738   1.0706320724e+02   1.6840926926e+01    0.1819695    0.1735494 -24.51 0.0003409933    1.286    0.222
        21  -7.9019    101.4022    210.8020   1.0606938165e+02   1.7137395909e+01    0.1790981    0.1660081 -71.69 0.0004012732    1.173    0.147
        22 -14.8898     39.3612    239.1082   1.2137958410e+02   1.9745285388e+01     1.151122     0.466774  25.04  0.004900336    4.231    0.764
        23  -8.8660     75.1458    213.3675   1.1207974035e+02   2.0412666581e+01    0.4300592    0.2028695  35.33  0.001768487    2.039    0.510
        24  -8.2050     74.5079    209.8956   1.1184064814e+02   2.1226625313e+01    0.2822948    0.1793178  60.06  0.001549419    1.505    0.336
        25  -9.4005    231.2699    212.7036   7.9295359104e+01  -4.4230946086e+00    0.2340322    0.1918136  12.04  0.000519218    1.111    0.100
        26  -7.9829    189.1540    210.1849   8.7018635317e+01   2.6556008294e+00    0.1688032    0.1558501  42.32 0.0003834626    1.299    0.230
        27  -8.0893    200.8522    208.9691   8.4440058354e+01   9.1414084791e-01    0.2027202    0.1567073   4.56 0.0004184124    1.215    0.177
        28  -8.2202     69.7752    209.0203   1.1276892123e+02   2.2049470350e+01    0.2100619     0.161893  49.14 0.0005706077    1.182    0.154
        29  -7.4636    114.6749    207.2927   1.0264686043e+02   1.5770922356e+01    0.1388383   0.09655309  64.23 0.0002473457    1.618    0.382
        30  -7.2147    128.6746    206.7021   9.9436128264e+01   1.3593113967e+01    0.1340093     0.105685   0.17 0.0003210654    1.630    0.386
        31  -8.1983     80.8185    205.9779   1.1001593612e+02   2.1181380943e+01    0.1744623    0.1688463 -74.95 0.0003961718    1.202    0.168
        32  -9.6396     63.2053    203.8659   1.1365149937e+02   2.4013037472e+01     0.336397    0.2449553 -78.91 0.0008468767    1.320    0.242
        33  -8.3463    201.1438    204.3132   8.3529216227e+01   1.6214061497e+00     0.212762    0.1651571 -15.50 0.0003618865    1.251    0.201
        34  -7.5193    121.8336    204.0955   1.0057315882e+02   1.5255052889e+01    0.1725038    0.1545969   6.95            0    1.267    0.211
        35  -8.6277    194.3243    198.4010   8.3805693140e+01   3.7670942097e+00    0.3131168    0.2407752 -73.21  0.001557352    2.311    0.567
        36 -14.6097     34.9731    234.2504   1.2186684145e+02   2.1160670895e+01    0.6281366    0.4955074   7.57  0.003209377    2.107    0.525
        37  -8.0015     90.1727    196.8490   1.0676092687e+02   2.1794902896e+01    0.2060072    0.1669073  66.90 0.0006826189    1.185    0.156
        38  -7.8509     74.5092    237.0034   1.1454941254e+02   1.5811321253e+01    0.1604411    0.1117719 -74.08 0.0005311333    1.525    0.344
        39 -10.2090    152.0812    194.9589   9.2253494488e+01   1.1874026415e+01     0.245033    0.2287468  12.43  0.001438843    1.052    0.049
        40  -7.5662    115.1880    192.2021   1.0026770938e+02   1.8850515236e+01    0.1848762    0.1528669  72.07 0.0002855379    1.301    0.232
        41  -9.3321     74.8737    190.3436   1.0946155387e+02   2.5442754434e+01    0.2865143     0.201699 -82.81 0.0005497026    1.446    0.309
        42  -7.1461    171.4976    191.5173   8.7329321479e+01   9.0445341059e+00    0.1422886    0.1297873  18.67 0.0008103368    1.022    0.022
        43  -7.2183    135.9718    190.7536   9.5187043996e+01   1.5586816279e+01    0.1846313    0.1146037  37.53  0.000860755    1.510    0.338
        44  -7.9924     82.6980    185.9869   1.0704228510e+02   2.5319372006e+01    0.2481973    0.1495793  51.84 0.0007007284    1.634    0.388
        45  -7.9395    118.3038    183.7660   9.8154932630e+01   2.0158973928e+01    0.3594138    0.1752906  27.68  0.001376464    2.550    0.608
        46  -7.9052     78.1803    182.7856   1.0768691836e+02   2.6700204442e+01    0.1777339    0.1549543 -43.35 0.0005127267    1.333    0.250
        47  -8.4321     50.6936    180.5761   1.1397095124e+02   3.0779383144e+01     0.220596    0.1359106 -61.73 0.0005408052    1.550    0.355
        48 -10.3885    118.5652    237.1188   1.0573429268e+02   9.4662078441e+00     0.353479    0.2506058  41.84  0.002134613    1.183    0.155
        49  -8.0488    147.2206    180.3769   9.0693869276e+01   1.5714410606e+01    0.2051038    0.1305583  46.43 0.0008429511    1.566    0.362
        50  -9.4676    135.5671    233.1088   1.0173905920e+02   7.5350619726e+00    0.3137143    0.1138787  47.43  0.001241064    2.769    0.639
        51  -7.5300    109.4757    178.5933   9.9423603367e+01   2.2807500819e+01    0.1413463    0.1332185  55.84 3.009632e-05    1.017    0.017
        52  -8.0499     60.9304    176.0718   1.1098319799e+02   3.0580064704e+01    0.1978433    0.1774734 -83.98 0.0004443956    1.060    0.057
        53  -7.8970     54.1062    174.3450   1.1243013768e+02   3.1827812483e+01    0.2305899    0.1677409 -59.09 0.0009185634    1.364    0.267
        54  -9.6363    175.3878    172.4586   8.2709282508e+01   1.1995555403e+01    0.3513036    0.3099062  19.64 0.0007301232    1.076    0.071
        55  -7.8707    117.7274    174.0258   9.6602906987e+01   2.2427492183e+01    0.2725827    0.1693121  49.66  0.000948107    1.646    0.393
        56  -7.5106    100.7724    174.0685   1.0081979259e+02   2.5277064611e+01    0.1779537    0.1168469 -61.41 0.0003051891    1.550    0.355
        57  -7.1717    111.6933    168.3100   9.7078123167e+01   2.4778476750e+01    0.1492074    0.1120368  73.50 0.0003588015    1.615    0.381
        58  -9.2351     36.9298    171.1842   1.1621988888e+02   3.4492617803e+01     0.251349    0.2187361 -51.77  0.001290436    1.327    0.247
        59  -9.6290     99.8922    232.9470   1.0905558559e+02   1.3020672219e+01    0.3029096    0.1736569 -68.04   0.00162809    2.037    0.509
        60  -9.7574     85.2158    165.4779   1.0335640682e+02   2.9731768837e+01    0.6192796    0.1982544  43.20  0.002147816    3.075    0.675
        61  -8.8579     88.8894    165.1558   1.0235605112e+02   2.9249501047e+01    0.2143296    0.1996446 -88.58 0.0002688929    1.021    0.020
        62  -8.9464     81.0201    164.0852   1.0421670704e+02   3.0687618695e+01    0.2566387    0.1893045 -64.80 0.0005029254    1.303    0.233
        63  -7.7857     78.9760    160.4516   1.0416556664e+02   3.1859255556e+01    0.2577874    0.1440741  72.39 0.0007958841    2.851    0.649
        64  -8.0762     42.8096    164.1653   1.1399604065e+02   3.5532152362e+01    0.3266802    0.1664218 -48.98  0.001143733    2.155    0.536
        65  -8.0851     57.3391    163.6958   1.1026288391e+02   3.3969601579e+01    0.4104852    0.2712807 -21.40  0.001928202    2.481    0.597
        66  -8.0105     28.5113    162.0179   1.1730015934e+02   3.7485499474e+01    0.1926896    0.1080523 -77.55  0.001010679    1.552    0.356
        67  -9.6027     68.3814    159.7067   1.0683030075e+02   3.3516940138e+01    0.3669959    0.2721038 -65.11  0.001114657    1.257    0.204
        68 -10.2828     88.0279    157.4253   1.0126507124e+02   3.1234405147e+01    0.5956593    0.4722311 -19.77   0.00211681    1.632    0.387
        69  -7.4955    171.9604    159.0722   8.0622196900e+01   1.5347673413e+01    0.1803275    0.1697255  11.86 0.0004057327    1.021    0.020
        70  -8.0192     50.6689    157.5750   1.1115871424e+02   3.6241378500e+01    0.2105404    0.1347558  25.15 0.0007096001    1.852    0.460
        71  -8.4761     32.0575    155.8085   1.1573658732e+02   3.8630012789e+01    0.2623288    0.2105577 -19.50   0.00158784    1.689    0.408
        72  -9.8991     53.8440    153.2935   1.0972899892e+02   3.6912333178e+01    0.3690597    0.2944205  45.29  0.002141703    1.315    0.240
        73 -10.4792    124.4621    230.8092   1.0373317725e+02   9.6887562856e+00    0.2980852     0.256597 -88.28  0.001893869    1.351    0.260
        74  -8.0190     98.8067    153.2348   9.7625688954e+01   3.0514690325e+01    0.1954033    0.1705097 -22.27 0.0003668835    1.319    0.242
        75 -11.0649     68.5850    144.5841   1.0433382135e+02   3.7188216543e+01    0.7858629    0.4645698  61.85  0.003457655    2.166    0.538
        76  -8.9114     86.2020    144.6194   9.9423843090e+01   3.4627005878e+01    0.4158768    0.2411329 -35.28  0.001717716    2.227    0.551
        77  -8.8990     31.3875    145.6528   1.1470498759e+02   4.1144889780e+01    0.3253884    0.1910973 -42.27  0.001112034    1.971    0.493
        78  -9.0035     99.0932    143.4170   9.5612282725e+01   3.2830041698e+01    0.4248792    0.2581623  43.48  0.001297303    1.687    0.407
        79  -8.2589    102.6707    140.7090   9.4061104224e+01   3.2869521471e+01    0.2692752    0.2147893  14.61 0.0007656471    1.485    0.327
        80 -10.0011      5.9390    142.3438   1.2100410413e+02   4.3961026754e+01    0.3526191    0.3073462  38.09  0.002501278    1.384    0.278
        81  -8.4897    132.1613    141.1849   8.6240959680e+01   2.7247137466e+01    0.3917204    0.1142316 -50.88  0.001106821    3.665    0.727
        82  -7.9292     82.1708    142.1205   1.0007606050e+02   3.5854727299e+01    0.2114648    0.1890994 -34.57 0.0004808882    1.200    0.167
        83  -7.8590     56.6506    140.3572   1.0698187592e+02   3.9755807427e+01    0.2623409    0.1586426 -36.63 0.0009167371    2.034    0.508
        84  -7.9890     82.0116    137.1730   9.9162859178e+01   3.7092617770e+01    0.3237102    0.2057268  73.24  0.001337795    2.353    0.575
        85  -8.1074    126.8816    147.0685   8.8927521942e+01   2.6926678274e+01    0.2236456    0.2147102 -16.21 0.0003360524    1.063    0.059
        86  -8.6455     18.8854    138.0569   1.1715520414e+02   4.4049489273e+01    0.2446904    0.1561296 -87.98  0.001370767    1.449    0.310
        87  -7.6547     52.7809    137.3670   1.0759608409e+02   4.0952142245e+01    0.1617234    0.1338232   9.64 0.0002008676    1.482    0.325
        88  -7.5148    117.7107    136.7174   8.9057061945e+01   3.1087277152e+01    0.1508227    0.1208219 -11.77  0.000208703    1.528    0.346
        89  -8.8663    105.2815    133.8852   9.1850603408e+01   3.4046863253e+01    0.2478226    0.2174241  32.72 0.0003344096    1.184    0.155
        90  -7.5409     29.0132    134.0486   1.1386191073e+02   4.4184155277e+01    0.1477114    0.1373497 -82.59 0.0004752629    1.116    0.104
        91  -8.7138    111.2094    131.9153   8.9745285552e+01   3.3437573336e+01    0.2849188    0.2039618   1.02 0.0008380722    2.024    0.506
        92  -8.2088     73.0346    132.5016   1.0084877900e+02   3.9555169183e+01    0.2073986    0.1433817  34.32 0.0005101065    1.553    0.356
        93  -8.8466     19.6955    131.6073   1.1616341976e+02   4.5543888273e+01    0.3070396    0.1536339  71.99  0.001358843    2.666    0.625
        94  -8.8322     10.5597    132.1533   1.1875130406e+02   4.6072443439e+01    0.2129564    0.1505371 -24.58 0.0007075359    1.843    0.457
        95  -8.6025     66.4353    130.2341   1.0235727977e+02   4.1018864225e+01    0.2016686    0.1309776 -72.97 0.0009453286    1.620    0.383
        96  -8.1100    250.1380    128.1904   5.8733429546e+01   5.7786514965e+00    0.1798859    0.1496636 -49.94 0.0004711054    1.296    0.228
        97  -8.9781    120.2989    128.0406   8.6316865145e+01   3.2616310704e+01    0.2136617    0.1958471 -48.15 0.0003533154    1.075    0.070
        98  -8.7928    125.2239    126.9415   8.4707668529e+01   3.1896529041e+01    0.2932337    0.2208647  67.43 0.0009479917    1.696    0.410
        99  -9.1758    113.1591    232.0841   1.0623225237e+02   1.1199007611e+01    0.2445725    0.1636901  50.38 0.0006239202    1.331    0.249
       100  -7.3137    163.7055    124.2817   7.4312522705e+01   2.4317307016e+01    0.1508173    0.1264432 -85.30 0.0001949698    1.536    0.349
       101  -7.7963     89.2118    124.1927   9.4315551810e+01   3.9130241034e+01    0.2034139    0.1719498  86.64 0.0004134918    1.375    0.273
       102  -8.2920     70.7499    122.0264   9.9416366634e+01   4.2452047429e+01    0.1979853    0.1786175 -57.34 0.0002975707    1.018    0.018
       103  -7.8214    198.2964    120.9040   6.6031563246e+01   1.7387475584e+01    0.2075036    0.1780484 -31.79 0.0003502437    1.101    0.092
       104  -7.4211    132.0085    121.2727   8.1467083429e+01   3.1800049654e+01    0.1954839    0.1387952  41.10 0.0006546923    1.429    0.300
       105  -7.8173     64.6523    120.9506   1.0106651522e+02   4.3541300829e+01    0.1964931     0.164215 -62.51  0.000334907    1.104    0.094
       106  -8.1119     13.6755    121.0704   1.1656352946e+02   4.8520498198e+01    0.1843445    0.1306182 -68.37 0.0005001531    1.132    0.116
       107  -7.9314    104.2764    120.2805   8.8958701383e+01   3.7464631217e+01    0.1984901    0.1743753  82.91   0.00038316    1.328    0.247
       108  -6.9953    168.6576    114.3381   7.0614379154e+01   2.5258535209e+01    0.1620047    0.1263367 -80.28 0.0006941144    1.769    0.435
       109 -10.1507    110.3215    112.1974   8.5156684951e+01   3.8216270664e+01    0.3400789    0.2936347  75.49  0.001172539    1.394    0.283
       110  -7.5778    126.9436    111.7341   8.0343105188e+01   3.4985648174e+01    0.1951403    0.1374789  39.48 0.0004623071    1.447    0.309
       111  -7.4576     42.6963    110.7303   1.0597591412e+02   4.8601475349e+01    0.1349955    0.0923444 -35.78            0    1.532    0.347
       112  -7.3910    196.4967    107.4528   6.3014245461e+01   2.0300196451e+01    0.1506503    0.1429219 -44.02 0.0004407483    1.051    0.048
       113  -9.0030    248.6971    105.3445   5.3874699397e+01   9.7544348932e+00    0.2770438    0.1889245 -61.95  0.001413796    1.807    0.447
       114  -7.6564    136.5126    106.4558   7.6342435311e+01   3.4093458559e+01    0.1583007     0.151308  -5.24 -7.750657e-06    1.037    0.036
       115  -8.8230     68.4527    230.8240   1.1518206493e+02   1.7793270571e+01    0.2241131    0.1447726  45.28 0.0008969259    1.329    0.248
       116  -8.2475     69.0671    103.6863   9.5814321622e+01   4.7121950444e+01    0.1995216    0.1901597   3.20  0.001159674    1.120    0.107
       117  -7.9729     84.8787    103.2945   9.0587723562e+01   4.4815467812e+01    0.1978122    0.1816438 -24.06 0.0002901175    1.067    0.063
       118  -8.3981    247.0294     99.4832   5.2790640543e+01   1.1015978957e+01    0.1837536    0.1357985  53.39 0.0004221011    1.554    0.356
       119  -8.5078     36.0198     97.8518   1.0565580093e+02   5.2348682951e+01    0.2264494    0.1791996  53.16  0.001129018    1.536    0.349
       120  -7.3125     88.6758     96.7428   8.7616159526e+01   4.5688152471e+01     0.147809    0.1131755  -9.16 0.0002114507    1.550    0.355
       121  -8.6583     43.2961     93.0619   1.0209087030e+02   5.2771954705e+01    0.2141751    0.1924452  30.90 0.0003233606    1.286    0.222
       122  -7.7950     93.4822     89.1406   8.3905547662e+01   4.6534008330e+01    0.2129675    0.1419987 -44.86 0.0003403058    1.434    0.302
       123  -7.5454     75.5621     88.4488   8.9637010178e+01   4.9688389985e+01    0.1442105    0.1327932 -35.13 8.104109e-05    1.041    0.039
       124  -7.6562    198.0938     83.1897   5.6441053746e+01   2.4250222776e+01    0.2936124    0.1897571  -4.50  0.001164273    2.543    0.607
       125  -9.0226    101.5070     83.9969   7.9822032440e+01   4.6130624357e+01    0.2589882    0.2141973  32.27 3.832662e-05    1.228    0.186
       126  -7.4542     61.9655     81.9941   9.2578347897e+01   5.3093124766e+01    0.1695044    0.1485239 -33.63 0.0003763935    1.006    0.006
       127  -7.7649     81.0341     77.8303   8.4609103988e+01   5.1115895284e+01    0.2545719    0.1665226  -1.35  0.001092335    2.159    0.537
       128  -7.4906     11.5234     75.5072   1.0994929809e+02   5.9359406751e+01    0.1243682     0.100378 -55.33 0.0008096593    1.051    0.048
       129  -8.7321     85.9419     70.4054   8.0551696608e+01   5.1788068212e+01    0.2506807    0.1973149 -37.58 0.0002691606    1.216    0.178
       130  -7.4865     52.5977     69.4131   9.2382423383e+01   5.7033028956e+01    0.1361496    0.1153216 -29.70 0.0007958903    1.012    0.012
       131  -8.6391    119.0111     65.8924   6.8808357833e+01   4.5992590712e+01    0.2183946     0.206163  13.23 0.0003107815    1.007    0.007
       132  -7.4647     49.5199     61.4374   9.1091344110e+01   5.9066305877e+01    0.1348237    0.1144863 -25.45 6.107079e-05    1.011    0.011
       133  -7.1978     66.7041     60.7545   8.4170821547e+01   5.6852567740e+01     0.135007   0.09787931  -7.23 0.0006854006    1.481    0.325
       134  -7.4416     45.0533     57.9635   9.1773847889e+01   6.0298548219e+01    0.1573886    0.1317779 -25.60 0.0004672108    1.010    0.010
       135  -7.1687     58.2845     55.7394   8.5672410740e+01   5.9046026474e+01    0.1147019    0.1090333  83.29 0.0001602675    1.484    0.326
       136  -7.5306     26.0846     53.1430   9.8307230464e+01   6.3168914564e+01    0.1537444    0.1383038 -52.65  0.000345605    1.284    0.221
       137  -7.5634    224.9934    249.4591   8.6710538835e+01  -8.4247216194e+00    0.1673649   0.08046615  16.16 0.0005403431    2.377    0.579
       138  -8.0229      9.7623     30.7379   9.8620446519e+01   6.8734744449e+01    0.1757714   0.09117512 -62.46 0.0008963465    2.416    0.586
       139  -7.7738    129.0979     24.8998   5.2109337734e+01   4.9580557200e+01    0.1835514    0.1473447  29.37 0.0003570957    1.245    0.197
       140 -11.1701    191.6796     43.7341   4.6925280009e+01   3.1828090655e+01    0.5271748    0.4217086  64.77  0.001631913    1.214    0.176
       141  -8.8655    242.0648    247.2296   8.3311315434e+01  -1.0412242466e+01    0.1751229    0.1186404  10.19 0.0004454713    1.149    0.130
       142  -8.6280    108.4803    243.4772   1.0849405369e+02   9.8510155965e+00     0.244531    0.1982543 -75.97   0.00134953    1.425    0.298
       143 -10.3053    110.5702    239.4824   1.0762918848e+02   1.0248886388e+01    0.5827543    0.2031361  30.77  0.002173562    3.515    0.715
