#   1 NUMBER                 Running object number                                     
#   2 MAG_AUTO               Kron-like elliptical aperture magnitude                    [mag]
#   3 X_IMAGE                Object position along x                                    [pixel]
#   4 Y_IMAGE                Object position along y                                    [pixel]
#   5 X_WORLD                Barycenter position along world x axis                     [deg]
#   6 Y_WORLD                Barycenter position along world y axis                     [deg]
#   7 A_WORLD                Profile RMS along major axis (world units)                 [deg]
#   8 B_WORLD                Profile RMS along minor axis (world units)                 [deg]
#   9 THETA_WORLD            Position angle (CCW/world-x)                               [deg]
#  10 FWHM_WORLD             FWHM assuming a gaussian core                              [deg]
#  11 ELONGATION             A_IMAGE/B_IMAGE                                           
#  12 ELLIPTICITY            1 - B_IMAGE/A_IMAGE                                       
         1 -17.5729      8.5583    179.1266   1.3124056731e+02   3.6991013989e+01     3.402016     1.093025 -77.96   0.01833269    2.553    0.608
         2 -16.9663      8.2325    134.0972   1.2856200503e+02   4.6110011749e+01     2.241611    0.7387867 -87.19   0.01019143    2.841    0.648
         3 -16.7377      8.1073    100.4643   1.2559863447e+02   5.3463966868e+01     2.270267    0.8686287 -81.69   0.01108451    2.229    0.551
         4 -16.5512    242.0943    110.4319   7.2388794829e+01   1.0060184600e+01     4.650707     2.392534 -23.29   0.02075105    1.924    0.480
         5 -16.5081    246.9109     57.3234   5.8376605938e+01   1.6201660769e+01     2.542978    0.8068882 -31.34  0.009256591    2.614    0.617
         6 -15.0923    221.7751     29.7193   5.3759653596e+01   2.5697414964e+01     3.715008     2.372424  68.49   0.01746083    1.620    0.383
         7 -14.7956      4.6545     60.1846   1.2127232247e+02   6.2651393030e+01     1.140766     0.344268 -65.99  0.004621848    2.265    0.558
         8 -16.4668    136.8340     34.2540   6.8920970844e+01   4.7235559166e+01     2.889019      2.45172 -54.52   0.00808624    1.284    0.221
         9 -15.3830    134.3410     10.4348   6.0064766654e+01   5.0862365402e+01      2.05523     1.230458  64.28  0.006816925    1.668    0.400
        10 -12.5813    152.9449     21.3856   6.0854081155e+01   4.4814219733e+01    0.2665465    0.2160739 -13.08  0.000397259    1.276    0.216
        11 -13.4612      3.3155      4.9410   1.0659468343e+02   7.4136492371e+01    0.6586938    0.2851402 -48.15  0.002692777    1.639    0.390
        12 -13.6482     12.9651      5.6671   1.0133863640e+02   7.3314853439e+01    0.4813777    0.3748202 -16.83  0.001996751    1.246    0.197
        13 -13.2886      9.7644     16.7280   1.0782829319e+02   7.1492908541e+01    0.5329663    0.2700121  26.88  0.003083919    2.429    0.588
        14 -12.4148    210.2201    133.8974   8.3118961357e+01   1.3273927947e+01    0.3770091    0.1930755  48.25  0.001635206    1.907    0.476
        15 -13.0701    241.4177    246.0336   9.7728554994e+01  -5.3155085945e+00    0.5811806    0.3128066  36.41  0.003487178    1.371    0.270
        16 -11.7410    216.9890    250.1640   1.0192523617e+02  -2.2525807292e+00    0.3398503     0.107659  39.89  0.001780883    2.291    0.564
        17 -13.7090    247.6332    234.3192   9.5159969771e+01  -5.1830730174e+00    0.6816177    0.3397127  33.65   0.00338667    1.508    0.337
        18 -15.6679    112.3262    203.3559   1.1380066117e+02   1.9852597970e+01     2.422278     1.529379 -37.19   0.01345554    2.719    0.632
        19 -17.3566    119.6338    241.3722   1.1638881638e+02   1.3023589911e+01     3.398234    0.9036617  45.94   0.01603528    2.710    0.631
        20 -15.2073    195.3133    244.5405   1.0455995472e+02   1.4493663171e+00    0.7276438    0.5612969  17.88  0.004286887    1.306    0.234
        21 -17.1182    212.9821    233.0900   1.0029131464e+02  -1.4513153198e-02      2.94956     1.110735  35.22   0.01523767    2.239    0.553
        22 -13.2912     51.1506    172.3318   1.2249263936e+02   3.3975546014e+01    0.3206642    0.2808989 -46.49  0.001290678    1.678    0.404
        23 -14.3398     63.4658    174.3670   1.2018377605e+02   3.2067815325e+01    0.8044021    0.3958219 -55.14   0.00429871    2.389    0.581
        24 -15.7186     63.1904    162.4911   1.1900260025e+02   3.4489988377e+01     1.917918     1.331151  87.97   0.01040814    1.286    0.222
        25 -12.9602    238.7340    179.6035   8.7573100490e+01   1.7306631161e+00    0.5406896    0.4217284 -60.02  0.002654309    2.270    0.559
        26 -11.1952    241.2973    188.6711   8.8801565996e+01   2.7228063368e-01    0.2843226    0.1672475 -37.00  0.001456398    2.031    0.508
        27 -12.1289    226.8109    169.3564   8.7601341255e+01   5.0650838707e+00    0.3441207    0.2557085 -26.69  0.001843388    1.403    0.287
        28 -12.0252     90.3740    167.5788   1.1382664824e+02   2.9706443283e+01    0.3097249    0.2544041  78.64  0.001290259    1.065    0.061
        29 -12.8583    235.9606    162.1575   8.4688271579e+01   4.3348981729e+00    0.3136432    0.2642691 -57.24   0.00123794    1.754    0.430
        30 -12.9036    115.4120    150.0501   1.0578659117e+02   2.9196277348e+01    0.9668765    0.4261145  59.56  0.003598365    3.193    0.687
        31 -12.5253     32.0858    147.9193   1.2432604560e+02   4.1071466481e+01    0.2922201    0.1771534  69.68   0.00166947    1.459    0.314
        32 -12.7020    220.1221     41.6661   5.7373258576e+01   2.4640573930e+01    0.6157343    0.5470408  80.73  0.002387209    1.183    0.155
        33 -14.9505     26.6758    223.9745   1.3029165831e+02   2.7303772547e+01     1.200763    0.4000271  61.02  0.006930057    2.347    0.574
        34 -12.6995      1.5041    242.0139   1.3475250056e+02   2.6896457632e+01     0.544748   0.07065365 -81.22  0.002210883    7.088    0.859
        35 -12.1223    126.7428    213.2234   1.1230324158e+02   1.6057945280e+01    0.3747917    0.2822574  13.92   0.00233866    2.102    0.524
        36 -12.9505    184.3083    118.9998   8.4512959700e+01   2.1278547225e+01    0.3348851    0.2737098 -48.77  0.001751391    1.310    0.237
        37 -11.3104    167.8450    113.3404   8.6485222499e+01   2.5950658314e+01    0.2966017    0.2242248 -69.44 0.0008948628    1.691    0.409
        38 -14.2351    205.2817    109.4050   7.8206290602e+01   1.8190008188e+01    0.4993072    0.4073932  21.88  0.002623107    1.286    0.222
        39 -14.3905    191.4584    107.8928   8.0380530453e+01   2.1574273940e+01    0.8576798    0.4852734  69.57  0.003231464    2.754    0.637
        40 -12.8215    200.1520    104.8543   7.7985833765e+01   2.0091073423e+01    0.2319081    0.2080541 -65.85  0.001236845    1.285    0.222
        41 -10.3897    145.5179     99.5018   8.7882297619e+01   3.3561916168e+01    0.1476109    0.1466492 -28.96 3.855363e-05    1.032    0.031
        42 -11.6001    153.4473     93.5126   8.4449930701e+01   3.2942864023e+01    0.3463615    0.2009706  26.19  0.001250648    2.785    0.641
        43 -12.3593    187.3339     87.7948   7.5832462065e+01   2.5947692849e+01    0.4244471    0.3148659  11.03  0.001473297    1.707    0.414
        44 -11.2208    138.6311     89.0430   8.6655942313e+01   3.7153622898e+01    0.2600803    0.2151331  70.22  0.001303152    1.339    0.253
        45 -12.1400    168.3928     82.4005   7.8060826656e+01   3.1467699176e+01    0.4392558    0.3065782  10.34  0.001838386    2.071    0.517
        46 -12.2970    151.6455     82.7969   8.1813145009e+01   3.5390230036e+01    0.3355775    0.2605197 -30.86  0.000949231    1.317    0.241
        47 -11.2946    174.5892     77.3329   7.5319039277e+01   3.0837562217e+01     0.249891    0.2368329  68.25  0.000432543    1.097    0.089
        48 -12.1145     49.9090    131.3100   1.1834830189e+02   4.2766943627e+01    0.3751332    0.1926281  73.45  0.001556498    2.354    0.575
        49 -12.4167    233.3880     68.8548   6.3138282390e+01   1.7783935603e+01    0.5260729    0.2954777 -49.09  0.002284345    1.952    0.488
        50 -11.5751    182.2901     71.7697   7.2183752984e+01   2.9855561099e+01    0.3510321    0.2414684  21.34 0.0009812029    1.907    0.476
        51 -10.8883    186.9310     68.2877   7.0293593099e+01   2.9251559821e+01    0.3692174    0.2230205  29.23  0.001402966    2.220    0.550
        52 -13.0347    211.6944    204.2475   9.6242398211e+01   3.3619331266e+00    0.6064609    0.4204051 -11.58  0.003849177    1.673    0.402
        53 -11.7894    225.1111     67.0703   6.3811493718e+01   1.9987690105e+01    0.5119246      0.37577 -45.66  0.002565396    1.359    0.264
        54 -13.2057    165.5656     67.7858   7.4256738812e+01   3.4704625554e+01     0.467305    0.3563572  -2.57  0.001068578    1.605    0.377
        55 -13.6826    229.3999     55.7174   6.0118610503e+01   2.0515792043e+01    0.7723476    0.4309704 -47.21  0.002663634    1.837    0.456
        56 -13.4082    120.4085     57.2063   8.1328390185e+01   4.7324736470e+01    0.4092256    0.2874746  43.42  0.001464537    1.490    0.329
        57 -11.1379    211.7262     49.6558   6.0798639772e+01   2.5703714345e+01    0.4110638    0.2217231  36.01   0.00153155    2.403    0.584
        58 -14.5062    182.5452    201.1368   1.0074650941e+02   8.6607355003e+00    0.9701141    0.5269638  54.07  0.004037158    1.953    0.488
        59 -15.0942    158.1916    199.5280   1.0486951889e+02   1.3037125706e+01     1.072573    0.8386021  35.94  0.004658181    1.184    0.155
        60 -11.7485     16.6941     48.0232   1.1414673354e+02   6.4576123769e+01     0.180428     0.127156 -60.65  0.001152351    1.098    0.089
        61 -10.7061    182.7657     30.1946   5.9015207370e+01   3.5818905322e+01    0.1958073    0.1662727  37.23 0.0004638005    1.240    0.193
        62 -13.2250     68.3489    144.6469   1.1569474556e+02   3.7568223514e+01    0.6360192    0.3111778  63.27  0.002945201    2.389    0.581
        63 -15.3058    170.9270    189.4221   1.0102505533e+02   1.2346628946e+01     1.832735    0.6314593  47.20  0.007633968    2.563    0.610
        64 -10.5533    235.5779    197.1820   9.1186598202e+01   2.6186678496e-01    0.1600836    0.1005201  -9.29 0.0009510391    1.743    0.426
        65 -16.4022    170.1115    244.3311   1.0852666521e+02   5.2302114805e+00     2.248983    0.9000195  37.73   0.01225368    2.062    0.515
        66 -14.6083     72.8008    183.4409   1.1922032906e+02   2.9096993583e+01     1.009509    0.5434821  50.30  0.004033247    1.579    0.366
