#   1 NUMBER                 Running object number                                     
#   2 MAG_AUTO               Kron-like elliptical aperture magnitude                    [mag]
#   3 X_IMAGE                Object position along x                                    [pixel]
#   4 Y_IMAGE                Object position along y                                    [pixel]
#   5 X_WORLD                Barycenter position along world x axis                     [deg]
#   6 Y_WORLD                Barycenter position along world y axis                     [deg]
#   7 A_WORLD                Profile RMS along major axis (world units)                 [deg]
#   8 B_WORLD                Profile RMS along minor axis (world units)                 [deg]
#   9 THETA_WORLD            Position angle (CCW/world-x)                               [deg]
#  10 FWHM_WORLD             FWHM assuming a gaussian core                              [deg]
#  11 ELONGATION             A_IMAGE/B_IMAGE                                           
#  12 ELLIPTICITY            1 - B_IMAGE/A_IMAGE                                       
         1  -9.5775    238.9221     16.6681   1.0665851054e+01   2.3265525754e+01    0.4506024    0.2627366 -75.94  0.002336505    1.728    0.421
         2 -10.7300    238.1723     10.7669   9.4156129698e+00   2.4113210374e+01     0.869607    0.6993762  82.63  0.005558148    1.174    0.148
         3  -9.0636    120.1393      8.8837   2.4719920637e+01   5.3390515756e+01    0.3732149    0.3107073  27.62  0.001799038    1.159    0.137
         4  -6.9725    207.7206      9.6763   1.1963379635e+01   3.1456170576e+01     0.126185   0.09721246  41.02  0.000354976    1.589    0.371
         5  -8.2833    171.3941      3.2730   1.4384630407e+01   4.1197676033e+01    0.1855021    0.1179731 -39.95 0.0005043292    1.682    0.405
         6  -7.9851    100.2197      1.3224   2.6294672905e+01   5.8578586268e+01    0.1687072    0.1108234  64.42 0.0002680239    1.575    0.365
         7 -13.5577     12.0674    246.1835   1.0059451230e+02   2.2475994248e+01      1.21428    0.2858214 -75.55  0.002352633    3.721    0.731
         8  -8.3496    141.4908    249.9962   7.8236620709e+01   4.1264862861e+00    0.1974207     0.122158 -61.13  0.001062597    2.131    0.531
         9  -8.0259     62.6126    249.8792   9.2486349302e+01   1.5892052167e+01    0.2100772    0.1229039  66.87 0.0009645199    1.431    0.301
        10 -13.1750     39.2502    191.5728   9.2144728743e+01   3.0187867194e+01     7.572367     2.063195  55.08   0.02600972    4.267    0.766
        11  -9.4359     76.7171    233.8684   8.8643055972e+01   1.6838253557e+01    0.2692649    0.1803331  80.88 0.0004781384    1.432    0.302
        12  -9.3656    151.8408    218.5987   7.2000262635e+01   7.5080457690e+00     0.375732    0.2743346 -31.40  0.001976759    1.756    0.431
        13  -7.5499    149.2991    216.2699   7.2168086132e+01   8.3644522649e+00    0.1827728     0.139618  60.20 0.0003901705    1.351    0.260
        14  -8.3064    245.1896    239.6201   5.7760755024e+01  -1.0827636314e+01    0.1662436   0.08601434  27.04 0.0006135939    1.645    0.392
        15  -7.3882    232.3604    219.1020   5.6519816338e+01  -6.3797026711e+00    0.1661046    0.1102876 -41.76 0.0009493121    1.895    0.472
        16  -7.6335    129.0000    219.9790   7.6835537854e+01   1.1227737039e+01    0.1922048   0.07536696 -54.74 0.0008048915    2.959    0.662
        17  -9.3101    109.2629    215.4117   8.0265706873e+01   1.5378555754e+01    0.3109042    0.1450853  40.42  0.001452921    1.915    0.478
        18 -13.9509      4.1161    177.8883   9.8218575698e+01   3.6586288314e+01      8.36786     1.157341 -75.53   0.02708162    5.504    0.818
        19  -7.9389    231.5578    236.7597   5.9670277537e+01  -8.4982487149e+00    0.1369699    0.1107966 -31.42 0.0005320329    1.535    0.349
        20  -9.6069    119.4727    212.9126   7.7834049348e+01   1.4163392358e+01    0.3790112    0.1652747  38.75  0.001660181    2.118    0.528
        21  -8.9943    105.5399    211.0398   8.0479500257e+01   1.6835772606e+01    0.2809953     0.129353  64.72  0.001039927    3.437    0.709
        22  -8.6416    134.7704    208.9328   7.4078494017e+01   1.2275979292e+01    0.2768607    0.1701517  18.58  0.001191464    2.686    0.628
        23  -9.3830    123.7423    205.9154   7.5962187088e+01   1.4785689642e+01    0.2660657    0.1819421  72.60  0.001060187    1.730    0.422
        24  -7.8082     73.1270    204.6704   8.6449750726e+01   2.3070193501e+01    0.2082994    0.1470646  88.85 0.0006347672    1.345    0.257
        25  -7.5488     78.7943    204.1760   8.5220455856e+01   2.2358100580e+01    0.1503592    0.1421706  88.35 0.0003557142    1.253    0.202
        26  -8.4470     36.4434    202.7191   9.3651446434e+01   2.8157234359e+01    0.2214394    0.1423035  61.98 0.0006699682    1.306    0.234
        27  -9.0293    130.2369    201.6427   7.3944503697e+01   1.4481786631e+01    0.2547504    0.1649953  34.90  0.001284198    1.543    0.352
        28  -7.4003    101.6722    202.7234   8.0217516031e+01   1.9132490497e+01    0.1195373     0.105419   4.46 0.0006991621    1.592    0.372
        29  -7.5012     90.5129    202.4806   8.2558664549e+01   2.0949051689e+01     0.133374    0.1096376  68.10 7.796871e-05    1.045    0.043
        30  -8.0005     67.9112    202.2278   8.7266526725e+01   2.4307567875e+01    0.1863395    0.1367313  71.01 0.0008438159    1.180    0.152
        31 -10.0451    125.3697    235.0245   7.9486846734e+01   9.1738748747e+00    0.3363864    0.2351683  63.79 0.0002994526    1.429    0.300
        32 -10.6086    123.7443    227.5350   7.8877766882e+01   1.0748864264e+01    0.5063091    0.2754785 -60.59  0.002138079    2.189    0.543
        33  -6.9905    182.4542    192.5294   6.1320715643e+01   6.4554560117e+00    0.1410686    0.1251498  23.66 0.0008078138    1.041    0.039
        34 -11.4123     51.6643    179.6470   8.8312807547e+01   3.1325912586e+01     1.360922    0.6655588  68.46  0.006230282    2.410    0.585
        35  -7.4658    122.3272    184.6749   7.3009247988e+01   1.9356539429e+01    0.1482073    0.1036138  72.68 0.0007049602    1.696    0.410
        36  -8.1624    143.8842    181.6205   6.7622873263e+01   1.5970918391e+01    0.2272945    0.1991211 -33.14 0.0006885231    1.296    0.228
        37  -8.1105    185.6861    229.1720   6.6934984644e+01  -8.7155585209e-02    0.2171188    0.1168864 -51.14 0.0008706051    2.543    0.607
        38  -9.5399     67.6743    176.9733   8.4394093249e+01   2.9837599658e+01    0.8494173    0.3251395  48.55  0.003296413    2.528    0.605
        39  -9.0264    132.9492    235.0325   7.8017939291e+01   7.9264028665e+00    0.1864859    0.1494138  10.39 0.0009381747    1.704    0.413
        40  -7.4742    113.3581    175.3102   7.3522140054e+01   2.2980396722e+01    0.1393957    0.1147786  -5.85  0.000704246    1.736    0.424
        41  -7.6998     76.6178    175.3383   8.2118016754e+01   2.8937817881e+01    0.1802679     0.115447 -57.42   0.00088999    1.584    0.369
        42 -13.2917     10.2939    207.1439   9.8872495305e+01   2.9983794603e+01     1.508803    0.8084146  67.59  0.007825331    1.508    0.337
        43  -7.5707    136.8375    172.8698   6.7625504243e+01   1.9150119544e+01    0.1961198    0.1653408  77.58 0.0002430976    1.292    0.226
        44  -8.9664     81.4465    172.0818   8.0530519194e+01   2.8960200836e+01    0.2322126    0.1826691  49.22 0.0003298318    1.241    0.194
        45  -8.1655    103.7563    171.6109   7.5171187933e+01   2.5475010547e+01    0.2099292    0.1215078  49.74 0.0009604109    1.667    0.400
        46  -9.4934     67.3602    169.0819   8.3437600222e+01   3.1676312129e+01    0.3206896    0.2238627 -43.13  0.001467242    1.818    0.450
        47 -10.0350     71.9204    164.6385   8.1732159478e+01   3.2064655091e+01    0.4305047    0.2829339 -43.42 0.0007784109    1.891    0.471
        48  -9.1743     49.9786    163.7746   8.6863331630e+01   3.5132627339e+01     0.481789    0.2590371  77.96  0.002245622    2.237    0.553
        49  -7.7192     35.4083    163.7618   9.0261821096e+01   3.6775487322e+01    0.1707983    0.0980428 -65.01 0.0009387147    1.544    0.352
        50 -10.3990     68.3430    134.5916   7.7850108879e+01   3.9667039729e+01    0.8334326    0.2932508 -64.22  0.002977698    2.863    0.651
        51 -12.1260     58.0287    131.6711   8.0167913740e+01   4.1720460804e+01     1.973611     1.017003  87.30  0.007226056    3.490    0.713
        52 -10.6992     68.9963    151.5715   8.0503843314e+01   3.5534396702e+01    0.4617445    0.3599143 -55.54  0.001139058    1.292    0.226
        53 -10.5619     70.8563    146.0843   7.9146812264e+01   3.6575348583e+01    0.6354634    0.3815411  61.95  0.002728236    1.937    0.484
        54  -7.8032    224.5814    159.0710   4.6173347099e+01   4.1023020459e+00    0.2154182     0.185698  49.41  0.001210041    1.310    0.237
        55  -7.4318     41.3933    156.7931   8.8064240494e+01   3.7732837267e+01    0.1677136    0.1005299 -61.92 0.0001929356    1.512    0.339
        56  -7.7488     46.4777    156.4618   8.6795526828e+01   3.7237831505e+01    0.1798797    0.1301721  14.19 0.0005576783    1.998    0.500
        57  -8.9427     86.4909    151.5033   7.6030123997e+01   3.2957140460e+01    0.3470353    0.2695208 -39.98 0.0006860232    1.510    0.338
        58  -8.9805     90.6583    147.9188   7.4321583814e+01   3.3134365333e+01    0.3334779    0.2035824  43.29 0.0005156716    1.649    0.394
        59  -9.4687     55.0574    149.7980   8.3775433436e+01   3.7778555619e+01    0.3840828    0.2110825  74.63  0.001562175    2.397    0.583
        60  -8.6034    133.8284    148.1142   6.3412585572e+01   2.5150902578e+01    0.3920546    0.2022799 -60.02  0.001472645    2.363    0.577
        61  -8.2449    237.0334    148.0128   4.1519656746e+01   3.5483528364e+00    0.1670357    0.1526795   5.94 0.0003484411    1.065    0.061
        62  -9.6776    137.9825    183.8508   6.9341244989e+01   1.6637659622e+01    0.2862889    0.2088038 -50.65 0.0005736953    1.483    0.326
        63  -7.2460     83.5077    142.4364   7.5191506279e+01   3.5570510457e+01    0.1405165    0.1308797 -78.23  0.000204636    1.038    0.036
        64  -8.4225     73.5170    140.1703   7.7439862868e+01   3.7605565831e+01    0.3954469    0.2171229 -89.83  0.001505236    2.966    0.663
        65  -8.8835    150.5587    138.9700   5.7310571523e+01   2.3660349782e+01    0.3711135    0.2791735 -23.23    0.0011032    1.623    0.384
        66  -9.1788     27.2839    139.4603   8.9461142588e+01   4.3189313053e+01    0.4136888    0.1575623  55.54   0.00167273    3.444    0.710
        67  -9.8000     89.2027    136.3799   7.2520069000e+01   3.6104433023e+01    0.2826824    0.2611889 -89.10 0.0005365821    1.038    0.036
        68  -7.6546    103.7016    135.6280   6.8475712372e+01   3.3800545786e+01    0.1522296     0.115985 -23.13 0.0007029094    1.742    0.426
        69  -9.3310     35.6139    131.6875   8.6268406533e+01   4.4219717398e+01    0.2896467    0.2016442 -62.26  0.001706417    1.242    0.195
        70  -8.2237     30.0069    129.2982   8.7441826058e+01   4.5316252514e+01    0.2653417    0.1338485  82.70  0.001159715    2.671    0.626
        71  -7.2749    111.3592    128.7981   6.4931537047e+01   3.3982412410e+01    0.2129951    0.1358129 -43.20 0.0004547717    1.620    0.383
        72  -8.8417     42.6492    129.3729   8.4020595503e+01   4.4046157049e+01    0.2109706    0.1387599  73.23 0.0006812004    1.740    0.425
        73  -9.9063     71.3789    127.0386   7.5609988042e+01   4.1048795635e+01    0.3557613    0.2640538 -27.39  0.001080073    1.735    0.424
        74  -9.9186     48.5331    124.7828   8.1648327561e+01   4.4492254357e+01    0.3902048    0.2504884  56.50  0.001522712    1.780    0.438
        75  -9.5302     17.0320    124.9636   9.0357520933e+01   4.7422224197e+01    0.2621531    0.1647791  83.86  0.001508162    1.602    0.376
        76  -8.4250     98.1763    124.4620   6.7554689938e+01   3.7405046197e+01    0.2575225    0.2187568 -22.53 0.0004253641    1.386    0.279
        77  -7.3657    129.1516    123.6041   5.8999283606e+01   3.1620821949e+01    0.2017003    0.1474756  31.05 0.0001550018    1.521    0.343
        78 -10.3624     56.8898    117.2750   7.7898671032e+01   4.5293799911e+01    0.2864027    0.2268479 -39.65  0.001634269    1.337    0.252
        79  -7.8117     68.4478    119.4172   7.4944817564e+01   4.3275979469e+01    0.1380796    0.1254479 -69.89 5.576958e-06    1.020    0.019
        80  -7.4324    107.5263    118.0197   6.3458313243e+01   3.7202020012e+01    0.2192309    0.1448035 -49.58  0.000384424    1.467    0.318
        81 -10.4994     80.1433    158.2068   7.8744454628e+01   3.2361097074e+01    0.8335438    0.5774075  82.31  0.004228137    1.609    0.378
        82 -12.8249     31.0970    246.9173   9.7585429303e+01   2.0282128698e+01     1.612916      1.15978 -74.55   0.01232808    1.553    0.356
        83  -7.6606    161.0002    118.0285   4.9717665853e+01   2.5784185692e+01    0.2388844    0.1919201 -80.49 0.0004499408    1.566    0.361
        84  -7.9871    239.5284    114.5103   3.3502265603e+01   8.6607007399e+00    0.1422092    0.1295431 -31.17 0.0008099147    1.002    0.002
        85 -12.5058     53.0033    229.7376   9.2661844590e+01   2.0791960941e+01     1.601633     1.078134  72.55  0.008730846    1.209    0.173
        86  -9.0964     52.4872    110.5419   7.7904270480e+01   4.7414459142e+01    0.3103929    0.1829488 -44.32  0.001253978    1.680    0.405
        87 -14.9122      6.0542    240.3276   1.0127536683e+02   2.4120498741e+01     1.531361     1.094469  12.22  0.008654791    3.121    0.680
        88  -7.3486    108.0669    105.0180   6.0031563011e+01   4.0057746548e+01    0.1724938    0.1704088 -38.14 0.0009450713    1.020    0.020
        89  -8.0694    117.5124    101.0113   5.6293707790e+01   3.9058324487e+01    0.2167192    0.1348686 -69.08 0.0008095183    2.460    0.594
        90  -8.7915     76.0141    150.0461   7.8466814378e+01   3.4895038360e+01    0.3112228    0.2287845  63.07 0.0005467419    1.403    0.287
        91  -7.5045     53.6502     88.6733   7.2751749043e+01   5.2328225776e+01    0.1428093   0.09284315 -28.76 0.0007048765    1.758    0.431
        92  -7.4147    135.1891     82.6449   4.6233048815e+01   3.8996849561e+01    0.2052593    0.1412472  38.98            0    1.499    0.333
        93  -8.1341    201.7702     81.0573   3.1501252440e+01   2.2981122678e+01    0.2360634    0.2061258  63.96 0.0004152943    1.162    0.139
        94  -8.3969    128.0491     79.9424   4.7287342292e+01   4.1150509332e+01    0.2245958    0.2131503  12.15 0.0003007787    1.057    0.054
        95  -7.5227     96.7745     79.4523   5.6151917157e+01   4.7722732495e+01    0.1839691    0.1400728  24.13 0.0002617305    1.438    0.305
        96  -7.6418    214.2243     77.8564   2.8590104019e+01   2.0499547603e+01    0.1889032    0.1696834   4.32 0.0002716415    1.303    0.233
        97  -8.9647     99.1035     67.1726   5.1544965842e+01   4.9709507508e+01    0.2401129    0.2202241 -50.73  0.001340849    1.194    0.163
        98 -10.6796    190.3512     54.9655   2.6351550124e+01   3.0048226061e+01    0.5361688    0.4701786 -31.90  0.001454119    1.202    0.168
        99  -6.5942    167.6786     60.7230   3.2138942650e+01   3.4938395496e+01    0.1537468    0.1153161  28.56 0.0003052858    1.580    0.367
       100  -7.7140    143.7897     59.7751   3.6997892364e+01   4.1073907317e+01    0.2061098    0.1777553 -80.05 0.0005699178    1.355    0.262
       101 -11.2118    201.7831     46.7680   2.2336108211e+01   2.8352301982e+01    0.8867675    0.7337946 -45.76  0.004574494    1.194    0.162
       102 -11.2706    211.6803     38.1543   1.8730120051e+01   2.7068836817e+01    0.6591581    0.6372738  87.55  0.001602146    1.121    0.108
       103  -6.9551     96.7037     51.3325   4.6848231406e+01   5.3018907284e+01    0.1351521    0.1144568 -72.87 0.0007028302    1.642    0.391
       104  -8.2793    148.0017     44.1920   3.1038711571e+01   4.2428398194e+01    0.2247701    0.2080225 -25.24  0.000308488    1.141    0.124
       105  -8.7350    221.8391     40.1781   1.7980580676e+01   2.4320716262e+01    0.2186436    0.1680858 -65.87 0.0006117624    1.241    0.194
       106  -8.4178    184.8160     23.0000   1.8223654923e+01   3.5735339447e+01    0.2297408    0.1844015  71.48 0.0003278335    1.134    0.118
       107  -6.8024    135.6734     20.7100   2.5730643400e+01   4.8458907434e+01     0.147506   0.09532733  34.80 0.0007014965    1.616    0.381
       108 -10.1287    100.5968    246.4185   8.5420619147e+01   1.1119690338e+01    0.2217337    0.1953198  87.31 0.0005105179    1.254    0.203
       109  -8.0267     91.4166    247.4031   8.7188698430e+01   1.2314792181e+01     0.287086    0.1344735  65.70  0.001387206    2.550    0.608
       110 -13.2670      5.7547    248.3056   1.0166569746e+02   2.2746237089e+01    0.4340212     0.281718  47.01  0.003284655    1.495    0.331
       111  -8.5091     48.7195    244.2318   9.4470357419e+01   1.8663039015e+01    0.1986174    0.1670691  81.99 0.0005420881    1.270    0.213
       112  -8.1331     79.8758    244.8963   8.9046825389e+01   1.4408591029e+01    0.1814349    0.1299528  63.72 0.0006545763    1.104    0.095
