#   1 NUMBER                 Running object number                                     
#   2 MAG_AUTO               Kron-like elliptical aperture magnitude                    [mag]
#   3 X_IMAGE                Object position along x                                    [pixel]
#   4 Y_IMAGE                Object position along y                                    [pixel]
#   5 X_WORLD                Barycenter position along world x axis                     [deg]
#   6 Y_WORLD                Barycenter position along world y axis                     [deg]
#   7 A_WORLD                Profile RMS along major axis (world units)                 [deg]
#   8 B_WORLD                Profile RMS along minor axis (world units)                 [deg]
#   9 THETA_WORLD            Position angle (CCW/world-x)                               [deg]
#  10 FWHM_WORLD             FWHM assuming a gaussian core                              [deg]
#  11 ELONGATION             A_IMAGE/B_IMAGE                                           
#  12 ELLIPTICITY            1 - B_IMAGE/A_IMAGE                                       
         1 -13.5638    221.2791      2.2849   4.2240883941e+01   2.8598087698e+01     2.197618    0.6460947  61.74  0.006188985    3.258    0.693
         2 -13.7208    180.3142     44.9759   5.9851902521e+01   3.4179888038e+01     1.117312    0.7539161 -10.86  0.001664939    1.607    0.378
         3 -13.9966    190.9922     35.9550   5.5403408362e+01   3.2623305440e+01     1.149431    0.9878634 -29.16  0.003125078    1.093    0.085
         4 -14.8638    199.1022     26.0731   5.1298663955e+01   3.1715534452e+01     2.247433     1.463582  26.93  0.001363653    1.870    0.465
         5 -10.0692     76.3212     13.6791   7.1297894976e+01   6.4196020044e+01    0.1388046     0.109804 -60.40 0.0005502009    1.671    0.402
         6 -16.4764     69.0400    149.0658   1.1278200503e+02   3.6303379219e+01     5.843788     2.923584  67.32   0.01370031    2.667    0.625
         7 -11.6911     39.7560    212.8089   1.2445743379e+02   2.7452563737e+01    0.2113568     0.116703  52.52 0.0003555701    1.355    0.262
         8 -11.1112     37.3852    209.6952   1.2474319867e+02   2.8217006599e+01    0.1844696    0.1153052  52.95 0.0009002459    1.195    0.163
         9 -11.6039    129.8528    211.3180   1.0711983758e+02   1.6607654598e+01    0.1723832    0.1512241  80.78 0.0007574134    1.403    0.287
        10 -11.7067    103.7754    201.6006   1.1110144805e+02   2.1720550730e+01    0.2433928    0.1728746  34.50  0.001614604    1.270    0.213
        11 -12.5771    106.2453    209.6808   1.1145599719e+02   2.0098692319e+01    0.5056027     0.243517  45.21  0.002078224    1.676    0.403
        12 -12.2253    108.1678    203.6067   1.1044580516e+02   2.0798016507e+01    0.3058636    0.2450763  38.14 0.0002091006    1.104    0.094
        13 -10.7047     53.3923    230.0306   1.2288779557e+02   2.3267730777e+01    0.3559469    0.1551731  84.99  0.002038302    2.972    0.664
        14 -11.0068     70.0726    209.5979   1.1846498799e+02   2.4674089286e+01    0.2165965    0.1324416  60.98 0.0004413339    1.465    0.317
        15  -9.6446     30.3634    210.5413   1.2610570104e+02   2.8761360734e+01    0.1374703   0.06677152  48.43 0.0007536985    1.504    0.335
        16 -12.7111    114.2763    207.4094   1.0966299149e+02   1.9361749821e+01    0.3469988      0.22146 -52.90  0.002241318    1.926    0.481
        17 -10.3134     75.7273    206.9974   1.1715774983e+02   2.4433052847e+01    0.2155717     0.179564 -60.90  0.001218698    1.502    0.334
        18  -9.9654     32.8583    205.4913   1.2539297030e+02   2.9386488008e+01    0.1571519      0.12891  60.88  0.000749318    1.136    0.119
        19  -9.9816     60.7728    230.9301   1.2162617381e+02   2.2334794143e+01    0.1300796   0.09931618  62.46 0.0003967469    1.132    0.117
        20 -11.3901     96.0362    200.2360   1.1250636269e+02   2.2985060735e+01    0.3360847    0.2509187  26.47  0.001461051    1.436    0.304
        21 -12.0581    193.3373    193.6400   9.2974019788e+01   9.5814988627e+00    0.7073843    0.3983817 -50.75  0.003691453    3.003    0.667
        22 -10.7991    155.8861    200.0304   1.0076702534e+02   1.4432875652e+01    0.2902571    0.2239432  70.71  0.001842108    1.905    0.475
        23 -10.8859    209.9805    199.5572   9.1057187049e+01   6.4024977304e+00    0.1770431    0.1549723 -28.78 0.0006266302    1.537    0.349
        24 -16.4934     89.9693    242.3324   1.1724501870e+02   1.7351256264e+01       6.5753     1.960057  29.95   0.02675018    4.508    0.778
        25 -13.6584    113.3141    196.8382   1.0866364580e+02   2.1174624217e+01    0.4961447    0.3793723  40.30  0.003300934    1.093    0.085
        26 -11.4972    141.2685    198.0388   1.0328942001e+02   1.6912029205e+01    0.2264134    0.1954765  71.31 0.0007963821    1.421    0.296
        27 -10.6234     36.1438    197.8901   1.2435466011e+02   3.0402544046e+01    0.1937829    0.1116936  44.69 0.0004617304    1.379    0.275
        28 -12.4661     31.2875    197.8307   1.2531211880e+02   3.0889911704e+01    0.1991892    0.1383966  53.83 0.0005085008    1.109    0.098
        29 -10.7398     45.1601    198.6534   1.2260624168e+02   2.9343135484e+01    0.2842358    0.1965925 -61.65  0.002009855    1.760    0.432
        30 -13.3515     65.3725    191.8764   1.1799755587e+02   2.8305815223e+01    0.6978278    0.6219838 -85.12  0.003970602    1.255    0.203
        31 -10.9009    152.3385    193.7330   1.0055740547e+02   1.5874173524e+01    0.2755846    0.1814432  58.52  0.001378528    1.944    0.486
        32  -9.8390     73.5315    189.5391   1.1609007389e+02   2.7742544270e+01    0.2741302    0.1287639  47.42 0.0005177218    1.763    0.433
        33  -9.5185     32.0350    227.6446   1.2654700620e+02   2.5803596334e+01    0.1879717          nan  46.13 0.0006959991    4.984    0.799
        34 -10.6631    150.8014    182.1732   9.9150778402e+01   1.7854461846e+01    0.1812402    0.1527185  52.48 0.0006292041    1.267    0.211
        35 -11.5496     99.4890    180.8571   1.0964236946e+02   2.5876646149e+01    0.2242917    0.2024658  48.66 0.0005676326    1.079    0.074
        36 -11.2619    144.0158    178.7257   9.9988524991e+01   1.9482146589e+01    0.1846326    0.1460805  35.86 0.0009256526    1.088    0.081
        37 -10.5115     81.1627    195.0320   1.1501681355e+02   2.5807507452e+01    0.2918287    0.1863159  40.11  0.001401032    1.326    0.246
        38 -10.0369    165.0230    171.5873   9.4616616987e+01   1.7159071263e+01    0.1963471    0.1779056 -65.98 0.0005585215    1.460    0.315
        39 -11.8997    137.2471    170.8597   1.0016830351e+02   2.1874337764e+01    0.3639769    0.2689521  -6.63  0.002037736    1.852    0.460
        40 -11.2558    194.3730    167.4644   8.8313490112e+01   1.2823765995e+01    0.2864344    0.2536069  21.30 0.0008656326    1.139    0.122
        41  -9.1139     63.9795    223.6634   1.2059863930e+02   2.3101620237e+01    0.1345086   0.09543445  54.00 0.0004672773    1.069    0.064
        42 -10.2415    198.7727    222.7712   9.6340881277e+01   5.4545221235e+00    0.1607373    0.1134227  21.14  0.000661513    1.094    0.086
        43 -10.7925    230.0115    165.9920   8.1934226283e+01   7.2010675105e+00    0.1518172    0.1192488   2.99 0.0005762557    1.047    0.045
        44 -10.3009    203.8846    165.4666   8.6238133251e+01   1.1501554408e+01     0.321481    0.2030837 -27.33  0.001837614    1.614    0.380
        45 -10.2919    190.5856    161.4473   8.7887390543e+01   1.4303171382e+01    0.2316451    0.1831648  72.62  0.001285008    2.121    0.529
        46 -12.9881     94.7626    155.0487   1.0730561753e+02   3.1490561831e+01    0.6750972    0.4950804 -25.95  0.003110469    1.989    0.497
        47  -9.9981    140.5641    157.2344   9.7187773905e+01   2.3678633443e+01    0.2400595     0.193188  69.08  0.001157504    1.520    0.342
        48 -10.8878    189.1070    155.2372   8.6968839502e+01   1.5451606218e+01     0.386096    0.2985879  45.97  0.002285886    1.383    0.277
        49 -10.1509     43.9472    220.0718   1.2405902476e+02   2.5827720766e+01    0.1552158    0.1163282 -48.86  0.001171465    2.021    0.505
        50 -11.5827    133.8129    145.0528   9.6473592136e+01   2.7070368320e+01    0.9342494    0.2693565 -53.98  0.002808449    5.039    0.802
        51 -10.6444     48.6325    217.3717   1.2304909335e+02   2.5779747120e+01    0.2823859    0.1893081  18.48  0.001518341    2.067    0.516
        52 -10.2137    174.9206    149.1179   8.8496476852e+01   1.8923608212e+01    0.1966489    0.1832907  55.81 0.0006553964    1.287    0.223
        53  99.0000     43.3918    209.2043   1.2357544448e+02   2.7690010992e+01    0.4885356    0.2470612 -88.66     0.003087    2.087    0.521
        54 -11.8010    106.5113    140.3915   1.0211220450e+02   3.2647857510e+01    0.4900024    0.3074805 -29.10  0.002236467    2.430    0.588
        55 -12.5733     94.3861    140.5092   1.0516181781e+02   3.4544653110e+01    0.2756079    0.2608437 -14.00 0.0004730012    1.251    0.201
        56  99.0000     59.2537    215.9180   1.2097572945e+02   2.4868316966e+01    0.3963955    0.3869076  29.48  0.002204538    1.425    0.298
        57 -10.9535    106.0573    130.9047   1.0049790240e+02   3.4695583723e+01    0.3134334     0.280777 -80.77  0.001228129    1.153    0.132
        58 -11.4016    114.2254    130.6274   9.8376990581e+01   3.3356998451e+01    0.6160461    0.2402975  36.45  0.002005914    2.684    0.627
        59 -12.0533    118.6214    125.6804   9.6272391397e+01   3.3596027294e+01    0.6251653    0.3734657 -37.08  0.002853713    1.959    0.490
        60 -10.9286    135.3587    122.3365   9.1443656252e+01   3.1141803988e+01    0.5742628    0.1341403 -50.76  0.001423809    6.117    0.837
        61 -10.1766    160.9869    127.7774   8.6858571418e+01   2.5121844976e+01    0.2024067    0.1612591 -63.90  0.001051118    1.635    0.388
        62 -11.0131    101.6557    126.8680   1.0086619800e+02   3.6287666665e+01    0.2567979      0.22667 -17.42 0.0007089717    1.361    0.265
        63 -13.9963     55.7137    204.9895   1.2093214954e+02   2.7093997720e+01    0.7688015    0.5060025  40.56  0.002603845    1.297    0.229
        64 -10.2708    109.9165    119.2850   9.7160436031e+01   3.6490279009e+01    0.2258192    0.1998279 -48.82 0.0005952289    1.153    0.132
        65 -19.3790      7.9884    134.9603   1.2711198467e+02   4.5536396422e+01     16.90605     1.803184 -81.24   0.03919816   10.323    0.903
        66  -9.8398    168.1016    112.8668   8.1840298646e+01   2.6275525404e+01     0.299757    0.2179259 -77.81  0.001323319    2.364    0.577
        67 -11.1915    120.2903    111.2058   9.2636638417e+01   3.6281305715e+01    0.3265319    0.2699422  55.78  0.001712506    1.255    0.203
        68 -10.0889    205.6282    110.1118   7.4013317209e+01   1.8936962448e+01    0.2605471    0.1904006  33.46 0.0007074258    1.359    0.264
        69  -9.5160     99.7338    108.5559   9.7575565339e+01   4.0607271617e+01    0.1814082    0.1334289  52.43 0.0002787639    1.406    0.289
        70  -9.8930     73.5768    106.7517   1.0483787095e+02   4.5194882605e+01    0.1902056    0.1266327 -74.77 0.0006589244    1.585    0.369
        71 -10.2651     43.4533    231.2384   1.2470399072e+02   2.4113947390e+01    0.2405201   0.09826073  48.45  0.001540944    1.709    0.415
        72 -11.7408     53.3186     91.2737   1.0825137870e+02   5.1574900426e+01    0.4285169    0.2286174 -77.10   0.00157074    2.099    0.524
        73 -11.2295     41.9337     91.9070   1.1226184592e+02   5.2710944511e+01    0.2217606    0.2107738  61.65  0.000515087    1.158    0.136
        74  -9.7359     72.0708    230.0635   1.1955031226e+02   2.1202129931e+01    0.1522313    0.1037095  50.51 0.0004242022    1.093    0.085
        75  -9.5266     67.3549     71.0862   9.8417092108e+01   5.4474450307e+01    0.1958988    0.1679864 -60.05 0.0004897625    1.084    0.078
        76 -11.4988    161.7362     62.9398   6.9006803527e+01   3.6197853115e+01    0.3419079    0.2786533 -73.37 0.0004330503    1.517    0.341
        77 -11.1675    162.8601     55.6526   6.6409356193e+01   3.7056371722e+01    0.2843892    0.2431508 -19.10 0.0003644924    1.144    0.126
        78 -10.3415    172.2595    239.3575   1.0284253769e+02   7.2362180977e+00    0.1644299    0.1502827 -56.57  0.001397383    1.684    0.406
        79  -9.1972     43.0184    236.7655   1.2503723113e+02   2.3317466389e+01    0.1282319    0.1078155  45.86  0.000752796    1.295    0.228
        80  -9.2504     60.2257    236.2503   1.2203014098e+02   2.1595710914e+01   0.07773057   0.06939766  36.71 0.0001920319    1.384    0.277
        81 -12.3983     49.0008    233.5341   1.2384565964e+02   2.3193552407e+01    0.2516225    0.1445773  76.16    0.0005827    1.723    0.420
        82 -10.1036     36.1618    234.0890   1.2609884644e+02   2.4403870950e+01    0.1307083     0.107427  52.83 0.0005477327    1.225    0.184
        83 -10.7765    189.9341     14.9928   4.8811759167e+01   3.5194430015e+01    0.2239566    0.2079819 -40.18 0.0006854047    1.026    0.025
