#   1 NUMBER                 Running object number                                     
#   2 MAG_AUTO               Kron-like elliptical aperture magnitude                    [mag]
#   3 X_IMAGE                Object position along x                                    [pixel]
#   4 Y_IMAGE                Object position along y                                    [pixel]
#   5 X_WORLD                Barycenter position along world x axis                     [deg]
#   6 Y_WORLD                Barycenter position along world y axis                     [deg]
#   7 A_WORLD                Profile RMS along major axis (world units)                 [deg]
#   8 B_WORLD                Profile RMS along minor axis (world units)                 [deg]
#   9 THETA_WORLD            Position angle (CCW/world-x)                               [deg]
#  10 FWHM_WORLD             FWHM assuming a gaussian core                              [deg]
#  11 ELONGATION             A_IMAGE/B_IMAGE                                           
#  12 ELLIPTICITY            1 - B_IMAGE/A_IMAGE                                       
         1 -13.8964    135.7754    126.9527   1.1143137858e+02   3.0309397774e+01     2.171174    0.3740258 -49.65  0.004488886    8.392    0.881
         2 -14.4364    152.0398     55.9686   8.7107000730e+01   4.0002076078e+01       1.3843     1.228111  39.96 0.0009577178    1.107    0.097
         3 -14.8667    163.4770     40.9971   7.9698209173e+01   3.9171372077e+01     1.436321     1.107773 -10.30  0.003700095    1.447    0.309
         4 -11.4572    189.8432     14.6673   6.7323628951e+01   3.5166845502e+01    0.2374399    0.1995044  -5.56 0.0007835285    1.330    0.248
         5 -14.6905    178.7460      7.7005   6.6312283773e+01   3.8802309498e+01     1.667871    0.9379395  63.56  0.006015628    1.659    0.397
         6 -10.9575     21.9162    244.4456   1.5093744218e+02   2.3526336921e+01    0.1343205   0.09170064  58.97 0.0006546967    1.134    0.118
         7 -19.9400     74.1973    171.3171   1.3519729573e+02   3.1150666400e+01       16.217     7.185515 -71.07   0.07386775    2.590    0.614
         8 -10.6846     11.0370    240.8768   1.5280274389e+02   2.5050727097e+01    0.1053664   0.07076309  66.29 0.0008548368    1.234    0.189
         9 -10.7846    137.2442    198.1760   1.2361025545e+02   1.6831461150e+01    0.4521133    0.2565907  67.09  0.001777686    4.134    0.758
        10 -14.3796    167.3072    189.6282   1.1590711708e+02   1.3350879926e+01    0.6972366    0.6559988   1.29  0.004754125    1.252    0.202
        11 -13.5758    175.1827    193.4833   1.1490277804e+02   1.1507481496e+01    0.5018327    0.3599668 -42.68  0.002010374    1.771    0.435
        12 -12.9130    180.0239    192.5358   1.1377370381e+02   1.0863996850e+01    0.3596627    0.3423982 -43.34  0.001595042    1.495    0.331
        13 -13.9022    176.2817    187.6759   1.1373521302e+02   1.2168593760e+01    0.7888225    0.4812061 -60.31  0.003618021    3.392    0.705
        14 -11.3334    154.4897    196.0860   1.1960170103e+02   1.4440483672e+01    0.3169471    0.2458375  87.61    0.0017847    2.282    0.562
        15 -10.0937    131.6889    235.8736   1.2924652560e+02   1.1995151134e+01    0.1383211    0.1045552  48.72            0    1.319    0.242
        16 -11.7723    155.3046    190.2483   1.1854638586e+02   1.5217330699e+01    0.2410215    0.1621499  35.15  0.001371793    1.209    0.173
        17 -10.6479    139.3588    250.0286   1.2920612874e+02   9.1086837649e+00    0.2156446    0.1132406  38.26 0.0009428867    1.352    0.260
        18 -11.4675     36.4089    186.4453   1.4565539296e+02   3.2382052839e+01    0.2447224    0.1953852  -0.21 0.0006111719    1.780    0.438
        19 -11.1027     25.9947    184.7577   1.4797045261e+02   3.3704907130e+01    0.1607927    0.1325843  56.06 0.0002949708    1.088    0.081
        20 -12.2539     30.7412    183.0697   1.4678817511e+02   3.3604598259e+01    0.3737691    0.1894248  30.51   0.00114861    1.797    0.443
        21 -11.7668    154.1646    185.5124   1.1805375804e+02   1.6158567909e+01     0.243328    0.1958846  54.43 0.0007961967    1.455    0.313
        22 -10.8377     13.4594    233.2157   1.5219318196e+02   2.6065496288e+01    0.1156664   0.07901005  70.80 0.0003915364    1.280    0.219
        23 -11.4330      3.8519    179.6785   1.5281627254e+02   3.6527449712e+01    0.2270394     0.169833  46.95  0.001203444    1.165    0.141
        24 -10.6273     28.4437    179.4929   1.4714076225e+02   3.4542445117e+01    0.2519104    0.1586666  30.88  0.001574073    1.516    0.340
        25 -10.4767     13.8880    239.5729   1.5226240320e+02   2.5008771551e+01    0.2248581   0.05510314 -85.91  0.001083808    4.485    0.777
        26 -13.5312    195.5455    170.7754   1.0689111335e+02   1.1376520798e+01    0.7039554    0.4051723 -43.81  0.002921064    2.222    0.550
        27 -12.9932    177.4016    171.6118   1.1071665769e+02   1.4390734769e+01    0.4413934    0.3321276 -58.88    0.0023968    2.059    0.514
        28 -14.0432    141.1984    170.2316   1.1848783693e+02   2.0956328411e+01     1.156389      0.62923  35.70  0.004794774    1.582    0.368
        29 -10.3728     11.1973    174.2191   1.5096710742e+02   3.7077896518e+01     0.150606    0.1259063  77.97 0.0005007357    1.153    0.133
        30 -11.5536    203.0112    172.4330   1.0575922356e+02   9.8820140624e+00    0.2162781    0.1833212 -38.36 0.0009288809    1.554    0.357
        31 -12.1295    230.2117    167.0479   9.9838379721e+01   6.1405288241e+00    0.3483273    0.1480414 -39.00  0.001590687    2.836    0.647
        32 -11.7967     25.0623    225.6035   1.4978275412e+02   2.6282042698e+01    0.2399382    0.1275611 -68.84  0.001468183    2.285    0.562
        33 -11.7509    122.7550    165.9714   1.2221229063e+02   2.4903052351e+01    0.4272352    0.2101093  52.50  0.001238895    2.348    0.574
        34 -11.4374    200.9998    164.9771   1.0473294084e+02   1.1261785080e+01    0.2396424     0.197405 -45.75 0.0008894835    1.668    0.401
        35 -10.3943     25.8347    164.8641   1.4699081818e+02   3.7833785706e+01    0.2485735    0.1515999  -5.20  0.001284165    2.798    0.643
        36 -11.0141    222.8667    162.2834   1.0018838840e+02   7.9257482672e+00    0.2651877    0.1667909 -41.32  0.001142478    2.045    0.511
        37 -12.5021    164.3918    157.1695   1.1081393028e+02   1.9078616528e+01    0.3069456    0.2547845 -12.01 0.0008495862    1.270    0.212
        38 -14.5825    134.0048    145.1179   1.1569266181e+02   2.6997095970e+01      1.79064    0.5777953 -55.75  0.005185516    5.011    0.800
        39 -10.7784    219.1784    224.1635   1.1139649976e+02   1.2609938948e+00    0.1391232    0.1112547  21.30  0.000315348    1.318    0.242
        40 -10.6574      7.7508    220.7876   1.5298395744e+02   2.8621403969e+01   0.07805021   0.06933483  42.64 0.0002857796    1.369    0.269
        41 -10.1727    159.9802    248.2617   1.2518408181e+02   6.5848321769e+00    0.1527826    0.1099035  28.08 0.0007898313    1.044    0.042
        42 -12.0380    174.0109    148.9746   1.0705785402e+02   1.8651775916e+01    0.3516315    0.3131811 -31.91  0.001447187    1.263    0.208
        43 -13.8467    143.6035    143.6659   1.1300592966e+02   2.5461280078e+01    0.8585508    0.4827262 -61.95  0.003412364    2.825    0.646
        44 -10.4083     19.6415    222.9993   1.5075145056e+02   2.7218425660e+01    0.1286986    0.1118186  77.33  0.001086687    1.327    0.246
        45 -11.4449     22.9127    155.2223   1.4719690093e+02   4.0178299367e+01    0.3273826    0.2049025 -84.96  0.001927578    1.485    0.327
        46 -10.2471     23.6902    214.6698   1.4968062067e+02   2.8294718185e+01     0.236976    0.1202325 -59.29   0.00143124    2.665    0.625
        47 -11.7966     27.0213    136.2657   1.4480368560e+02   4.4140189361e+01    0.4302956    0.2407266  -5.85  0.002002701    2.995    0.666
        48 -11.0121      4.9356    137.8144   1.5118585240e+02   4.5365988290e+01    0.2462044     0.143768  84.42 0.0009082566    1.463    0.317
        49 -11.9019    116.2166    212.0046   1.2986721352e+02   1.7728980182e+01    0.2896445    0.1691177  58.02  0.001504437    2.006    0.502
        50 -12.4602    160.6429    128.1045   1.0552987216e+02   2.4985317029e+01    0.3648305    0.3505021  64.60  0.001962627    1.213    0.176
        51 -10.3640    102.7381    208.9923   1.3245907953e+02   2.0126020090e+01    0.2233551    0.1678531  24.31 0.0005823598    1.331    0.249
        52 -11.7925    140.3175    120.4893   1.0875961523e+02   3.0688634993e+01    0.3210898    0.2378434  72.42 0.0007268153    1.894    0.472
        53 -10.3135    100.4694    206.4833   1.3269809717e+02   2.0868832004e+01    0.1670702    0.1145531  56.39 -7.798688e-06    1.412    0.292
        54 -11.3234    110.7511    212.3635   1.3107787995e+02   1.8445330550e+01    0.1859677    0.1472927  62.88 0.0005755063    1.372    0.271
        55 -12.8892    110.1356    208.6062   1.3080701035e+02   1.9153283586e+01    0.4243816    0.2583438  33.18  0.001280765    1.339    0.253
        56 -10.6288    167.5704    112.4555   1.0016279584e+02   2.6351875094e+01    0.2928431    0.2189569  82.60  0.001281875    2.150    0.535
        57 -13.1354     11.6667    206.1065   1.5185299991e+02   3.0882080340e+01    0.4235843     0.236531  23.83  0.002198076    1.908    0.476
        58 -11.4983    157.8035    202.6751   1.1986748129e+02   1.2924678069e+01    0.4955667    0.2676424  56.63  0.002176754    3.151    0.683
        59 -10.7987    205.3269    110.2296   9.1953748073e+01   1.8551053633e+01    0.2980831    0.1887459  40.01  0.001026254    1.555    0.357
        60 -12.2313    163.8036    203.2099   1.1870936837e+02   1.1911721928e+01    0.2859704    0.2568252 -34.83  0.001060842    1.432    0.301
        61 -10.6683     10.5960    101.7470   1.4742553508e+02   5.3546605752e+01    0.2556561    0.1487791  63.07 0.0008675091    1.660    0.398
        62 -12.6121    161.2016    197.6930   1.1843025684e+02   1.3128477823e+01    0.3255247    0.2847241  38.81  0.001309038    1.244    0.196
        63 -11.8116    168.7395    202.3792   1.1758212697e+02   1.1260928764e+01    0.2400188    0.1830659  53.70 0.0006563283    1.682    0.405
        64 -10.6333    144.1707     80.1655   9.6825203822e+01   3.7768190202e+01    0.2418857     0.212913  18.44 0.0006210179    1.181    0.153
        65 -11.7871    133.7680    247.4557   1.3000725590e+02   1.0173331019e+01    0.1497818    0.1265118  33.57 0.0003160159    1.210    0.174
        66 -10.7137    125.0826    244.1600   1.3134958006e+02   1.1755687681e+01    0.2464876     0.117688 -54.13  0.001461109    2.921    0.658
        67 -13.0283    167.3804     32.8712   7.6260283620e+01   3.9175040522e+01    0.4355276    0.4035371  -9.33 0.0008750568    1.140    0.123
        68 -11.0616     13.5219     59.9465   1.4173576559e+02   6.3746201151e+01    0.2095001    0.1675503  48.15 0.0004355852    1.401    0.286
        69 -10.5128    144.2536     33.8279   8.0888195849e+01   4.5372248227e+01    0.2682393    0.2042249  77.56 0.0008343174    1.412    0.292
        70 -10.4870    150.7734    245.8091   1.2663043474e+02   8.1119007264e+00    0.1500439    0.1110877  26.90 0.0004313668    1.087    0.080
