#   1 NUMBER                 Running object number                                     
#   2 MAG_AUTO               Kron-like elliptical aperture magnitude                    [mag]
#   3 X_IMAGE                Object position along x                                    [pixel]
#   4 Y_IMAGE                Object position along y                                    [pixel]
#   5 X_WORLD                Barycenter position along world x axis                     [deg]
#   6 Y_WORLD                Barycenter position along world y axis                     [deg]
#   7 A_WORLD                Profile RMS along major axis (world units)                 [deg]
#   8 B_WORLD                Profile RMS along minor axis (world units)                 [deg]
#   9 THETA_WORLD            Position angle (CCW/world-x)                               [deg]
#  10 FWHM_WORLD             FWHM assuming a gaussian core                              [deg]
#  11 ELONGATION             A_IMAGE/B_IMAGE                                           
#  12 ELLIPTICITY            1 - B_IMAGE/A_IMAGE                                       
         1 -12.1583     43.5893     45.1331   5.6730194266e+01   6.4491449685e+01     1.014754    0.7550377 -74.43 0.0006386596    2.234    0.552
         2 -12.2945    119.6996     38.8388   2.8188052720e+01   4.9606139768e+01    0.8791542    0.4052492 -46.27  0.003125666    2.441    0.590
         3 -11.0641     61.4480     35.7897   4.4634829351e+01   6.3009866213e+01    0.7799342    0.4859833   3.16  0.003431243    2.453    0.592
         4 -12.2092    104.8426     13.4215   2.2173373478e+01   5.6107861375e+01    0.4500616    0.3918808 -22.87  0.001667396    1.309    0.236
         5 -13.0625    105.3573     20.4361   2.4721764738e+01   5.5270479816e+01    0.3318358    0.2915671  81.52  0.000478375    1.139    0.122
         6 -12.4255    113.7055     25.5096   2.4810276296e+01   5.2699008667e+01    0.8184188    0.3699608  50.80  0.002363655    2.020    0.505
         7 -11.0212      6.5086     10.8537   6.3511994904e+01   7.5211572994e+01    0.6636355    0.5626091 -45.68  0.004596168    1.458    0.314
         8 -10.2622     12.8157      2.1665   5.3439122600e+01   7.5822725073e+01    0.2534381    0.1873262   8.80  0.001041199    1.127    0.113
         9 -10.3493     12.8053      8.4436   5.7353943963e+01   7.4910271523e+01    0.4202826    0.2164696 -49.03  0.001346271    2.418    0.586
        10  -9.9572     29.4954      1.9978   4.2386730702e+01   7.3348816477e+01    0.1784906    0.1512943  -5.45 0.0003447629    1.184    0.155
        11 -11.8159     26.3647     28.5065   5.8886382205e+01   6.9937288490e+01     0.569162    0.4284577  -9.07  0.003421751    1.246    0.198
        12 -11.9210     20.2968     21.8158   5.9442342548e+01   7.1853247122e+01    0.6809779    0.3722706 -27.40  0.002349167    1.902    0.474
        13  -9.4402     25.8736      3.8217   4.5677562164e+01   7.3723404955e+01    0.1599008    0.1300789  18.96 0.0002369059    1.054    0.051
        14 -10.2252     22.1419      3.0245   4.7512236016e+01   7.4400794817e+01    0.2053533    0.1721024   1.95  0.001112236    1.100    0.091
        15 -12.2161     16.0299     14.0859   5.8263986251e+01   7.3642819168e+01    0.9087106    0.4126796 -21.57  0.003731318    3.326    0.699
        16 -12.0543     22.5357     11.0057   5.2143181586e+01   7.3259532446e+01    0.5522376    0.3583673  18.85  0.002329029    1.420    0.296
        17 -10.8632    122.4645      5.3241   1.6188528622e+01   5.2564752407e+01    0.4140511    0.2234779 -46.31 0.0002191133    2.005    0.501
        18 -11.0706    136.2554     22.1273   1.9613957394e+01   4.7600807153e+01    0.5149108    0.3841288  73.62  0.002712705    1.214    0.177
        19 -11.1843    127.6389     16.6416   1.9197611789e+01   5.0263131873e+01    0.4881501    0.4072004   0.32  0.001875432    1.487    0.327
        20 -11.3443    135.2223     14.7582   1.7430595015e+01   4.8608051387e+01    0.6047657    0.2957129  60.69  0.002343421    1.788    0.441
        21 -11.9502     48.3044     12.8506   3.9214737545e+01   6.8697763495e+01    0.7919881    0.3232675  51.64   0.00344355    2.421    0.587
        22 -11.9219     35.7065     18.0723   4.8268260588e+01   7.0240181574e+01     0.665284    0.2689832 -29.79  0.002808776    2.894    0.654
        23 -11.1426     67.5019     18.8080   3.4574299394e+01   6.4110342837e+01    0.4497835     0.373457  89.63  0.001815383    1.627    0.385
        24 -12.2258    164.8443     18.0611   1.4658970149e+01   4.1218553756e+01    0.5039657     0.281556  44.38  0.002488624    2.265    0.559
        25 -10.4962    147.7052     16.4665   1.6253033456e+01   4.5430040716e+01    0.6070297    0.2212329  43.85  0.002124162    4.124    0.758
        26 -11.5615    240.1886     16.4402   8.2518032785e+00   2.5682720553e+01    0.3770823    0.2297406  56.38  0.002430234    2.152    0.535
        27 -11.5097    228.6890     15.9533   8.8437518977e+00   2.7868535670e+01    0.2914377    0.1946252  80.03 0.0003558096    1.503    0.335
        28 -10.9121    225.6871     13.7042   8.5697606836e+00   2.8677612349e+01    0.2080255    0.1801296 -64.95  0.000411569    1.156    0.135
        29 -10.9907     85.9200     14.1540   2.6849106181e+01   6.0513181775e+01    0.3681917     0.284678   1.29  0.001307067    1.504    0.335
        30 -10.1032    218.8687     13.1991   8.8964548192e+00   3.0057245268e+01    0.2391901    0.1546891 -30.97  0.001524047    1.619    0.382
        31 -10.6936    191.0100     13.2499   1.0936998495e+01   3.5823931269e+01     0.339451    0.1483123 -38.23  0.001500924    2.032    0.508
        32 -10.4332    192.5130      8.5275   9.6986502810e+00   3.5969724579e+01    0.2656036    0.1929997 -60.87  0.001077522    1.172    0.147
        33 -10.9260    193.6680      5.6845   8.9469563475e+00   3.5996232032e+01    0.2499043    0.1707278  87.64  0.001594406    1.306    0.235
        34 -11.2510    206.5261      2.6445   7.4048781192e+00   3.3588519299e+01    0.5456637    0.2085515 -87.90  0.002526078    2.839    0.648
        35 -10.7210    218.6636      3.8760   6.9512764586e+00   3.1031296225e+01    0.2691362    0.1954414  74.77  0.000892067    1.439    0.305
        36 -10.9597    223.7085      2.6473   6.4198092328e+00   3.0167110047e+01    0.2161974    0.1663822 -64.34 0.0004722458    1.012    0.012
        37  -9.6502    121.1073     11.7517   1.8602002123e+01   5.2324617700e+01    0.3280344    0.1465203  75.47   0.00122136    2.245    0.555
        38 -10.3308    168.6685      9.7635   1.2036555700e+01   4.1162695242e+01    0.4321709    0.1659127  60.79  0.001969477    2.404    0.584
        39  -9.4434    163.6771      9.6636   1.2498872969e+01   4.2325063740e+01    0.2080913    0.1567324 -11.84  0.001142666    1.728    0.421
        40  -9.9267    163.4682      6.4884   1.1658719441e+01   4.2669844529e+01    0.4779703    0.2490544  29.22  0.001996747    3.823    0.738
        41  -9.6740    145.2396      9.8427   1.4585570718e+01   4.6661498305e+01    0.2070661    0.1653144  28.73 0.0007104348    1.586    0.369
        42 -11.0640    242.7666      4.1450   5.7530247284e+00   2.6473684546e+01     0.254117    0.1441871 -71.83   0.00116267    1.511    0.338
        43  -9.6022    245.9040      1.3915   5.0914685391e+00   2.6184389306e+01    0.1392891   0.08701749  89.49 0.0003548515    1.523    0.343
        44 -10.3926    247.2014      6.1903   5.9273087171e+00   2.5482868538e+01    0.1739936    0.1221709 -60.41 0.0005333627    1.056    0.053
        45  -9.9754      1.1307      7.6939   6.6117713309e+01   7.6234768678e+01    0.3365277   0.08142014 -47.31   0.00136742    3.450    0.710
        46 -10.8282      2.5708      1.9622   6.1516019879e+01   7.7025208140e+01    0.3406347     0.181242   8.42  0.001871311    1.918    0.479
        47 -10.9545    232.3082      7.0790   6.8497133506e+00   2.8097633425e+01    0.2722259    0.1683895 -87.69  0.001294531    1.502    0.334
        48 -11.6745    233.4720      2.5541   5.8978407805e+00   2.8326427492e+01    0.3638077    0.1712688 -64.39  0.002160338    1.817    0.450
        49 -10.4609     73.7141      3.1290   2.5188047223e+01   6.4327908433e+01    0.5693454    0.1953522  50.63  0.002420701    2.293    0.564
        50  -8.6440     89.3247      7.2939   2.3089529790e+01   6.0366543619e+01    0.1372868   0.08423717  39.18 0.0007019359    1.620    0.383
        51  -9.9840     62.2658      6.6685   3.0469133613e+01   6.6530501648e+01    0.3002317    0.1717439  42.78   0.00158521    1.509    0.337
        52 -10.2765    177.3294      5.9507   1.0276553509e+01   3.9556262463e+01    0.2471006    0.1541663 -89.99 0.0005154442    1.447    0.309
        53 -10.2970    154.2794      6.1771   1.2495071452e+01   4.4846953936e+01    0.1784863    0.1601525  27.14 0.0008771482    1.408    0.290
        54  -9.6632     77.9240      7.2538   2.5945075170e+01   6.3011406488e+01    0.2830012    0.2084327 -67.64  0.001164593    1.818    0.450
        55 -11.7550    212.1711      9.4267   8.5245875742e+00   3.1777969722e+01    0.4488613    0.3228491  -5.22  0.002239458    2.177    0.541
        56 -11.5172    133.7397      2.8136   1.3833239581e+01   5.0043355024e+01    0.4177863    0.2726114  72.19   0.00237853    1.316    0.240
        57  -9.2655    128.6784      1.2945   1.3986001006e+01   5.1389093026e+01    0.2062745    0.1139563  77.73 0.0005599865    1.611    0.379
        58 -10.3852     41.5900      3.8968   3.7280829184e+01   7.0980437045e+01    0.2922295    0.1863917  11.01 0.0009382558    1.753    0.429
        59 -10.1143    141.9851      3.5284   1.3068134683e+01   4.8001233525e+01    0.2937541    0.2043957  78.22  0.001214572    1.246    0.197
        60 -10.5696    113.5018      2.8668   1.6699836521e+01   5.4941345482e+01    0.2782813      0.25186  86.56  0.001830563    1.083    0.077
        61 -10.2531    187.3590      2.3330   8.6094904208e+00   3.7673009803e+01     0.316489    0.1649922 -77.30  0.001704657    1.841    0.457
        62 -10.8131    105.4842      2.0710   1.7738936525e+01   5.6943111453e+01     0.402602    0.2248959  87.73  0.001948142    2.009    0.502
        63 -10.1047    153.0229      1.5120   1.1298195684e+01   4.5549644598e+01    0.2576679    0.1270968  79.63 0.0008184643    1.815    0.449
        64  -9.1377     33.5487      1.5441   3.9871651385e+01   7.2700194921e+01    0.1242669   0.09972233  21.96 0.0001749452    1.020    0.020
        65 -10.3046    184.6770      6.4097   9.7952258435e+00   3.7879943516e+01    0.3439621     0.172261 -59.04  0.001816702    1.863    0.463
        66  -9.9726     43.5194    116.4814   7.6792848305e+01   4.7929409667e+01    0.3070076    0.2282634  35.12   0.00107986    1.387    0.279
        67  -8.7431     89.3509    250.3191   8.1457256251e+01   1.1066056734e+01    0.1216233   0.08788007  -6.18 0.0007047834    1.741    0.426
        68 -10.8024     50.0329    249.6415   9.0006601099e+01   1.5684783249e+01     0.281987    0.1277786  53.46  0.001431241    2.106    0.525
        69 -10.4005      7.7102    114.9501   9.0081945265e+01   5.1445026005e+01    0.4125746    0.2156616 -57.76 0.0005914941    1.666    0.400
        70 -12.1815      2.6111    111.8444   9.1651924363e+01   5.2533928497e+01    0.4928092    0.3118289 -71.29  0.002164119    1.379    0.275
        71 -11.1789      4.9375    105.1407   8.9969338501e+01   5.4141441514e+01    0.4871051     0.342509   3.71  0.002680067    1.607    0.378
        72  -9.8898     37.6088    116.6241   7.9034317117e+01   4.8544133423e+01    0.2634971    0.2120049 -53.12  0.000640277    1.172    0.147
        73  -9.4752     79.8179    115.1777   6.3484617660e+01   4.3098984165e+01    0.3698807    0.2852092  84.99  0.001711297    1.705    0.413
        74  -9.1698     67.7400    114.9809   6.7627272372e+01   4.5076597961e+01    0.2266429    0.1593809  54.46  0.001029077    1.642    0.391
        75  -9.3166     57.6445    114.4437   7.1149302160e+01   4.6671935825e+01    0.2784254    0.1781687  81.62  0.001076462    2.402    0.584
        76 -11.6234     25.3907    107.3939   8.2160200580e+01   5.2122627914e+01     0.808642    0.4641619 -37.26   0.00371325    1.845    0.458
        77 -10.9219     34.6720    103.3640   7.7704195209e+01   5.2281224361e+01     0.787317    0.3513463   6.60  0.002609284    3.385    0.705
        78 -11.7615     21.4865    114.5570   8.4812727145e+01   5.0584066006e+01    0.8831267    0.3090919  15.41  0.003178166    3.319    0.699
        79 -11.1303     28.3040    112.9776   8.1952421142e+01   5.0411390291e+01    0.3663479    0.3067522 -18.31  0.001108152    1.285    0.222
        80  -9.9451    104.7863    112.8296   5.4905922660e+01   3.9124663507e+01    0.3373494    0.2121221  36.32 0.0008957895    1.610    0.379
        81 -10.0334     48.6364    112.0597   7.4001846032e+01   4.8459715140e+01    0.3233078    0.2128102  27.89  0.001525832    1.560    0.359
        82  -9.3402    120.1427    109.8003   4.9704479371e+01   3.6733045151e+01    0.2134594     0.181572 -12.53 0.0005322627    1.328    0.247
        83 -10.1849    102.6167    109.0690   5.4593203197e+01   4.0403704844e+01    0.5526354    0.3083989  14.77  0.001723686    3.754    0.734
        84 -11.4918     79.9260    108.2345   6.1750100566e+01   4.4767343467e+01    0.5313753    0.3475551  30.06  0.001021662    1.577    0.366
        85  -9.1542     68.8159    110.6129   6.6234679547e+01   4.6001145613e+01    0.2177991    0.1349535  42.51 0.0006793599    1.672    0.402
        86 -10.3758     16.1713    109.3042   8.6099608923e+01   5.2357645185e+01    0.2903253    0.2388298  65.20 0.0006801237    1.317    0.241
        87  -8.6916    134.7369    109.7138   4.5855499385e+01   3.3724819528e+01    0.1450631    0.1182017  -4.25 0.0002014787    1.490    0.329
        88  -9.4600     45.5555    105.6741   7.3852014180e+01   5.0470299659e+01    0.2501933    0.1311611 -56.72 0.0005378859    1.764    0.433
        89 -10.4926     89.4314    104.9698   5.7703367862e+01   4.3849106647e+01    0.4685027    0.2181382  37.15 0.0006899766    2.152    0.535
        90 -10.2426     85.7111    103.6551   5.8597519070e+01   4.4835855345e+01     0.289645    0.2229132 -39.22  0.000569566    1.320    0.242
        91  -9.2517    182.1278    104.5089   3.4484638930e+01   2.4867171774e+01    0.1977021    0.1391609  52.59  0.001015041    1.538    0.350
        92 -12.3130     17.5457    100.6964   8.4223834612e+01   5.4483441361e+01    0.3753439    0.3091923 -27.74 0.0004975098    1.239    0.193
        93 -10.8067     26.9103     85.9173   7.7360473949e+01   5.7443679696e+01    0.9340225    0.5764506  14.12  0.004560643    1.748    0.428
        94 -11.1221     22.7543     94.5529   8.0951642365e+01   5.5643947633e+01    0.3517343    0.2813864 -24.13 0.0008991548    1.279    0.218
        95 -11.0449     18.1917     91.1927   8.2296582843e+01   5.6858487568e+01    0.4776631    0.3153838 -84.82  0.001967327    1.695    0.410
        96 -11.3871     89.8605     88.0792   5.2832752926e+01   4.7574264346e+01     1.244876    0.6331411 -31.06  0.004445254    2.741    0.635
        97 -11.9497     68.5146     96.0697   6.2688736225e+01   4.9587020489e+01    0.6896219    0.4884217   6.87 0.0007739504    1.754    0.430
        98 -10.3423     67.1409     81.7050   5.9131658468e+01   5.3135153646e+01    0.4538135    0.3179165   9.97   0.00208613    1.749    0.428
        99 -10.7620     79.7871     84.0860   5.5123100374e+01   5.0364858828e+01    0.7144328    0.3633391 -41.25  0.002861669    2.039    0.509
       100 -11.3829     74.9082     78.7458   5.5260028584e+01   5.2421815239e+01    0.7440079    0.5241678  45.33  0.003574118    1.465    0.317
       101 -11.0040     77.9389     96.7040   5.9420617372e+01   4.7845329043e+01     0.468249    0.3517971  59.27  0.001251433    1.599    0.375
       102 -11.1831     79.8582     92.9924   5.7705660781e+01   4.8360106545e+01     0.777727    0.3789484  43.12  0.003038191    2.092    0.522
       103 -10.8889     51.8524     99.3428   6.9944242818e+01   5.1261784844e+01    0.6438723    0.2947889 -41.18  0.001449159    2.374    0.579
       104  -8.9324    120.3085    101.3308   4.7403796776e+01   3.8508228484e+01    0.1557697    0.1214749  -2.16  0.000438176    1.665    0.399
       105 -12.0950      9.4202     97.0653   8.7039303816e+01   5.5959711334e+01    0.4640159    0.4413944  12.87            0    1.163    0.140
       106 -10.0449     30.8579     95.3663   7.7663876009e+01   5.4701457136e+01    0.4300709    0.1136309 -51.77  0.001432755    3.069    0.674
       107 -10.4262    120.0363     85.3654   4.2963947995e+01   4.1811366203e+01    0.5757682    0.3667082 -55.50  0.002514157    1.800    0.444
       108 -10.5253    121.7018     93.6628   4.4903704761e+01   3.9795854371e+01    0.3674755    0.1885617 -46.07  0.001460667    1.974    0.493
       109 -10.1762     35.4076     92.5969   7.5136259301e+01   5.4930531992e+01    0.5844412    0.3635982 -81.86  0.002607463    2.054    0.513
       110  -9.7785     39.7342     90.6044   7.2833357772e+01   5.4942832154e+01     0.287566    0.1827725 -43.37 0.0005864742    1.506    0.336
       111 -10.7072     43.1626     94.3703   7.2284836526e+01   5.3604618857e+01    0.4500355    0.3218798  35.46  0.002264971    1.458    0.314
       112  -9.7213     42.9859     90.9917   7.1549864545e+01   5.4461105085e+01    0.2150506    0.1978198 -39.16 0.0003123858    1.022    0.021
       113 -11.6749     44.2353     84.8718   6.9469090500e+01   5.5793515539e+01    0.7229003    0.4416844  17.52  0.002356069    1.792    0.442
       114  -9.9368     37.0740     86.0000   7.2870138452e+01   5.6377375403e+01    0.3992639    0.1863715  17.80  0.001494171    2.454    0.593
       115  -9.6795    115.7248     93.5326   4.6501937580e+01   4.1104732137e+01    0.2911681    0.1462405  40.49 0.0006853595    2.047    0.512
       116 -11.6780     98.4678     91.0292   5.0906375707e+01   4.5225332913e+01    0.3791862    0.2620886  48.98 -7.56679e-05    1.486    0.327
       117 -10.2815     49.7939     91.6009   6.8869196451e+01   5.3442271046e+01    0.3588293    0.2410766  36.32  0.001568271    1.535    0.348
       118 -11.6072      7.2360     88.6276   8.6678773551e+01   5.8228169436e+01    0.5692261    0.3937092   6.31  0.002138018    1.588    0.370
       119  -9.9470     66.4985     88.7245   6.1432295918e+01   5.1641091761e+01    0.3618138    0.2487565  -5.06   0.00119758    1.979    0.495
       120 -10.5759    104.1440     87.2579   4.8043986459e+01   4.4851590808e+01    0.2677353    0.2082098 -30.11   0.00112478    1.383    0.277
       121 -10.6992    143.2244     84.5801   3.7085344193e+01   3.6784440205e+01    0.2552435     0.242649 -44.82 0.0003302135    1.048    0.046
       122  -9.9216    133.6530     84.9810   3.9405700507e+01   3.8857499435e+01    0.2771407    0.2039337  71.69  0.001008482    1.625    0.385
       123 -11.1800    112.8409     83.3327   4.4333627337e+01   4.3786134573e+01    0.4304809    0.2877172  57.97  0.001628689    1.640    0.390
       124  -9.5636     46.7790     75.3889   6.5712211055e+01   5.7684610640e+01    0.3618077    0.2302001 -49.95  0.001089238    1.507    0.336
       125 -11.3666     53.3191     75.8954   6.3016176542e+01   5.6636992400e+01    0.6631582    0.3637953 -53.84  0.002913979    1.838    0.456
       126 -11.1249     58.0483     77.5936   6.1540594245e+01   5.5534400130e+01    0.4793746    0.3416561 -75.26 0.0005008258    1.956    0.489
       127 -10.7900    125.7399     94.6930   4.4126278328e+01   3.8714604701e+01      0.53994    0.4013536  86.93 0.0002591179    1.919    0.479
       128 -10.3723    102.9481     79.6287   4.6089685139e+01   4.6652820470e+01    0.3588254    0.2162907 -39.36  0.000639789    1.715    0.417
       129  -9.8432    103.3781     74.8511   4.4460565007e+01   4.7495193531e+01    0.3166821    0.2352399  73.01  0.001465207    1.747    0.428
       130  -9.5118      1.3361     80.5245   8.8065553231e+01   6.0552152912e+01    0.2065672    0.1086832 -69.60 0.0002423313    1.677    0.404
       131  -8.9468     88.6870     73.2903   4.8619836135e+01   5.0890676612e+01    0.2140414    0.1951084 -31.68 0.0004266789    1.115    0.103
       132 -10.1982     93.1591     72.8931   4.7013003488e+01   5.0047965910e+01      0.35106    0.2687326  63.90 0.0006806286    1.539    0.350
       133 -10.6640     87.9793     77.2445   5.0134655121e+01   5.0233934975e+01    0.6065806    0.3091046  47.27  0.002441152    2.001    0.500
       134 -10.4646     94.2130     76.5863   4.7862327984e+01   4.9097152664e+01    0.6070161    0.3582355  34.89  0.002594591    1.798    0.444
       135 -11.4464     14.0181     74.6434   8.0917305797e+01   6.1263112528e+01    0.4398288    0.3363158 -85.93  0.002319627    1.498    0.332
       136  -9.6548     14.6074     67.3782   7.8967119029e+01   6.2959055354e+01    0.4625978      0.24785   3.66  0.002176326    2.099    0.524
       137  -8.9608    134.5124     77.4842   3.7041236477e+01   4.0036380173e+01    0.1460113    0.1412414 -88.11 0.0004898832    1.029    0.028
       138  -9.0756    158.7859     76.4032   3.1645274886e+01   3.4704514872e+01    0.1832741    0.1317117  46.81 0.0003645092    1.469    0.319
       139  -9.1412    112.4760     75.3316   4.1990567919e+01   4.5407875843e+01    0.2604184     0.135799  49.05 0.0008623619    1.875    0.467
       140 -10.0906     67.1764     74.5809   5.6902216214e+01   5.4693478043e+01    0.4642335    0.1752401  36.14  0.001651558    2.648    0.622
       141 -10.0757     25.0055     74.4553   7.5549759369e+01   6.0409433090e+01    0.3234288    0.1766125 -54.77 0.0005708516    1.635    0.388
       142 -10.8156     81.2053     72.8783   5.1077072184e+01   5.2463883410e+01     0.688245    0.2376976 -39.65  0.001603817    3.236    0.691
       143 -10.5883     77.9812     67.4898   5.0436389189e+01   5.4172657977e+01    0.5358849    0.3614389 -59.37  0.002356152    1.864    0.464
       144 -10.1742     32.7421     74.0331   7.1754174161e+01   5.9726524056e+01    0.4094416    0.2947263 -78.99  0.001605756    1.749    0.428
       145 -11.8446     40.6649     69.5510   6.6742287787e+01   5.9820363049e+01     0.508164    0.3484256 -54.64  0.001497594    1.455    0.313
       146 -10.8757     36.2136     71.7730   6.9486567202e+01   5.9859312635e+01    0.3558295    0.3124785  11.59  0.001082064    1.142    0.124
       147 -10.7196      2.0709     71.4876   8.6174123243e+01   6.2731386186e+01    0.3788201    0.1973938 -63.72  0.001367648    1.637    0.389
       148 -12.5756      6.3846     61.6163   8.1916756721e+01   6.4855120320e+01    0.8128324     0.480348 -27.21  0.002871296    1.654    0.395
       149  -9.6055    186.9029     71.6375   2.5723299580e+01   2.9286706037e+01    0.2391263    0.1816159 -26.55  0.001323245    1.436    0.304
       150  -9.8890    153.2053     72.7404   3.1710505134e+01   3.6578390428e+01    0.3454027    0.1737395  43.98  0.001415933    2.241    0.554
       151 -11.1681    122.8081     68.9413   3.7282962729e+01   4.4227619321e+01    0.5051806    0.2934086  45.86   0.00154744    1.708    0.415
       152  -9.8267    217.5364     66.4942   2.0594005701e+01   2.3822779670e+01    0.2204992    0.1211654  64.54 0.0006634882    2.025    0.506
       153  -9.5946     91.8287     57.5994   4.2229119406e+01   5.3165211698e+01    0.2990357    0.2788514  56.90  0.001485392    1.105    0.095
       154 -10.8046     88.2215     56.0069   4.2824634624e+01   5.4217729123e+01    0.7245393    0.2913736 -39.03  0.002726297    2.607    0.616
       155 -11.0101     92.4978     62.7327   4.3814587811e+01   5.2107701645e+01    0.5291451    0.2704455  51.23  0.002176788    1.976    0.494
       156  -9.1973     52.1345     65.8037   6.0316156789e+01   5.9032149810e+01    0.1972464    0.1569848   0.10   0.00070013    1.321    0.243
       157 -10.3987    201.6272     64.9221   2.2116868985e+01   2.7201894235e+01    0.2523488    0.1788932  68.93 0.0006462715    1.507    0.337
       158 -10.2195    158.1167     63.2521   2.8163515604e+01   3.6967390183e+01    0.4355286    0.2223632  45.56  0.001341199    2.207    0.547
       159  -8.7539    155.2685     60.6926   2.7954128769e+01   3.8017032456e+01    0.1406632    0.1018864 -67.65 0.0006946071    1.537    0.350
       160  -9.9695    105.8420     63.2491   3.9959866718e+01   4.9084970088e+01    0.4217891     0.152374  42.72  0.001412679    2.932    0.659
       161 -10.4920    106.2366     58.2948   3.8179944235e+01   4.9844523818e+01    0.4375243    0.2877923 -89.15  0.001664666    2.706    0.630
       162  -9.7646     57.8019     61.8938   5.6498216939e+01   5.8943663777e+01    0.3616458    0.2659429 -76.17  0.001512918    2.112    0.527
       163 -10.4342     63.6978     61.1475   5.3755684413e+01   5.8082423176e+01    0.4675862    0.3332736  19.24  0.002315683    1.521    0.343
       164  -8.9348    113.3213    249.3307   7.6114255673e+01   8.2994903122e+00    0.1237067   0.08658282  -5.60 0.0007049137    1.695    0.410
       165 -10.2777     51.9550     48.1806   5.3967516719e+01   6.2590618072e+01    0.3145856    0.2218525  19.14 0.0006672515    1.462    0.316
       166 -10.2914     51.0437     61.4982   5.9336026121e+01   6.0106822179e+01    0.3413028    0.2790478  41.64   0.00137536    1.320    0.242
       167 -11.3045     40.4199     56.9616   6.2750042743e+01   6.2593746989e+01    0.3598293    0.2381017  33.37 0.0006906545    1.526    0.345
       168 -11.1094     43.1058     61.9299   6.3157897993e+01   6.1173983463e+01    0.3458682     0.256583 -46.52  0.001849461    1.320    0.242
       169 -10.8736     46.1924     59.1923   6.0763036180e+01   6.1314374965e+01    0.3258611    0.2842833  45.98 0.0008925639    1.320    0.242
       170 -10.0266    234.0141     62.1955   1.7966446036e+01   2.1339207617e+01    0.1944846    0.1146355 -69.00 0.0006221557    1.935    0.483
       171  -9.8567    114.0831     61.1532   3.7020613419e+01   4.7569239410e+01    0.3528917    0.2307903 -54.38  0.001618104    1.778    0.438
       172  -9.6514     83.9821     61.1892   4.6108526245e+01   5.4178370410e+01    0.2802453     0.225189 -81.94  0.000882439    1.733    0.423
       173  -9.8083     80.1594     58.3351   4.6426424411e+01   5.5483267457e+01     0.279908    0.2013443 -18.78 0.0008192396    1.649    0.394
       174 -10.3771    124.9227     56.4213   3.2824774992e+01   4.5809455315e+01    0.2909684    0.2828964  27.22 0.0006395563    1.091    0.083
       175 -11.9110    118.1546     55.9965   3.4295468577e+01   4.7466518859e+01     1.531868    0.7799259 -62.37   0.00505516    3.872    0.742
       176 -11.1311    112.0307     42.4924   3.1206239506e+01   5.0935299886e+01     0.532761    0.2473047  53.40  0.001526578    1.957    0.489
       177 -10.6270    110.3658     38.8238   3.0313204704e+01   5.1837443107e+01    0.3801033      0.27584   3.29   0.00134178    1.866    0.464
       178 -11.6153    117.6305     43.9397   3.0385659071e+01   4.9400944567e+01    0.6318608    0.3818857 -42.61   0.00300782    1.748    0.428
       179  -9.3729    213.6645    248.3347   5.5969676851e+01  -3.4798665250e+00   0.09528634   0.08505661  27.98 0.0007052082    1.741    0.426
       180 -11.0579     31.9104     52.9334   6.5653215350e+01   6.4528299119e+01     1.654858    0.6502491  12.68  0.004956846    5.072    0.803
       181 -10.8428     25.9498     59.7133   7.0997424833e+01   6.3723949585e+01     0.609969    0.2550758  27.83  0.002607138    2.370    0.578
       182 -11.7711     76.0481     53.7860   4.6234858731e+01   5.7132273482e+01    0.5083167    0.3543579   9.05 0.0008996076    1.902    0.474
       183 -11.9433     73.0263     48.2740   4.5242945792e+01   5.8697645621e+01     1.010569    0.3606601 -49.82  0.002654135    4.211    0.763
       184 -10.3539    157.4477     54.9439   2.5959298444e+01   3.8365022193e+01    0.4235218    0.3183484 -77.28  0.002250641    1.452    0.311
       185  -9.6227    154.2996     51.3506   2.5471985420e+01   3.9616574946e+01    0.2716769    0.1720327 -16.39   0.00123127    2.184    0.542
       186 -10.1064     25.4172     55.7967   7.0051939580e+01   6.4642292216e+01    0.3071374    0.1811442 -41.03 0.0008648047    1.555    0.357
       187  -8.8516    238.0053     55.9778   1.6319536006e+01   2.1435997732e+01    0.1407419    0.1105993 -51.34  0.000309088    1.019    0.018
       188  -9.4920    201.1164     53.3941   1.9476091102e+01   2.8906428353e+01    0.2045801    0.1612879 -30.99 0.0004858389    1.342    0.255
       189  -9.6608    140.0060     54.4871   2.9005593863e+01   4.2535088716e+01    0.2119258    0.1336222  59.60 0.0004022043    1.526    0.345
       190 -11.1987     61.0484     47.8273   4.9829025591e+01   6.1070142070e+01     0.810393    0.4684768 -28.65  0.003690538    1.982    0.496
       191  -9.4991     55.7319     50.6071   5.3220946846e+01   6.1501206708e+01    0.1832158    0.1700776 -11.61 0.0002891496    1.068    0.063
       192  -9.4275    211.9721     54.0000   1.8418879634e+01   2.6615456624e+01    0.1858134   0.06879259  65.96 0.0005973865    2.918    0.657
       193 -10.3486     96.3833     65.1680   4.3419881140e+01   5.0827809681e+01    0.2745334    0.2479906  17.54  0.001500783    1.141    0.123
       194  -9.8963    239.9521     50.8158   1.5104420472e+01   2.1744857274e+01    0.1599117    0.1466067 -41.19 0.0005068876    1.256    0.204
       195 -10.2937    145.5314     49.3427   2.6418065259e+01   4.1971659663e+01    0.4489968    0.2606643 -12.44  0.001830695    2.850    0.649
       196 -10.8747    132.1176     50.1336   2.9254615834e+01   4.5053859770e+01    0.3567467    0.2290754  55.46  0.001160536    1.474    0.322
       197  -9.3447     11.1907     50.1260   7.6225195716e+01   6.7150183499e+01    0.3540663   0.04646898 -53.66  0.001132108    4.018    0.751
       198 -10.2212     26.0496     48.8318   6.7360760442e+01   6.6061207781e+01    0.3189233    0.1937759 -35.79 0.0008206237    1.555    0.357
       199 -10.8205     20.4522     46.3077   6.9627543811e+01   6.7172412339e+01    0.4719535    0.2743377 -39.39  0.001958788    1.565    0.361
       200 -10.3748     26.0258     43.0489   6.5244127011e+01   6.7245108240e+01    0.2966743    0.2279225  33.47 0.0009979076    1.419    0.295
       201 -10.3277     23.1876     37.4543   6.4687098685e+01   6.8669175095e+01    0.4673275      0.19974  39.10  0.002014091    2.717    0.632
       202  -8.7548    189.4063     49.4704   1.9919262216e+01   3.1917488137e+01    0.1286185     0.112517 -62.99 9.418842e-05    1.016    0.016
       203  -9.1453    175.2051     49.4042   2.1746233949e+01   3.5067706022e+01    0.1870263     0.121067  82.37  0.000950533    1.669    0.401
       204 -10.4371     82.6947     47.0002   4.1305204649e+01   5.6909468466e+01    0.3547031    0.2542836 -12.81  0.001427047    1.712    0.416
       205  -9.5809      2.0658     49.0415   8.1281911512e+01   6.7968620429e+01    0.1963756    0.1632448 -36.45 0.0006930842    1.005    0.005
       206 -10.0635    200.1017     45.3201   1.7691005803e+01   3.0179601318e+01    0.3727814    0.1835039  86.33  0.001671416    2.673    0.626
       207 -10.6141    138.4445     44.6045   2.6283689739e+01   4.4322549081e+01    0.5529982    0.2441731  43.13  0.002115022    2.789    0.641
       208  -9.5376    179.8262     45.1886   2.0040538083e+01   3.4592435089e+01    0.1895955    0.1550381 -65.49 0.0004045494    1.124    0.111
       209  -9.2912     34.4235     45.2119   6.1465968853e+01   6.5779694915e+01    0.1807187    0.1287189 -57.37 0.0009580044    1.664    0.399
       210 -10.4394    156.0092     42.6206   2.2700280199e+01   4.0407959040e+01    0.2753927    0.2654273  18.32  0.001203897    1.224    0.183
       211  -9.7286     91.8114     41.7719   3.6390297860e+01   5.5721009221e+01    0.3472588    0.2229566  72.44   0.00124325    2.084    0.520
       212  -9.8454     56.7947     41.9147   4.9238067941e+01   6.2873999830e+01    0.2911392    0.1825131  42.99 0.0009833337    1.563    0.360
       213  -9.3051     17.7061     41.4465   6.9504113798e+01   6.8444868935e+01    0.2363414    0.1262957 -34.96  0.001164481    1.774    0.436
       214 -10.1530    231.7354     39.2812   1.3419663485e+01   2.4660181254e+01    0.2886993    0.1028992 -40.31  0.001412618    2.166    0.538
       215 -10.7655     80.7653     39.5988   3.9041572017e+01   5.8477625252e+01    0.5010639    0.3401566  72.20  0.001974165    2.053    0.513
       216 -11.2353     78.5237     34.2677   3.7612447225e+01   5.9738283251e+01    0.5926812    0.3366436  37.11  0.002758291    1.776    0.437
       217  -9.0410    194.9705     37.8153   1.6454034023e+01   3.2210476829e+01     0.183583    0.1268171  45.19 0.0006257582    1.854    0.461
       218 -12.1384    152.9329     35.9183   2.1240900100e+01   4.1992748657e+01    0.2666107    0.2430295 -82.95 0.0003395215    1.018    0.017
       219 -10.1242     60.0212     23.9399   3.9823007695e+01   6.5007015813e+01    0.3589644    0.1808782 -34.57  0.001114108    2.133    0.531
       220  -9.8467    175.4842    246.4904   6.2808082087e+01   1.0673431476e+00    0.1198644   0.09394906   8.60  0.000124985    1.029    0.028
       221  -9.9463     67.4630     32.1914   4.0676344444e+01   6.2358600827e+01    0.4284174    0.2988966  55.35   0.00207431    1.510    0.338
       222 -11.6042     57.4926     30.9915   4.4152592753e+01   6.4499600581e+01    0.4850457     0.353047 -43.99  0.001852072    1.595    0.373
       223 -11.3712     48.5353     30.5330   4.7966202529e+01   6.6205040216e+01    0.7250656    0.2813404  37.02  0.002946283    2.490    0.598
       224  -9.2295    206.2803     37.4489   1.5237946372e+01   2.9877800801e+01    0.1541782     0.106516 -85.46  0.000368302    1.434    0.303
       225  -9.9332    170.2104     30.3888   1.7362715257e+01   3.8613587584e+01    0.3190679    0.1893133 -50.68 0.0005424889    1.613    0.380
       226 -10.3421    176.4795     35.4918   1.7951209226e+01   3.6572334574e+01    0.3615433    0.1933836 -54.12  0.001227654    1.855    0.461
       227 -10.3671    174.8052     31.3947   1.7081409416e+01   3.7443893658e+01      0.32928    0.1753915  52.92  0.001622714    2.033    0.508
       228  -8.9117     13.3486     36.0724   7.0190158636e+01   6.9936059066e+01    0.2701495   0.08235931 -47.85  0.001091327    2.706    0.630
       229 -11.1578      4.9362     35.7463   7.5513267286e+01   7.0661986378e+01    0.3942806    0.3536949 -20.39  0.002302196    1.118    0.105
       230 -10.3025     10.3854     31.8357   7.0472425082e+01   7.1036292033e+01    0.5859941    0.2472209 -33.96  0.002629603    2.372    0.578
       231  -9.5638      7.4961     30.5137   7.1891571579e+01   7.1533778450e+01    0.2528493    0.1715271  -5.45 0.0008158367    1.391    0.281
       232 -11.6713    126.4289    241.4306   7.2329963009e+01   7.9977797702e+00    0.3242986     0.289403  80.73  0.001924491    1.537    0.350
       233 -10.2321     75.9944    240.1828   8.3485582852e+01   1.4543774386e+01    0.2554888    0.2237042   5.67  0.001708046    1.258    0.205
       234 -11.5762     69.1042    240.0258   8.5033391009e+01   1.5386756549e+01    0.5718347    0.3184852   2.33  0.002541023    3.034    0.670
       235 -10.0888    168.1893     23.8020   1.5835091974e+01   3.9828223721e+01    0.2475467    0.2114989  44.58  0.001272439    1.398    0.284
       236 -11.2808    160.0084     29.9006   1.8521443689e+01   4.1044429495e+01    0.3671939    0.2495724 -40.47 0.0004707832    1.462    0.316
       237 -11.8293    164.2566     27.6238   1.7343795188e+01   4.0312623272e+01    0.3390164    0.2545986 -63.67 0.0004065335    1.270    0.212
       238  -9.9024    240.8676     32.0839   1.1284997913e+01   2.3833544636e+01    0.1808649     0.161355  83.00  0.001333369    1.324    0.245
       239 -10.8698    188.9776     28.3343   1.4771054448e+01   3.4635478819e+01    0.4474882    0.3053353  -3.80  0.002381254    2.344    0.573
       240 -10.4849     32.6037     31.0626   5.6452632868e+01   6.8646330256e+01    0.2223893    0.1901159   7.89 0.0003339937    1.048    0.046
       241 -10.9904    147.2218    238.2586   6.7438985834e+01   5.8549269075e+00    0.3981613     0.299284  29.52  0.002341761    1.205    0.170
       242  -9.4746    167.4783    237.9958   6.3201375535e+01   3.3231542485e+00    0.1649982    0.1144464 -36.76 0.0007177446    1.541    0.351
       243  -9.0466     15.4317    233.7726   9.6636196042e+01   2.2230071707e+01    0.1488863    0.1012353 -67.36   0.00093893    1.652    0.395
       244  -9.1031     75.5176    224.4848   8.2076242039e+01   1.7714597326e+01    0.1295429     0.112872  36.67 7.466228e-05    1.015    0.015
       245 -10.5004    131.4776    240.9791   7.1174838347e+01   7.4263206443e+00    0.2038403    0.1459579  24.38  0.001046541    1.160    0.138
       246  -9.0715     44.5479    215.4916   8.8742900539e+01   2.3219469061e+01    0.1274204    0.1110208  51.45 0.0001776385    1.008    0.008
       247  -9.2851    164.3705    211.9233   5.9884767274e+01   8.0234926147e+00    0.1757763    0.1504405 -12.23 0.0004968921    1.100    0.091
       248 -10.2747      8.8587    211.1304   9.7038600966e+01   2.7591542921e+01    0.2014465    0.1364825  57.19 0.0008049443    1.254    0.203
       249  -9.1847    152.5134    207.0082   6.1653746908e+01   1.0585238880e+01    0.1717942     0.123471 -79.01  0.000810459    2.659    0.624
       250  -9.6313     17.3020    206.3086   9.4754599684e+01   2.7940890599e+01    0.2726094    0.1162677  71.76  0.001186366    2.619    0.618
       251 -11.9517    125.9824     28.2960   2.3367525716e+01   4.9403615066e+01    0.4868565    0.3772476  83.27   0.00200894    1.283    0.221
       252 -11.1008    183.1271     25.4493   1.4647047889e+01   3.6254165921e+01    0.3408791    0.2742945 -67.15    0.0014951    1.091    0.083
       253  -9.7912    187.3329     22.9699   1.3616761645e+01   3.5599172876e+01    0.1989681    0.1763901 -44.07 0.0005142054    1.211    0.175
       254  -9.2214     61.5244    206.5030   8.3686341401e+01   2.3278295482e+01    0.1325078    0.1196222  45.57 -7.600751e-07    1.013    0.013
       255  -9.8475    148.2641     28.4160   1.9730246504e+01   4.4004854817e+01    0.3223129     0.196394  65.36   0.00122751    1.505    0.336
       256 -10.7130      4.4701    204.5614   9.7763143801e+01   2.9406372580e+01    0.2949101    0.1427898 -65.66  0.001520028    2.099    0.524
       257 -10.7480    143.6713     25.3134   1.9475122222e+01   4.5459839109e+01    0.3996065    0.2305474  78.20   0.00141434    1.727    0.421
       258 -10.9318    148.3039     22.5722   1.7987374649e+01   4.4648443203e+01    0.4931818    0.2062211  61.36  0.002138912    2.114    0.527
       259 -10.9967      6.0236    198.3976   9.7082071311e+01   3.0680703669e+01    0.3410175    0.1326384 -66.06  0.001567297    2.486    0.598
       260  -9.6647     78.4708    203.9192   7.9071132089e+01   2.1731031558e+01    0.2592702    0.1610535  44.10 0.0005232996    1.497    0.332
       261  -9.4011     42.9740     28.0561   4.9508846892e+01   6.7543066418e+01    0.2039255    0.1410639   7.69 0.0003184783    1.588    0.370
       262  -9.5975    230.6262     26.7946   1.0932095754e+01   2.6320483495e+01    0.1497766    0.1265942 -71.43  0.001105157    1.120    0.107
       263 -10.4921    200.9336     25.1210   1.2889433198e+01   3.2432680859e+01     0.288874    0.2223298  18.84  0.001737752    2.058    0.514
       264  -8.9562     97.3323     26.2963   2.8862181411e+01   5.6514377945e+01    0.1426825   0.09501894  33.54  0.000702813    1.641    0.391
       265 -10.3670    155.0715     23.9501   1.7482366381e+01   4.2885099567e+01    0.3711437    0.2875998 -63.36  0.001774019    1.247    0.198
       266  -9.4275    212.4928     24.0148   1.1685322064e+01   3.0170978072e+01      0.17253    0.1033109 -36.69 0.0007463808    1.550    0.355
       267  -9.6624     90.6557     22.9084   2.9249841042e+01   5.8469348840e+01    0.2504612    0.1616018  47.89   0.00122921    1.387    0.279
       268 -12.4398      4.4924    184.0710   9.6703747025e+01   3.4145499454e+01    0.6895691    0.4360259  89.53    0.0032756    1.455    0.313
       269 -10.5480     38.9559     22.0564   4.8607664379e+01   6.9125946210e+01     0.245394    0.2069671   1.54 0.0004198634    1.069    0.065
       270  -9.6413     28.0407    175.9026   8.9705389941e+01   3.4161051591e+01    0.2049175    0.1879804  78.16 0.0006384167    1.026    0.025
       271  -9.2581    223.6998     22.0559   1.0435198589e+01   2.8169385551e+01     0.159522    0.1230821 -55.39 0.0004601507    1.065    0.061
       272 -10.8126    178.8432     20.6781   1.3873838492e+01   3.7737171347e+01    0.4170749    0.2377038  47.11  0.002140237    2.197    0.545
       273  -9.0912      5.1039     21.9341   7.0028714974e+01   7.3374955437e+01    0.1680329    0.1494508   4.16 0.0005936614    1.220    0.180
       274 -10.2847     16.0276    174.5083   9.2963481928e+01   3.5564599982e+01    0.2745266    0.1635484  77.49  0.001389508    1.674    0.403
       275 -10.2550    246.5713     19.6833   8.5110029133e+00   2.4195392777e+01     0.195301   0.09424128 -30.80  0.001125982    2.052    0.513
       276  -9.6397    216.2181     20.0194   1.0534496873e+01   2.9861314848e+01    0.1934139    0.1210576 -58.04  0.001205009    1.336    0.252
       277  -8.9245     51.5289    173.5347   8.2731957587e+01   3.2273207067e+01    0.1406301    0.1283454  62.15 0.0001108623    1.041    0.039
       278 -10.0569     74.7190     19.6439   3.2527734382e+01   6.2451332567e+01    0.3047957    0.1855917  26.78  0.001191219    1.907    0.475
       279  -9.6250     46.1274     19.8466   4.3886339848e+01   6.8203077084e+01    0.1882133    0.1743641  47.51  0.001091272    1.305    0.234
       280  -8.8917      1.4888     20.5410   7.2109276463e+01   7.3911456701e+01    0.1242691   0.09625376 -21.51 0.0001885717    1.047    0.045
       281  -9.2618     39.4625    173.5296   8.6215256630e+01   3.3613883546e+01    0.1371087    0.1252145  67.62 0.0005383795    1.019    0.019
       282 -12.0829      8.9869    166.8752   9.4392231266e+01   3.8006679771e+01    0.8343481    0.3690223  24.59  0.003837595    2.258    0.557
       283 -11.6582     11.1155    162.2082   9.3431822789e+01   3.9017804731e+01    0.4382432    0.2631493  75.49   0.00182511    1.654    0.396
       284 -10.5829     14.0690    159.0310   9.2302384511e+01   3.9597140378e+01    0.3157136    0.2321608 -68.75   0.00062395    1.282    0.220
       285  -8.8327    198.6923     17.6853   1.1354935975e+01   3.3716382969e+01     0.109102   0.09023663  41.52  0.000498908    1.627    0.385
       286 -10.5215     18.9800    164.8550   9.1341713576e+01   3.7728304700e+01      0.32516    0.2630849   6.39  0.001735626    1.437    0.304
       287  -9.6084    120.3540     15.8269   2.0136408308e+01   5.2116395734e+01    0.1733573    0.1264534  -2.99 0.0006165224    1.770    0.435
       288  -9.9203    186.9687     15.0492   1.1711689973e+01   3.6521956839e+01     0.185002    0.1558288 -74.26 0.0004766897    1.016    0.016
       289  -8.9054    174.3085     15.7481   1.3056896740e+01   3.9280459377e+01    0.1264908   0.08026033 -69.30 0.0002204174    1.513    0.339
       290 -10.0531    204.9823    163.3041   4.3077282487e+01   1.0474786335e+01    0.2440425    0.1667804 -27.88 0.0006809855    1.317    0.241
       291 -10.4866     28.1827    161.5346   8.8293232698e+01   3.7759936723e+01    0.4032771    0.2427129 -65.23  0.002000785    1.571    0.364
       292 -10.8512      9.3335    155.1961   9.3413644589e+01   4.0923149264e+01    0.3183257    0.2341135 -87.16  0.001270915    1.242    0.195
       293  -9.1385    104.0125    154.9977   6.4542071045e+01   2.9322472454e+01    0.1823923    0.1792001 -10.28   0.00100751    1.023    0.023
       294 -12.5979     22.5440    149.4344   8.8787529642e+01   4.1373843387e+01    0.7269156    0.3497058 -40.55  0.003025336    2.515    0.602
       295 -10.8406     16.4606    147.9725   9.0571288253e+01   4.2246867158e+01    0.3131433    0.2289441 -70.71 0.0004673102    1.260    0.206
       296 -10.5850     30.2188    152.6269   8.6709026111e+01   3.9858112655e+01    0.3279782     0.221275 -63.48  0.001335542    1.404    0.288
       297 -10.7402      4.3023    153.5992   9.4810558890e+01   4.1672020550e+01    0.2683221    0.1889876  37.51  0.001030363    1.431    0.301
       298 -11.3948    106.1786     32.8597   2.9163139638e+01   5.3616095359e+01    0.4713347    0.2923149  26.16  0.001895873    2.185    0.542
       299 -11.0677     47.0212    147.3225   8.0652329795e+01   3.9477808395e+01    0.7289528    0.3858728 -46.59  0.003118082    1.993    0.498
       300  -9.7918     61.5359    151.8466   7.6709549808e+01   3.6521690322e+01    0.2687651    0.2062155  25.69 0.0007142535    1.331    0.249
       301 -11.9202     12.5542    136.7072   9.0730406701e+01   4.5460030272e+01     1.683854    0.3636349 -60.18  0.005658397    3.393    0.705
       302 -10.9601     10.4811    127.2478   9.0454813303e+01   4.8067333485e+01     0.546461    0.2546799 -66.05  0.001881941    1.844    0.458
       303  -9.4505     65.8584     10.4931   3.1151641854e+01   6.5379145545e+01    0.1974771    0.1130337  53.91  0.000678249    1.530    0.346
       304 -10.4628      3.0654    147.7021   9.4751151460e+01   4.3251455559e+01    0.2682222    0.2076546  88.61  0.001040503    1.163    0.140
       305 -10.8797      5.7948    142.7950   9.3502407525e+01   4.4337424752e+01    0.3766992    0.2170996  60.11  0.001034022    1.791    0.442
       306 -11.0958      2.3041    141.8165   9.4537685687e+01   4.4804278632e+01    0.4830902    0.2036504 -83.24  0.002063832    2.220    0.549
       307  -9.4527    104.0507    147.2757   6.2999314185e+01   3.1151414075e+01    0.2057909     0.187818  29.35   0.00108665    1.077    0.072
       308 -10.9306     33.1239    144.3350   8.4778260677e+01   4.1735244004e+01    0.3037042    0.2774985  73.28 0.0007598402    1.071    0.066
       309 -10.4221     40.3251    138.4757   8.1578810798e+01   4.2531071743e+01     0.361663    0.2638346 -70.99  0.001366663    1.322    0.243
       310  -8.7950    227.6974    140.3152   3.4813855966e+01   1.0768956367e+01    0.1188885   0.09171124 -58.59 0.0003488713    1.618    0.382
       311 -10.4205     80.3406    138.3544   6.8353720148e+01   3.7248201572e+01    0.3254523    0.2586739  41.49 0.0006887012    1.258    0.205
       312  -9.7937     32.0725    137.6861   8.4260900863e+01   4.3577772083e+01    0.2748941    0.2376685  29.64 0.0007836888    1.210    0.174
       313 -11.3058     24.8558    136.9667   8.6614998001e+01   4.4426160976e+01    0.7667273    0.3706076  31.08  0.002610331    2.049    0.512
       314 -10.8638     30.2572    132.8919   8.4233456073e+01   4.5008825731e+01    0.5110286    0.3082687  20.53  0.001619457    1.778    0.437
       315  -9.4773     47.4145    133.7991   7.8436818821e+01   4.2959306976e+01    0.3781995    0.1280904 -62.79  0.001313964    2.697    0.629
       316  -9.8208     38.6080    133.6354   8.1447221828e+01   4.3982684169e+01    0.4039068    0.1810011   9.14  0.001423617    3.264    0.694
       317  -9.1492     26.5440    127.4973   8.4796340184e+01   4.6764459949e+01     0.139585    0.1293696 -71.61 0.0001015076    1.005    0.005
       318  -9.7767     22.8788    127.0143   8.6037498865e+01   4.7205554445e+01    0.2022375       0.1852 -69.66 0.0003480959    1.014    0.014
       319  -9.7339     32.9610    125.6429   8.2227639625e+01   4.6654862270e+01    0.2997932    0.1607664  74.90  0.001154597    2.693    0.629
       320  -9.7398      2.0198    125.8849   9.3276476440e+01   4.8930723920e+01    0.2368123    0.1753851 -85.38 0.0009092275    1.229    0.186
       321  -9.4349     81.6660    125.6762   6.5273545001e+01   4.0202656755e+01     0.160613    0.1175831 -19.09 0.0004322055    1.710    0.415
       322 -11.9804    104.2643    122.2189   5.7387399431e+01   3.7051435222e+01    0.3762029    0.3393818  60.13  0.000510807    1.192    0.161
       323  -9.8039     49.8472    122.8565   7.5665560533e+01   4.5520294300e+01    0.3210782    0.2092221 -19.17  0.001402592    2.010    0.502
       324  -9.4228     19.0250    123.2951   8.6937238601e+01   4.8490406634e+01    0.1809773    0.1738783  77.98 0.0004564914    1.074    0.069
       325 -10.0340     56.2111    122.1908   7.3259271430e+01   4.4879207361e+01    0.2097818    0.1714313  62.94 0.0009293157    1.361    0.265
       326 -10.1538     44.6161    119.8423   7.7009530751e+01   4.6929261843e+01    0.3231161    0.2277253  85.12 0.0008631849    1.714    0.417
