#   1 NUMBER                 Running object number                                     
#   2 MAG_AUTO               Kron-like elliptical aperture magnitude                    [mag]
#   3 X_IMAGE                Object position along x                                    [pixel]
#   4 Y_IMAGE                Object position along y                                    [pixel]
#   5 X_WORLD                Barycenter position along world x axis                     [deg]
#   6 Y_WORLD                Barycenter position along world y axis                     [deg]
#   7 A_WORLD                Profile RMS along major axis (world units)                 [deg]
#   8 B_WORLD                Profile RMS along minor axis (world units)                 [deg]
#   9 THETA_WORLD            Position angle (CCW/world-x)                               [deg]
#  10 FWHM_WORLD             FWHM assuming a gaussian core                              [deg]
#  11 ELONGATION             A_IMAGE/B_IMAGE                                           
#  12 ELLIPTICITY            1 - B_IMAGE/A_IMAGE                                       
         1 -14.3753    201.8242     18.1528   6.4382728692e+01   3.2890510277e+01     2.468504      1.57755  34.67   0.01048217    2.307    0.567
         2 -13.8381    206.8572     11.2393   6.2179474403e+01   3.2454115101e+01     1.441522    0.9207494  34.04  0.001467233    2.410    0.585
         3 -12.9320      2.3484      4.6054   1.1309542050e+02   7.1924703612e+01    0.9373534    0.5224094  13.60  0.006706918    1.748    0.428
         4 -12.9117      2.8140     15.5839   1.1733823382e+02   7.0357599339e+01     1.065741    0.3266458 -40.75  0.005689302    2.373    0.579
         5 -10.5795     70.3332    244.5188   1.3990592540e+02   1.5499115173e+01    0.2440369     0.134441 -63.01  0.001404626    1.960    0.490
         6 -11.1712    163.1118    248.7255   1.2304971138e+02  -2.7551981035e-01    0.3334115    0.2659091 -73.31  0.002075555    1.622    0.383
         7 -12.7548    127.5226    244.4019   1.2927001380e+02   6.5430699626e+00     0.604147    0.3164769  38.10  0.003029393    1.827    0.453
         8 -12.7619    139.4595    247.2198   1.2735178187e+02   4.0260435958e+00    0.8002798    0.5697718 -68.68   0.00476197    1.697    0.411
         9 -12.3046    121.8853    248.3708   1.3082328542e+02   6.7825659021e+00    0.8050652    0.3088259  57.42   0.00311387    3.250    0.692
        10 -12.4692    101.4159    249.2197   1.3472858735e+02   9.9454083575e+00    0.7087471    0.4327028  72.10  0.003986312    1.702    0.412
        11 -12.4094    106.1394    246.8513   1.3359663503e+02   9.6248453557e+00    0.5961514    0.3080974  54.96  0.003126884    1.675    0.403
        12 -11.7864    103.3490    242.6689   1.3365303629e+02   1.0843155277e+01     0.381166    0.2158181  50.96  0.001154526    1.463    0.317
        13 -13.1961     90.0179    245.7939   1.3646461151e+02   1.2348510192e+01     0.825914    0.5016291  44.92  0.002039632    1.476    0.323
        14 -12.3691     84.7347    239.2347   1.3677020413e+02   1.4396924285e+01    0.5694363    0.3807837 -45.09  0.003205522    2.291    0.564
        15  -9.7288     64.4638    250.5025   1.4145826954e+02   1.5197908023e+01    0.1906818    0.1069944  33.52   0.00103384    2.358    0.576
        16 -13.2857     35.0817    247.7154   1.4620994025e+02   1.9536730615e+01     1.116218    0.6114017  43.41  0.007080585    1.789    0.441
        17 -11.7269     19.4366    229.9326   1.4763244141e+02   2.4771251900e+01    0.3510847     0.224599  38.72  0.002072482    1.858    0.462
        18 -11.0434    173.6331    220.9034   1.1672371759e+02   2.5490890498e+00    0.2785374    0.2229083  28.13  0.001592759    1.239    0.193
        19 -14.8692      9.0154    243.1592   1.5011884812e+02   2.3335848884e+01     11.67226     2.610143  32.32    0.0296291   14.758    0.932
        20 -11.2123     33.2459    207.3964   1.4345746296e+02   2.7860466862e+01    0.3367221    0.1677409  72.57 0.0002409402    1.978    0.494
        21 -10.0584    229.0152    206.1900   1.0326257999e+02  -4.9573084408e+00    0.2451888    0.1870442 -47.64 0.0005564893    1.559    0.359
        22  -9.8984    192.0634    193.1335   1.0796072358e+02   4.1230442044e+00    0.4343473    0.2234807 -63.29  0.001423721    4.162    0.760
        23 -11.7846     67.4086    193.6593   1.3511313954e+02   2.6527480280e+01    0.4085267    0.2548781 -46.88  0.002090963    2.076    0.518
        24 -11.8116     72.5469    186.5312   1.3308133927e+02   2.7411767953e+01    0.2985307    0.2395646 -54.89 0.0008499316    1.403    0.287
        25  -8.7451    181.5259    192.4503   1.1000526340e+02   6.3250392735e+00    0.1430721    0.1348276  40.46 0.0001635626    1.020    0.020
        26 -11.1530     81.5439    174.7147   1.2934754051e+02   2.8808492517e+01    0.2511933     0.223499 -68.45 0.0005019132    1.157    0.136
        27 -13.3291     68.8410    172.2511   1.3194356236e+02   3.1257809510e+01    0.5001256    0.2787361 -45.74  0.001534216    2.199    0.545
        28 -12.6383     57.8781    131.6157   1.2812363519e+02   4.2369862552e+01     2.126083    0.6967069 -71.77  0.004892352    7.852    0.873
        29 -13.2157     67.6406    144.6994   1.2786784710e+02   3.7975604911e+01     1.289495     0.718702  89.83  0.002454289    2.742    0.635
        30 -10.0470    100.6273    150.0392   1.2038310659e+02   3.1537063312e+01      0.32836    0.2839976 -36.91 0.0008267376    1.321    0.243
        31  -9.5364    103.0609    146.0345   1.1896020850e+02   3.2061151986e+01    0.2815389    0.1947436 -37.36  0.001000631    1.709    0.415
        32 -12.2153     89.3496    149.2227   1.2309946282e+02   3.3632738929e+01    0.2980597     0.253331 -39.70 0.0006645632    1.332    0.249
        33 -10.8958     41.0340    147.9945   1.3514909764e+02   4.0459930473e+01    0.2050682    0.1705789 -77.59 0.0006782571    1.012    0.012
        34  -9.5835     72.3615    163.3075   1.2976422113e+02   3.2869355468e+01     0.368725    0.1851316  66.50   0.00141785    2.966    0.663
        35  -9.7311    111.1545    135.8746   1.1470107246e+02   3.2983002516e+01    0.3199633    0.2171143 -23.63   0.00109397    2.217    0.549
        36 -10.8946    103.8219    236.4892   1.3285746814e+02   1.1934315580e+01    0.2172401    0.1743448 -80.12 0.0008473569    1.280    0.219
        37 -10.6563     98.6452    132.7863   1.1732143512e+02   3.5979441130e+01    0.2724666    0.2383819 -20.07 0.0007705013    1.366    0.268
        38 -13.2258     42.1606    226.1469   1.4338232146e+02   2.2887574297e+01    0.5819573    0.3436898  66.71 0.0009725132    1.416    0.294
        39 -15.4303     51.9316    215.8469   1.4065470125e+02   2.3779586062e+01     4.957138     1.516948  46.80   0.01343401    2.783    0.641
        40  -9.3622    107.9354    122.9972   1.1259071403e+02   3.6584897897e+01    0.2100129    0.2026069 -54.86 0.0003102694    1.037    0.036
        41 -15.9155      7.5757    204.9489   1.4802253618e+02   3.1065924537e+01     8.964273     1.221851 -71.33   0.03185599    4.759    0.790
        42 -10.7754    167.9395    113.0425   9.5142294653e+01   2.5839309903e+01    0.3791779     0.304972 -83.68 0.0007619478    1.474    0.322
        43 -12.4461     88.1450    166.2874   1.2643373328e+02   2.9759354589e+01     1.681955    0.6216722  52.55  0.005765087    3.350    0.701
        44  -9.6230    204.7902    110.7680   8.7036777716e+01   1.7593469514e+01    0.3985968    0.2211834  32.94  0.001458123    2.727    0.633
        45 -10.1800     44.4236    109.2164   1.2766017128e+02   4.9121636479e+01    0.1834968    0.1125282 -70.04 0.0006898991    1.612    0.380
        46 -10.7931      1.6978     88.9265   1.3683554003e+02   5.6948413941e+01    0.3216682   0.09369881 -62.68  0.001471619    2.372    0.578
        47 -11.1403      2.7118     75.3123   1.3402060004e+02   5.9716952040e+01    0.3669541    0.1124695 -60.85  0.001741197    2.329    0.571
        48  -9.0754    128.4881     54.5472   8.7638837995e+01   4.5862233239e+01    0.1400113    0.1347752  54.69 0.0002616062    1.070    0.065
        49 -10.8030    116.3516     47.1536   8.8284889890e+01   4.9626853409e+01     0.352845     0.267147  84.91  0.001059959    1.929    0.481
        50 -12.1493     79.2293    232.9868   1.3715982833e+02   1.6444594929e+01     0.373001    0.2949238  48.70 0.0004083174    1.300    0.231
        51 -11.2051     74.7913    227.8786   1.3747524751e+02   1.8123216603e+01    0.2908556    0.2086759  56.72 0.0008313965    1.197    0.165
        52 -11.3336    248.6705    244.3575   1.0656322565e+02  -1.3463034963e+01    0.2473946     0.171731 -16.86  0.001609318    1.387    0.279
