#   1 NUMBER                 Running object number                                     
#   2 MAG_AUTO               Kron-like elliptical aperture magnitude                    [mag]
#   3 X_IMAGE                Object position along x                                    [pixel]
#   4 Y_IMAGE                Object position along y                                    [pixel]
#   5 X_WORLD                Barycenter position along world x axis                     [deg]
#   6 Y_WORLD                Barycenter position along world y axis                     [deg]
#   7 A_WORLD                Profile RMS along major axis (world units)                 [deg]
#   8 B_WORLD                Profile RMS along minor axis (world units)                 [deg]
#   9 THETA_WORLD            Position angle (CCW/world-x)                               [deg]
#  10 FWHM_WORLD             FWHM assuming a gaussian core                              [deg]
#  11 ELONGATION             A_IMAGE/B_IMAGE                                           
#  12 ELLIPTICITY            1 - B_IMAGE/A_IMAGE                                       
         1 -13.5856    156.7128     54.2206   8.3113397395e+01   3.9267686151e+01     1.239378     1.073571  40.71  0.003226276    1.157    0.136
         2 -13.9718    168.4361     38.6651   7.6287703220e+01   3.8580656457e+01     1.193154     1.023048  14.31  0.004534259    1.384    0.277
         3 -13.7073    184.1659      6.9827   6.5176437280e+01   3.8307132856e+01     1.012933    0.8235424  78.49  0.004234811    1.056    0.053
         4  -9.0077    167.2953    238.3016   1.2262932547e+02   1.0892554321e+00    0.1226504   0.09492172  15.37 0.0002053118    1.575    0.365
         5  -9.9679    150.7377    250.2556   1.2740474843e+02   2.0351286238e+00    0.2104085     0.138675  50.73 0.0007732964    1.271    0.213
         6 -19.8937     63.1658    168.3261   1.3425810556e+02   3.2895701250e+01     19.51476     4.476868 -65.10   0.06109998    4.241    0.764
         7  -9.7022     30.3106    205.2352   1.4507437390e+02   2.8724589727e+01   0.09552019    0.0843093 -66.14 0.0001980624    1.493    0.330
         8 -11.5753    163.2217    203.1417   1.1779609128e+02   8.0599031433e+00     0.518069     0.240243 -54.67  0.002105019    2.585    0.613
         9 -10.0519    156.6789    202.1274   1.1898172564e+02   9.5148296569e+00    0.2186963    0.1753388 -83.64  0.001166364    1.491    0.329
        10 -12.2700    139.0547    200.5575   1.2242571205e+02   1.3179139761e+01    0.5306489    0.3792887  56.27   0.00276968    1.325    0.245
        11 -11.6802    135.5043    196.4930   1.2251020693e+02   1.4680659219e+01    0.2956343    0.2665842 -10.90  0.001443493    1.438    0.305
        12 -11.3375    154.4574    196.3938   1.1845008685e+02   1.1076251815e+01    0.3204986    0.2523062  88.15  0.001462102    1.533    0.348
        13  -9.3238      7.7120    196.6469   1.4853513566e+02   3.2814701537e+01    0.1052658   0.07083667 -60.80 0.0007024449    1.670    0.401
        14 -10.5328    207.6080    195.1760   1.0732743459e+02   9.2906217531e-01    0.1948434    0.1282044 -26.97 0.0009497436    1.695    0.410
        15  -9.0257    169.6827    195.3264   1.1505069441e+02   8.3039306606e+00    0.1443441    0.1110245  79.35 0.0007045254    1.675    0.403
        16 -10.4704    174.9988    193.4677   1.1359625514e+02   7.6115502124e+00     0.257802    0.1995377 -68.02 0.0006527621    1.587    0.370
        17  99.0000     20.5245    202.4236   1.4664289683e+02   3.0359509569e+01    0.1133865   0.08636072  87.90 0.0002228108    1.078    0.072
        18  -9.7579    180.0035    192.6626   1.1240554953e+02   6.7730562173e+00    0.2521597    0.2048802 -85.56  0.001184598    1.604    0.377
        19  -7.8480     15.7903    238.3766   1.4987556163e+02   2.3742178588e+01    0.1099721   0.05556894  77.63 0.0004060531    1.585    0.369
        20 -11.7331    166.9178    189.0334   1.1446127328e+02   1.0086806284e+01    0.4932594    0.3161677  42.72  0.001498468    1.471    0.320
        21 -11.4661    153.8430    185.3431   1.1657767498e+02   1.3447216105e+01    0.3761147    0.2476822 -67.47  0.001707715    1.891    0.471
        22  -9.2214    175.6755    235.7005   1.2063760420e+02   2.7996768439e-02    0.1277068   0.09445877  15.92 0.0003940819    1.631    0.387
        23 -10.9550    175.9063    186.9586   1.1216619547e+02   8.6909995997e+00    0.4892437    0.3117518 -75.59  0.001939225    2.815    0.645
        24 -10.3154    205.4902    179.5188   1.0461314036e+02   4.1383080311e+00    0.2736654    0.2295755  67.71 0.0009550949    1.444    0.307
        25 -10.2962    209.4982    176.5245   1.0320074570e+02   3.8852266450e+00    0.7027168    0.3452934 -26.07  0.002573637    2.942    0.660
        26  99.0000     23.0327    232.0809   1.4832374866e+02   2.4146794066e+01    0.2244491    0.1322834  41.41  0.001485226    1.859    0.462
        27 -10.2583    193.9932    165.4891   1.0398668699e+02   9.1689711423e+00    0.3267277    0.2727032  74.41 0.0009439309    1.439    0.305
        28 -10.2969    195.6892    174.3188   1.0551065059e+02   7.1030269452e+00    0.2676713    0.2108815 -77.68 0.0007766691    1.732    0.423
        29 -11.4427    195.7674    170.5231   1.0469708149e+02   7.8170639675e+00    0.4596881    0.4216717  86.67  0.001759058    1.256    0.204
        30 -11.2313    142.3130    166.6072   1.1553185608e+02   1.9779787032e+01    0.3014572    0.2347208 -67.78  0.001167173    1.373    0.272
        31  -9.7967     22.6725    166.5226   1.4300363543e+02   3.7917797891e+01    0.2702291    0.1848975  -4.07  0.001425759    2.849    0.649
        32  -9.8717    230.3018    166.6292   9.7140333438e+01   1.5460514502e+00    0.1406008    0.1121003 -70.84 0.0007031779    1.747    0.428
        33 -10.3123     27.0504    227.6451   1.4735779634e+02   2.4557166697e+01    0.1718734    0.1340066 -63.49  0.001069769    1.666    0.400
        34 -12.0699    114.6672    161.2003   1.2095008770e+02   2.6362698774e+01    0.6116857    0.3067373  60.12  0.001108414    2.688    0.628
        35 -11.0206    144.4918    179.0136   1.1744816878e+02   1.6641326540e+01    0.2958368     0.208864  27.56  0.001284569    1.728    0.421
        36 -11.2707    121.0351    156.8858   1.1858416556e+02   2.6164859883e+01    0.2721432    0.2164031 -58.00 0.0009541885    1.233    0.189
        37 -13.6733    132.6072    145.7298   1.1344978177e+02   2.6445600498e+01     1.151813    0.6705389 -64.07  0.003876279    2.063    0.515
        38 -10.8189    161.9330    153.8330   1.0836280448e+02   1.8465517018e+01    0.3590435    0.2550702  64.10  0.001609028    1.615    0.381
        39  -9.9466    174.7106    149.0992   1.0445716030e+02   1.6682542945e+01    0.2698226      0.21433  62.27 0.0006390617    1.351    0.260
        40 -12.1375    143.9881    144.9477   1.1054133722e+02   2.4263328404e+01    0.6635758    0.3863862 -66.89  0.002506718    2.376    0.579
        41 -11.6797      9.4497    145.2760   1.4367664121e+02   4.3801871829e+01    0.3131439    0.1636574 -75.55  0.001490028    1.484    0.326
        42  -9.3159    198.9920    222.4942   1.1400856788e+02  -2.0232705394e+00    0.1945167    0.1163103  41.30 0.0003528234    1.483    0.326
        43 -11.6821      3.1536    112.5379   1.4128603857e+02   5.1481208195e+01    0.4075107    0.2133746 -64.38  0.002445061    1.400    0.286
        44 -12.0185     10.0355    111.0776   1.3924547544e+02   5.1362856048e+01    0.5612504    0.2474119   1.22  0.002427495    4.721    0.788
        45 -12.6560      7.0996    139.2874   1.4356443089e+02   4.5310295667e+01     0.473541    0.4119051  -3.35  0.003377508    1.650    0.394
        46 -12.7704      2.9970    127.9679   1.4325574143e+02   4.8101257972e+01     1.572421    0.4902666 -70.06  0.007297624    2.353    0.575
        47 -11.5419    135.6961    127.3508   1.0844948783e+02   2.9966500378e+01    0.5216901    0.1988972 -50.15  0.001732933    2.662    0.624
        48 -10.6688    114.0549    118.3003   1.1179327138e+02   3.6385741181e+01    0.2694968    0.2145431 -58.94 0.0003742325    1.245    0.197
        49  -9.9266    168.1913    113.1110   9.7153291497e+01   2.5736547407e+01    0.3728333    0.2411872 -72.65  0.001409698    2.375    0.579
        50 -10.7382    135.0000    112.0891   1.0478615801e+02   3.3481267459e+01    0.4256254   0.08693685 -45.04  0.001037332    4.808    0.792
        51  -9.9706    205.6165    110.1292   8.8707176478e+01   1.7456565840e+01     0.289696    0.2235655  48.00 0.0006864143    1.347    0.257
        52  -9.0116    171.3517    137.6962   1.0254891734e+02   1.9843845845e+01    0.1620554    0.1243563  89.49 0.0007040501    1.704    0.413
        53 -10.6672     20.7236    219.2050   1.4784170232e+02   2.6917388305e+01    0.1299757   0.09902309  86.61 0.0009605984    1.130    0.115
        54 -10.6785    160.2976    127.8099   1.0266289505e+02   2.4459982072e+01     0.373779    0.2897357 -55.34  0.001753519    1.323    0.244
        55 -12.1045    119.9255    129.4495   1.1293214157e+02   3.2707996156e+01    0.4533241    0.3002421 -38.34  0.001220665    1.643    0.391
        56  99.0000     13.1980    245.1093   1.5065897652e+02   2.2774935070e+01    0.2751664   0.09476127 -63.65  0.001474577    3.074    0.675
        57 -10.2179    196.7071    243.4697   1.1787597582e+02  -4.8049268029e+00     0.227501     0.158184 -59.08  0.001285351    2.120    0.528
        58 -12.0773    172.3566     31.3679   7.3531217681e+01   3.8537158298e+01    0.3904364    0.3524933  24.24 0.0009999732    1.265    0.210
        59  -9.3904     13.4949     59.9048   1.2832098284e+02   6.1821093720e+01    0.1681073   0.08962923 -54.94 0.0004079326    1.484    0.326
        60 -10.1727     16.4531    217.6560   1.4846308940e+02   2.7675939759e+01    0.1032691   0.08269773  88.33 0.0007790692    1.226    0.184
        61  -9.5258    135.9426     30.6968   8.0129754517e+01   4.7422769463e+01    0.1945588    0.1613646  59.55 0.0004029343    1.154    0.134
        62 -10.3156    136.5225    211.2780   1.2465700305e+02   1.1502125227e+01    0.2436099    0.1351491 -60.09  0.001135926    2.042    0.510
