#   1 NUMBER                 Running object number                                     
#   2 MAG_AUTO               Kron-like elliptical aperture magnitude                    [mag]
#   3 X_IMAGE                Object position along x                                    [pixel]
#   4 Y_IMAGE                Object position along y                                    [pixel]
#   5 X_WORLD                Barycenter position along world x axis                     [deg]
#   6 Y_WORLD                Barycenter position along world y axis                     [deg]
#   7 A_WORLD                Profile RMS along major axis (world units)                 [deg]
#   8 B_WORLD                Profile RMS along minor axis (world units)                 [deg]
#   9 THETA_WORLD            Position angle (CCW/world-x)                               [deg]
#  10 FWHM_WORLD             FWHM assuming a gaussian core                              [deg]
#  11 ELONGATION             A_IMAGE/B_IMAGE                                           
#  12 ELLIPTICITY            1 - B_IMAGE/A_IMAGE                                       
         1 -14.1115      5.7201     76.0586   1.1511358584e+02   5.9457612650e+01     2.152026    0.6631589 -66.69  0.009411378    2.465    0.594
         2 -15.5406      9.1472     26.7653   1.0081845229e+02   6.9454029999e+01     2.771292    0.9703451 -48.02    0.0140116    2.061    0.515
         3 -13.3302     30.6076     10.7650   8.2946790183e+01   7.0119805116e+01     1.439172    0.4710194 -34.65  0.006484504    2.697    0.629
         4 -14.3834     96.7137     71.4355   8.1638552858e+01   4.9594603797e+01     1.998799     1.395818  -3.22   0.00224709    1.936    0.483
         5 -14.8116     43.2126     43.2875   9.1242917708e+01   6.3298738268e+01     3.097505     1.240011 -41.62  0.009429614    2.117    0.528
         6 -14.5860     37.2013     84.8531   1.0578734226e+02   5.5153315930e+01     2.042557     1.065716 -47.27  0.009736807    1.626    0.385
         7 -13.9851     69.4568     55.7893   8.5506237483e+01   5.7369727129e+01     1.242036     1.109699 -44.71  0.007148625    1.225    0.184
         8 -13.8342     24.5075     49.4044   1.0130584232e+02   6.3964033079e+01     1.233683    0.6977528 -32.28  0.006881202    1.621    0.383
         9 -14.6954     79.0719     69.9439   8.6924823505e+01   5.3028758956e+01      2.96647     1.567801 -28.05    0.0119597    2.384    0.581
        10 -12.7337    138.3840      4.2451   4.6924693984e+01   4.9662935149e+01     1.321514    0.3445274  61.90  0.004691122    2.970    0.663
        11 -11.6952     73.3897      1.4961   6.0848059011e+01   6.4462582583e+01    0.3590447    0.1711108  57.26 0.0006187386    2.311    0.567
        12 -13.2817     83.6840     22.6492   6.7259696179e+01   6.0169938777e+01     0.779633    0.5510978  46.73 0.0005150822    1.429    0.300
        13 -14.0945    120.7537     10.8723   5.2643071937e+01   5.3349789059e+01     2.350031     1.029492  69.33  0.009349748    2.636    0.621
        14 -12.5109     75.7970     13.4119   6.5704912454e+01   6.2789595291e+01    0.4338611    0.3452891 -22.37  0.001093721    1.291    0.225
        15 -14.0644     86.2941     11.7935   6.1667154412e+01   6.0903772667e+01     1.594848    0.5691478  51.20  0.006599651    2.516    0.603
        16 -11.6954    149.9909     21.6829   5.0879702681e+01   4.5065269517e+01    0.5106648    0.3567015 -30.09  0.002631381    1.517    0.341
        17 -13.2118    185.8397     12.6986   4.2882808907e+01   3.6925970478e+01    0.7557799    0.5796804 -31.93  0.003929046    1.388    0.279
        18 -12.5523    193.0169      5.9232   4.0208516628e+01   3.5811444889e+01     0.594055    0.3904186 -40.06   0.00258421    1.527    0.345
        19 -11.9519    188.3851      5.6327   4.0624382860e+01   3.6991109151e+01    0.3942303    0.2872434 -51.93   0.00114406    1.370    0.270
        20 -11.7825     64.8306     17.8732   7.1655082250e+01   6.4223753608e+01    0.4522758    0.2891575  22.29  0.001394192    1.530    0.347
        21 -14.1067     86.5638      3.5643   5.7889016537e+01   6.1645161774e+01     2.376908    0.4402252  56.57  0.007361317    4.746    0.789
        22 -12.3912    175.4177     13.9297   4.4549072553e+01   3.9432813378e+01    0.5092813    0.3281426  37.76   0.00228759    1.805    0.446
        23 -11.6808    169.8029     10.3742   4.4232772833e+01   4.1212091171e+01    0.2963184    0.2313287 -86.82  0.001076931    1.279    0.218
        24 -12.1781    149.3593      8.4226   4.6572714084e+01   4.6561962608e+01    0.7673404    0.3392707  73.03  0.002900773    2.323    0.570
        25  -9.4151     66.5194      8.4702   6.6554375521e+01   6.5043150900e+01    0.1274547    0.1039699  11.94 0.0002490096    1.001    0.001
        26 -10.2902     49.1283      5.2038   7.1621245319e+01   6.8308107218e+01    0.3284554    0.1755144 -23.08  0.001426303    1.729    0.422
        27 -11.6986    168.2278      2.4994   4.2066467987e+01   4.2337859733e+01    0.3207044    0.2521709  58.08  0.001867069    1.185    0.156
        28  -9.8244    211.9630      1.5115   3.7266563205e+01   3.1626516273e+01    0.1912223    0.1139443  76.84  0.000534531    1.527    0.345
        29  -9.2733    158.3023      1.2999   4.2977874307e+01   4.4938463351e+01    0.1377018   0.08993393  41.67 0.0002411606    1.585    0.369
        30 -10.7392    194.0054    249.0195   9.6632286605e+01  -3.6316062562e+00    0.1975514    0.1257406  12.88  0.001151183    1.750    0.429
        31  -9.9926    123.9991    205.9954   1.0414843682e+02   1.4812637369e+01     0.183841    0.1624625  53.37            0    1.007    0.007
        32  -9.0814    246.3134    183.6590   7.5779051415e+01  -2.8922255648e+00    0.1164937     0.103691 -57.70 0.0007046973    1.701    0.412
        33 -10.6519     33.9117    177.4630   1.2031412914e+02   3.3634929445e+01    0.2631701    0.1864134 -35.88  0.001528526    2.176    0.540
        34 -10.9866    203.3172    172.5005   8.1448577042e+01   6.4819050092e+00    0.2569869    0.1263468 -38.61  0.001092636    2.046    0.511
        35 -10.3163      2.4738    171.4808   1.2654292296e+02   3.7836518860e+01     0.117044   0.08497753  83.35 0.0001655439    1.047    0.045
        36 -12.0208    136.7949     97.6149   7.8263769052e+01   3.5817331322e+01    0.7398741    0.3686222  36.84  0.002683976    2.338    0.572
        37 -11.8758    134.8066     92.7490   7.7370450164e+01   3.7276611615e+01    0.5170272    0.3851036  71.70  0.001564924    1.738    0.425
        38 -10.7270    114.2425     97.1863   8.4255907031e+01   4.0728076418e+01    0.3310102    0.2572681 -57.98 0.0008815463    1.366    0.268
        39 -14.5429     60.4555     71.7928   9.4035211778e+01   5.5418586642e+01     1.584173      1.11731  24.30  0.002686437    1.583    0.368
        40 -10.9994    188.7892     94.5763   6.5646816873e+01   2.4149261814e+01    0.3336581    0.2746804  85.88 0.0004397922    1.450    0.311
        41 -11.2935    214.2627    163.9060   7.7502511038e+01   5.8830202844e+00    0.3329516    0.1952473   6.22  0.001271209    2.929    0.659
        42 -10.3857    240.3230    157.6574   7.1421685020e+01   2.0855142657e+00    0.1303436    0.1076928 -62.37 0.0007050596    1.729    0.422
        43  -8.9877    197.6851     93.2667   6.3605151134e+01   2.2266043769e+01    0.1504223     0.118275 -74.09            0    1.548    0.354
        44 -11.3417    119.6719     90.9371   8.0916401776e+01   4.0954203148e+01    0.8592875    0.3163959  42.81  0.002852953    2.827    0.646
        45 -11.9889    127.8758     82.1198   7.6002067849e+01   4.0987598375e+01    0.4280863    0.4088143  47.51  0.001193281    1.085    0.078
        46 -12.5940    121.6496     81.2114   7.7415104907e+01   4.2539363904e+01     0.623051    0.5109745  33.23  0.001627119    1.262    0.208
        47 -12.6106    114.9323     78.6443   7.8499649994e+01   4.4492125180e+01     1.095721    0.5580207 -36.57  0.004322381    1.983    0.496
        48 -10.9389    249.2956     86.2943   5.3736191988e+01   1.1869592177e+01    0.3927736     0.268933 -44.02  0.001802905    1.294    0.227
        49  -9.3945    236.0000     86.9271   5.5720668080e+01   1.4585854014e+01    0.2392376   0.07419395 -34.51 0.0007970665    2.905    0.656
        50 -10.2369    148.5210     80.5353   7.0293173688e+01   3.6512458656e+01    0.2805347    0.2568111 -40.96 0.0006792828    1.088    0.081
        51 -12.2362    144.3259     75.7516   6.9828543862e+01   3.8410380144e+01    0.6663203    0.5613132 -72.18  0.002464416    1.406    0.289
        52 -10.9125    199.1419    154.6569   7.8445991567e+01   1.0506624918e+01    0.3834422    0.1916989 -55.98  0.001319031    3.329    0.700
        53  -9.5661    234.3971     76.2142   5.3326079775e+01   1.6635931417e+01    0.2070385    0.1161584 -43.61 0.0009418248    1.610    0.379
        54  -9.2177    152.5011     88.4760   7.1722284757e+01   3.4037184366e+01    0.1562914    0.1533373 -55.35 0.0003093076    1.038    0.037
        55 -11.0724    152.3531     73.1517   6.7135586336e+01   3.6948353877e+01    0.4252492    0.2827268  48.35  0.001888511    1.499    0.333
        56 -12.4444    126.0597     72.7917   7.3541282761e+01   4.3207414662e+01    0.8871712    0.3992626  60.68  0.002815716    3.446    0.710
        57  -9.9948    171.0063     72.7472   6.2998807913e+01   3.2413308835e+01     0.363883    0.1968131  72.29  0.001285351    2.709    0.631
        58  -9.9385    182.7093     71.9765   6.0496768310e+01   2.9629414866e+01    0.2077942    0.1893471 -44.11 0.0003541568    1.075    0.070
        59 -11.8104    116.7685     68.3614   7.4641553543e+01   4.6095906453e+01     0.524789    0.3883488  18.33  0.002453689    1.600    0.375
        60 -10.9446    118.7987     63.3799   7.2400640494e+01   4.6564197185e+01     0.322702    0.2514435 -20.89 0.0005466461    1.334    0.250
        61 -10.1055    146.6377     66.5351   6.6376818653e+01   3.9509155129e+01     0.310766    0.2337669   4.05  0.001406375    1.698    0.411
        62 -12.3848    141.6203     96.4750   7.6706955196e+01   3.4964963507e+01    0.7974452    0.5879833 -55.58  0.003618445    1.478    0.324
        63 -11.1730    214.5679     60.9679   5.2237640662e+01   2.3566087513e+01    0.3968975    0.2604999 -31.21  0.001173278    1.510    0.338
        64 -10.7545    169.8677     62.9481   6.0296443395e+01   3.4342607664e+01    0.4147967    0.1998705  55.75  0.001606098    2.035    0.509
        65 -12.2914    124.8285     57.1265   6.8638288420e+01   4.6290557337e+01    0.3350317    0.2998595  33.91 0.0004493303    1.092    0.085
        66 -10.4885    227.2622     57.3499   4.9592319423e+01   2.1113963803e+01    0.2658147    0.2159315 -61.20 0.0005305845    1.175    0.149
        67 -11.5041    174.6534     56.3994   5.7418957545e+01   3.4170826425e+01    0.2669937    0.2507176 -78.80 0.0003747461    1.074    0.069
        68 -12.1496    133.6591     53.9002   6.5301987180e+01   4.4751757516e+01    0.5103792    0.3284792  63.35  0.001037192    1.750    0.429
        69 -10.5908    153.7015     53.2095   6.0537709051e+01   3.9950530812e+01    0.5006623    0.2269474  41.94  0.001812424    2.486    0.598
        70 -11.3354    145.4510     50.5971   6.1457611930e+01   4.2403163948e+01    0.3481621    0.3049229 -40.39 0.0008949962    1.178    0.151
        71 -11.1716     99.4137     49.9274   7.3264756255e+01   5.3020924942e+01    0.5451561    0.2436461  38.65  0.002140452    2.363    0.577
        72 -11.0059    137.6127     48.1975   6.2418012612e+01   4.4688036146e+01    0.3748154    0.2879018 -57.78  0.001448488    1.542    0.351
        73 -10.6819    139.5550     43.7654   6.0461637781e+01   4.4867547993e+01    0.4185729    0.2623011  68.39  0.001629373    1.827    0.453
        74 -11.0214    175.6023     44.3422   5.3628801277e+01   3.5701319144e+01    0.4667989    0.2959764 -40.23  0.002169831    1.577    0.366
        75 -11.0390    181.8839     43.2919   5.2280951880e+01   3.4247630219e+01    0.3305596    0.2399156  62.20 0.0003617842    1.335    0.251
        76 -11.4902    157.3662     43.5217   5.6677935319e+01   4.0456477676e+01    0.3717383    0.2618644  51.73 0.0008151929    1.361    0.265
        77 -11.2961    122.2965     43.6004   6.4517153132e+01   4.9015992933e+01    0.2967732    0.2498314   6.28 0.0008056684    1.235    0.190
        78 -10.7647    203.2916     43.8391   4.9253611462e+01   2.8790962913e+01    0.3402134    0.1570766  54.28   0.00139868    2.166    0.538
        79  -9.8093    102.9743     43.5532   6.9800111681e+01   5.3309898912e+01    0.2129513    0.1786377 -21.36 7.149598e-05    1.162    0.139
        80 -11.2932    197.4576     40.7506   4.9217815014e+01   3.0662050937e+01    0.3430487    0.2677038 -66.98 0.0005592505    1.307    0.235
        81 -12.6031    216.9704     38.7595   4.6153235212e+01   2.6138310466e+01    0.6646268    0.3141688  59.42  0.002916442    2.090    0.522
        82 -11.9589    203.9644     37.4285   4.7430018543e+01   2.9484952443e+01    0.8880259    0.3785842  66.64  0.003574035    2.317    0.568
        83  -8.8488    130.2794     37.2754   6.0300009395e+01   4.8027818855e+01    0.1442018    0.1052074  25.35  0.000174299    1.499    0.333
        84 -10.1712    159.9248     36.1461   5.3830879188e+01   4.0806104958e+01    0.2139035    0.1976632  54.92 0.0004207223    1.041    0.039
        85  -9.7070    140.8049     35.0328   5.7189307721e+01   4.5758097002e+01    0.2434176    0.1617762  15.29 0.0008387966    1.968    0.492
        86 -12.6535     80.6542     32.0840   7.2288767021e+01   5.9463650321e+01    0.7094478    0.5746337  50.02  0.002650029    1.442    0.306
        87 -11.4173    232.7033    153.8647   7.1926751653e+01   4.0916093850e+00    0.2465608    0.1839474  25.95  0.001177017    1.378    0.274
        88 -10.2574     29.8117    153.8460   1.1889191152e+02   3.9457663545e+01    0.1792152    0.1252695  77.59  0.001066162    1.321    0.243
        89 -11.1664     18.5220    153.8079   1.2157840751e+02   4.0494713192e+01    0.2098613    0.1707184  46.32  0.001435419    1.385    0.278
        90 -10.1615    189.6780    153.3147   8.0084078522e+01   1.2693024674e+01    0.1452293    0.1211873 -85.90 0.0006788318    1.659    0.397
        91  -9.7031    139.0040    152.2991   9.1277323346e+01   2.3322642540e+01    0.2179893    0.1993906  42.33  0.001102823    1.082    0.076
        92 -11.8907    246.5973    145.5701   6.7734010189e+01   2.8818582085e+00    0.4062239    0.2713864 -49.22  0.002064605    1.759    0.431
        93 -10.9100    176.6121     33.4677   5.0199414134e+01   3.6891040701e+01    0.2938551    0.2438904  64.84 0.0006396865    1.147    0.128
        94  -9.9118     97.2668     33.9387   6.7748886439e+01   5.5926448412e+01    0.1986445    0.1713032   1.67  0.000880222    1.084    0.078
        95 -10.5328    151.1001     31.7811   5.4038860848e+01   4.3598928762e+01    0.4485482    0.2552861  58.67  0.002024263    1.630    0.386
        96 -10.0729    104.2129     29.4373   6.3950793406e+01   5.5057251438e+01     0.290343    0.1301663  52.21  0.001208673    2.140    0.533
        97  -9.6199    109.0271     27.9666   6.2067619089e+01   5.4182886726e+01    0.3124717     0.156436  39.30  0.001345333    1.985    0.496
        98  -9.4843    216.4702     28.4722   4.3582257182e+01   2.7570815745e+01    0.1340618    0.1229343 -76.44 0.0002704105    1.045    0.043
        99 -11.4037     57.9628    144.3200   1.1054894672e+02   3.8632712562e+01     0.669117    0.3923413  62.30  0.003203832    1.985    0.496
       100 -11.1708    153.7112     20.9490   4.9994150812e+01   4.4206107950e+01     0.368899    0.2610228 -41.06  0.001095278    1.505    0.335
       101 -11.4215    241.6978     22.6777   3.9702000164e+01   2.2426448719e+01     0.381213    0.2506579 -75.82  0.001122548    1.487    0.328
       102 -10.2409    235.5623     21.4705   3.9968231539e+01   2.3949748175e+01    0.3052572    0.1123785  67.72  0.001290314    2.611    0.617
       103 -10.3441    139.5925     20.9262   5.2532465463e+01   4.7749679538e+01    0.2624013    0.1972027  66.96 0.0006166595    1.296    0.228
       104 -10.9230    209.0115     19.0756   4.1984585759e+01   3.0487112184e+01    0.3453256    0.2584539 -58.10   0.00132794    1.262    0.208
       105 -11.7549     51.6802    141.5545   1.1178918127e+02   4.0057545384e+01    0.6634872    0.2229985 -66.99  0.002526026    2.703    0.630
       106 -12.9089     47.3166    141.9082   1.1299063568e+02   4.0472354614e+01    0.5488148    0.5250738  57.36  0.003063162    1.216    0.177
       107  -9.9827     90.4827    145.4741   1.0217739119e+02   3.3722556498e+01    0.1438755    0.1332914 -81.73 6.477725e-05    1.003    0.003
       108 -11.2862    214.3772    142.8010   7.2786553992e+01   9.5611549740e+00    0.4094169    0.2739672  55.25  0.001929924    1.768    0.434
       109 -12.0134     76.2738    139.2621   1.0482387203e+02   3.7389953944e+01    0.6087677     0.245698 -59.46    0.0023936    2.262    0.558
       110  -9.7565    240.5050     34.1097   4.2456985857e+01   2.1277170544e+01    0.1923257    0.1182531 -35.97 0.0005401453    1.508    0.337
       111 -10.0656    193.3223    138.6471   7.5954528162e+01   1.4733218322e+01    0.1533814    0.1217602 -76.37 0.0007047421    1.755    0.430
       112 -11.4338     33.8272    135.8294   1.1571861352e+02   4.3339127912e+01    0.2456189    0.2000498  28.30  0.001550471    1.504    0.335
       113 -11.6136     82.6119    134.1095   1.0212937529e+02   3.7690270400e+01    0.2742497    0.2218062 -38.06  0.001457497    1.370    0.270
       114 -10.8016    248.0065    129.5019   6.3922991430e+01   5.2037785088e+00     0.199007    0.1375311  46.03  0.001043587    1.622    0.383
       115 -10.9327    122.2222    127.3809   8.9915900915e+01   3.2297121129e+01    0.3755979    0.3563076 -53.94  0.001338482    1.029    0.029
       116 -11.1078    199.1793    126.8264   7.1927354956e+01   1.5710567283e+01    0.2189325    0.1813963   2.76  0.001088869    1.343    0.255
       117 -11.0523    218.5027    121.7483   6.7056309652e+01   1.2453207333e+01    0.3198493   0.09848166  40.21 0.0009011349    4.483    0.777
