#   1 NUMBER                 Running object number                                     
#   2 MAG_AUTO               Kron-like elliptical aperture magnitude                    [mag]
#   3 X_IMAGE                Object position along x                                    [pixel]
#   4 Y_IMAGE                Object position along y                                    [pixel]
#   5 X_WORLD                Barycenter position along world x axis                     [deg]
#   6 Y_WORLD                Barycenter position along world y axis                     [deg]
#   7 A_WORLD                Profile RMS along major axis (world units)                 [deg]
#   8 B_WORLD                Profile RMS along minor axis (world units)                 [deg]
#   9 THETA_WORLD            Position angle (CCW/world-x)                               [deg]
#  10 FWHM_WORLD             FWHM assuming a gaussian core                              [deg]
#  11 ELONGATION             A_IMAGE/B_IMAGE                                           
#  12 ELLIPTICITY            1 - B_IMAGE/A_IMAGE                                       
         1 -13.5940     67.6267    144.5666   1.2860596450e+02   3.7758735392e+01     3.045449     1.393688 -83.54  0.002210414    5.761    0.826
         2 -13.9739    191.5145     24.1588   6.7905717335e+01   3.4576905760e+01     1.794493     1.198227   0.05  0.007368101    2.393    0.582
         3 -14.1306    198.8969     18.1018   6.5435114093e+01   3.3476215034e+01      1.60062      1.54293 -17.19    0.0067899    1.285    0.222
         4 -13.7147    204.5509     11.3218   6.3134039747e+01   3.2862267881e+01     1.290157    0.7242781  44.85  0.001337721    2.200    0.545
         5 -12.2443      2.3140     23.7130   1.2104938767e+02   6.8835582713e+01    0.6551249    0.1592643 -48.04   0.00311345    2.894    0.654
         6 -13.6047      3.3424      7.7671   1.1450713619e+02   7.1126660998e+01     1.186051    0.7596426 -20.63  0.009008085    1.147    0.128
         7 -14.8926      8.3983    151.3276   1.4380856210e+02   4.2435174371e+01     2.350883     1.188064 -82.90 0.0008537612    1.686    0.407
         8 -10.9356    247.6629    249.8697   1.0876844893e+02  -1.3819840759e+01    0.3647784    0.1561048  30.89  0.001861799    2.111    0.526
         9 -10.7822    162.7908    250.1721   1.2428269010e+02  -2.5636622026e-01    0.4245569     0.119572  48.14  0.001534603    3.392    0.705
        10 -12.0380    139.7460    248.8875   1.2842066760e+02   3.8592429232e+00    0.3937131     0.318829 -81.10  0.002551298    1.436    0.304
        11 -11.2875    124.1043    249.9371   1.3145296934e+02   6.2863630896e+00    0.3341551    0.1370436  50.85  0.001548094    2.114    0.527
        12 -14.8080     87.8445    240.1981   1.3703888571e+02   1.3796111693e+01     3.565065     1.881181  41.36   0.01928412    1.808    0.447
        13 -13.8235     46.0925    227.8208   1.4341817669e+02   2.2008576147e+01    0.7062621    0.4095107  87.37  0.002579197    1.536    0.349
        14 -15.6658     53.9165    213.0793   1.4064909536e+02   2.4023827440e+01     7.745211     3.648251  73.93   0.03586893    2.542    0.607
        15 -13.7454     13.7232    239.8592   1.4968144998e+02   2.3414215534e+01      1.41381    0.8055477 -82.22  0.009248077    1.441    0.306
        16  -8.9809    185.7062    238.3620   1.1820396628e+02  -2.3513403613e+00    0.1225734   0.09777175  73.57  0.000703015    1.705    0.414
        17 -10.1727    228.5608    205.3445   1.0427103635e+02  -4.6436015665e+00    0.2564731    0.2103827 -53.38 0.0008029485    1.580    0.367
        18 -10.4196    192.9143    194.6313   1.0913587817e+02   3.7557551408e+00    0.7980124    0.3731455 -62.35  0.002019313    7.262    0.862
        19 -11.8283     69.6356    193.2300   1.3530154973e+02   2.6187056165e+01    0.3870144    0.2563308 -46.06  0.001611728    1.961    0.490
        20  -8.7760    181.5226    192.4788   1.1105676733e+02   6.3849427654e+00    0.1427497    0.1339999  30.81 3.645028e-05    1.014    0.014
        21 -11.8275     74.5437    186.1703   1.3333514245e+02   2.7068197853e+01    0.3005956    0.2326954 -54.51 0.0007161016    1.428    0.300
        22 -11.1993     83.1520    174.4632   1.2972430954e+02   2.8465667648e+01    0.2433149     0.217195 -72.99 0.0003519056    1.119    0.107
        23 -13.4261     70.8070    171.7058   1.3214936901e+02   3.0925195122e+01    0.5002514    0.2804122 -44.85  0.001618947    2.222    0.550
        24  -9.6475    125.6588    174.6757   1.1993778456e+02   2.1105229390e+01    0.1449808    0.1192336  -8.98 0.0007051003    1.729    0.422
        25 -12.6699     89.2724    166.2064   1.2697166385e+02   2.9432516825e+01     1.855072     0.636883  52.45  0.001419079    3.839    0.740
        26 -14.5946     34.6637    247.2271   1.4680782039e+02   1.9676451735e+01     9.448045     2.475242  33.07    0.0202904   14.878    0.933
        27 -10.0534    101.8542    149.6707   1.2088637988e+02   3.1230944464e+01    0.2800119    0.2560437 -69.03 0.0006760134    1.039    0.037
        28  -9.4273    104.4636    145.5765   1.1940745573e+02   3.1737948742e+01    0.3195203    0.2149722 -23.48   0.00101594    2.372    0.578
        29 -12.2169     90.4873    149.0532   1.2362340360e+02   3.3284942677e+01    0.2815959    0.2512193 -37.60 0.0005508749    1.279    0.218
        30 -12.4055     43.3230    148.5863   1.3530861906e+02   3.9799477445e+01    0.4512004     0.329058  38.15    0.0027082    1.587    0.370
        31  -9.1833    134.0000    144.9506   1.1192169600e+02   2.6234217414e+01     0.256788   0.08622894 -49.21 0.0008019549    2.939    0.660
        32  -9.7205    111.9845    135.5201   1.1533874963e+02   3.2726332502e+01    0.2867687    0.2035246 -33.61  0.001229111    1.659    0.397
        33 -10.6977     99.4195    132.6460   1.1798046284e+02   3.5662240766e+01    0.2813582    0.2314239 -27.34 0.0007817952    1.435    0.303
        34 -12.1167     44.3829    128.0782   1.3183211621e+02   4.4470285339e+01    0.4176745    0.2675854 -85.52  0.002186342    1.737    0.424
        35 -14.2750     10.6201    206.6639   1.4807858644e+02   3.0270001658e+01     1.174997    0.8697294  79.04  0.002682612    1.070    0.065
        36  -9.4561    108.3334    122.9631   1.1340772379e+02   3.6309714805e+01     0.201373    0.1756659 -50.38 0.0003261023    1.094    0.086
        37  -9.4762    164.5149    157.5410   1.0756798605e+02   1.7018905709e+01    0.1526072     0.147804  77.11  0.000139383    1.031    0.030
        38 -11.3360    168.0901    113.1198   9.6133681253e+01   2.5689674207e+01    0.3804899    0.3146495 -73.45 0.0007336814    1.369    0.269
        39  -9.6338    204.8642    110.8381   8.8015459327e+01   1.7497186930e+01    0.3901125    0.1837672  37.54  0.001329713    2.970    0.663
        40 -11.7819      1.8464     89.9594   1.3741843550e+02   5.6375974126e+01    0.5748619    0.1024237 -64.42  0.002144115    3.675    0.728
        41  -9.6099    155.5250     76.5275   8.8932402960e+01   3.5761646924e+01    0.1495124     0.146581  68.43 9.854655e-05    1.005    0.005
        42 -10.1443    128.4120     54.8453   8.8683454508e+01   4.5658832796e+01    0.2980942    0.2365045  76.88 0.0006360064    1.568    0.362
        43 -11.1189    122.4269     50.9309   8.8905966570e+01   4.7572715954e+01    0.3997523    0.2839835  76.01    0.0011422    1.984    0.496
        44 -12.7581     57.1853    225.8887   1.4125098377e+02   2.0962902278e+01    0.7113282    0.4215256 -48.25  0.003854044    2.567    0.610
        45  -9.4040    190.6739    250.3341   1.1911018508e+02  -4.9832142941e+00    0.1191784   0.09206251  65.72 0.0007051424    1.715    0.417
        46 -15.2310      3.5194    236.2526   1.5107298447e+02   2.5139549933e+01     9.080745          nan -68.55   0.02449284   10.742    0.907
        47 -10.4440    143.0713    241.4717   1.2681934761e+02   4.5490604572e+00    0.1982684    0.1080432  44.14 0.0005118896    1.546    0.353
