#   1 NUMBER                 Running object number                                     
#   2 MAG_AUTO               Kron-like elliptical aperture magnitude                    [mag]
#   3 X_IMAGE                Object position along x                                    [pixel]
#   4 Y_IMAGE                Object position along y                                    [pixel]
#   5 X_WORLD                Barycenter position along world x axis                     [deg]
#   6 Y_WORLD                Barycenter position along world y axis                     [deg]
#   7 A_WORLD                Profile RMS along major axis (world units)                 [deg]
#   8 B_WORLD                Profile RMS along minor axis (world units)                 [deg]
#   9 THETA_WORLD            Position angle (CCW/world-x)                               [deg]
#  10 FWHM_WORLD             FWHM assuming a gaussian core                              [deg]
#  11 ELONGATION             A_IMAGE/B_IMAGE                                           
#  12 ELLIPTICITY            1 - B_IMAGE/A_IMAGE                                       
         1 -14.2393    233.7240     90.4804   5.1413008128e+01   1.5097821894e+01       2.6806     1.270754 -39.72   0.01188345    1.861    0.463
         2 -13.8039    248.5664    124.9989   5.6894354784e+01   6.4806785290e+00     5.431106    0.3395398 -39.71   0.01068752    9.856    0.899
         3 -13.0346    236.2534     40.3908   3.9826584633e+01   2.2045468238e+01     1.157678    0.5376065 -56.54  0.005047411    2.137    0.532
         4 -13.7084    249.5579     59.6944   4.2641788208e+01   1.6583953337e+01     3.377087    0.4670649 -33.82  0.007346863    9.503    0.895
         5 -15.7754    245.8701     21.7911   3.5013054480e+01   2.2354765734e+01     5.239686     2.307453 -32.00   0.02570089    2.358    0.576
         6  -9.3396    160.6068      8.8149   4.0641039264e+01   4.3629290376e+01    0.1783559    0.1148347 -42.90 0.0009479683    1.662    0.398
         7  -9.8644    189.5143      6.9951   3.6729111683e+01   3.6736730270e+01    0.1771729    0.1224002 -36.41 0.0005685373    1.546    0.353
         8 -10.5597    111.0562      4.7370   4.7688025788e+01   5.5992455260e+01    0.2228455    0.1767348  16.22 0.0006932501    1.354    0.261
         9  -9.5889    185.7953      3.9968   3.6352598574e+01   3.7922367149e+01    0.1533829     0.101217 -30.67  0.000739403    1.697    0.411
        10 -10.1293     69.9895      3.7081   5.8205052549e+01   6.4872892784e+01    0.1739758    0.1369404  35.39 0.0003923282    1.084    0.078
        11  -9.6632     50.9282      3.3193   6.5095414748e+01   6.8330870668e+01     0.166233    0.1249059  23.52 0.0003568814    1.090    0.082
        12  -9.2815    159.1679      2.3922   3.8971474834e+01   4.4564861553e+01    0.1878993    0.1095612  84.01  0.000622507    1.660    0.398
        13  -9.7061     14.7586      2.0002   8.2525776923e+01   7.3353477682e+01    0.1363915   0.07831997 -32.32 0.0003100903    1.532    0.347
        14  -9.5872    250.5720    245.8834   7.9699867613e+01  -1.1752388319e+01    0.1587621   0.09517824 -26.04 0.0007148816    1.577    0.366
        15 -10.7944    209.5627    246.6762   8.7199575505e+01  -6.4110995709e+00    0.4592336    0.3037379 -40.96  0.002825799    1.859    0.462
        16 -11.3158    193.4210    247.4281   9.0385313393e+01  -4.1748138571e+00    0.4532967    0.2422512 -42.42  0.002473116    2.230    0.552
        17  -9.4102    184.0105    250.5222   9.2662279215e+01  -3.2178899296e+00    0.1908537    0.1000936  33.58 0.0008882858    1.560    0.359
        18 -10.5838    167.5813    250.0677   9.5817954255e+01  -6.6961367687e-01    0.3383709    0.1485213  29.52  0.001559116    2.172    0.540
        19 -11.0766    163.5268    246.9855   9.6196020857e+01   4.2537652001e-01    0.2691756    0.2013454 -58.85  0.001419344    1.824    0.452
        20 -10.1380    150.8490    249.9401   9.9130422212e+01   1.9213280199e+00    0.1908027    0.1524814  16.85  0.001219854    1.268    0.212
        21  -9.6123    237.7465    244.3423   8.1683761948e+01  -9.9471247259e+00    0.1862204    0.1292853 -37.80  0.001196408    1.800    0.445
        22 -10.2776    202.0138    241.6742   8.7850674528e+01  -4.6302399420e+00    0.2826982    0.1762269 -39.46   0.00144591    1.851    0.460
        23 -10.8655    169.5326    241.6246   9.4229957873e+01   3.2714416913e-01    0.3282713    0.1924764 -21.54  0.001612588    2.490    0.598
        24 -10.5840    248.6059    239.8031   7.9042327777e+01  -1.0775985598e+01    0.2101989    0.1243618 -33.98 0.0008741541    1.784    0.439
        25  -9.5315    240.0433    240.4973   8.0650921056e+01  -9.7659189945e+00    0.1623058   0.09748875  30.76 0.0005412283    1.511    0.338
        26  -9.6588    219.9530    239.9798   8.4199610175e+01  -6.9794101038e+00    0.1553128    0.1506888  54.70 0.0007930677    1.662    0.398
        27 -10.7089    148.3655    239.5258   9.8239691375e+01   4.0109714877e+00    0.2266502    0.1625871 -44.45  0.001085064    1.657    0.396
        28 -10.9791    230.4738    236.5509   8.1710864111e+01  -7.9813104917e+00    0.3157082    0.2390206 -50.00  0.001445551    2.119    0.528
        29 -10.0346    183.2256    238.3192   9.0998241476e+01  -1.2949978529e+00     0.261802    0.1744925 -32.46  0.001517756    1.683    0.406
        30 -11.4032    159.1686    237.0900   9.5677540210e+01   2.6950470350e+00    0.3481382    0.1995314 -44.65  0.001837467    2.045    0.511
        31 -11.3266    204.7977    233.9204   8.6077952348e+01  -3.9332231460e+00    0.5071405    0.4307219  70.90  0.001611268    2.025    0.506
        32 -10.4417    199.1107    226.7417   8.6003691669e+01  -1.9942840208e+00    0.2705784        0.216 -43.15  0.001316826    1.537    0.349
        33  -9.8873    243.9658    235.9963   7.9215905169e+01  -9.7084581117e+00     0.149954    0.1429162   6.51 0.0006709485    1.619    0.382
        34 -10.3943    139.4841    235.4815   9.9529176193e+01   6.1231169910e+00     0.241673    0.1307346 -52.15  0.001218012    2.192    0.544
        35 -11.2888    246.1280    225.3444   7.7026632855e+01  -8.6149078426e+00    0.4166541    0.3079627  48.17  0.002480838    2.104    0.525
        36 -10.7768    240.0793    220.6645   7.7275394141e+01  -7.1635642148e+00    0.6413369     0.219555 -38.94  0.002816942    2.983    0.665
        37 -11.0539    216.0088    232.7483   8.3751407755e+01  -5.4215219168e+00    0.4139988    0.2636754 -34.54  0.002448041    1.671    0.402
        38  -9.5903    170.5370    234.0082   9.2895804381e+01   1.3816489399e+00    0.1778493     0.127555 -40.15  0.001033367    1.602    0.376
        39  -9.4912    240.4937    231.3044   7.9037193597e+01  -8.6470436834e+00    0.2019332    0.1064187 -37.41  0.001119777    2.024    0.506
        40  -9.9498    225.6930    231.4006   8.1724587986e+01  -6.6236660757e+00     0.191495    0.1400256 -40.69 0.0007512833    1.710    0.415
        41 -10.7749    235.4028    228.9055   7.9536771296e+01  -7.6387502993e+00     0.331309    0.1860332 -37.48  0.001581856    1.909    0.476
        42  -9.8969    145.4218    230.7348   9.7624970817e+01   6.0000172782e+00    0.1715355    0.1227067 -34.04 0.0009520822    1.703    0.413
        43  -9.9713    133.4822    231.5051   1.0025310906e+02   7.7965334727e+00    0.1321159    0.1123289  40.21 5.128886e-05    1.004    0.004
        44 -11.4345    190.8831    234.6921   8.8915991397e+01  -1.9289625103e+00    0.5300917    0.3569999 -54.09  0.002946546    2.141    0.533
        45 -10.2669    229.6922    228.1976   8.0449703183e+01  -6.7480750670e+00    0.2418369    0.1499876 -46.49  0.000877625    2.243    0.554
        46  -9.5666    174.0000    228.4283   9.1326356288e+01   1.7354952258e+00    0.2525033   0.07502834 -45.82 0.0009245051    3.853    0.740
        47  -9.8581    211.8063    227.2497   8.3628680176e+01  -4.0111599544e+00    0.2635394    0.1523497 -34.09  0.001438911    1.799    0.444
        48  -9.8120    184.5855    227.3102   8.8992567119e+01   2.1122131303e-01    0.2168335    0.1270062 -45.83 0.0009387866    2.010    0.503
        49  -9.7213    152.4855    228.5190   9.5816020307e+01   5.2353140820e+00    0.1332372    0.1137271  32.18 5.890195e-05    1.007    0.007
        50 -10.2987    245.2489    230.5373   7.8071063741e+01  -9.1773584631e+00    0.2299569      0.15592 -46.58 0.0008302677    2.241    0.554
        51  -9.7969    223.5102    226.2250   8.1250534087e+01  -5.5899489556e+00    0.2098915    0.1148946 -39.54  0.001121535    2.003    0.501
        52 -10.4226    190.6272    225.5383   8.7487759488e+01  -4.7151983870e-01    0.3038573    0.1809921 -37.94  0.001355535    1.831    0.454
        53 -10.2701    205.9519    224.8746   8.4354433908e+01  -2.7688522598e+00    0.2828121    0.1804903 -40.39  0.001389542    1.757    0.431
        54 -10.3767    217.1283    222.8937   8.1874448548e+01  -4.1701484484e+00    0.3471261    0.2239362 -51.16  0.001598446    2.305    0.566
        55 -10.1172    180.5518    222.2238   8.8984685256e+01   1.6931606112e+00    0.3100329    0.1254687 -40.65  0.001315399    2.747    0.636
        56 -10.3732    227.7641    221.4245   7.9635052667e+01  -5.5244824229e+00    0.2551219    0.2195263 -27.65  0.001386606    1.365    0.267
        57 -11.1518    226.5372    213.1518   7.8398016975e+01  -4.1411433290e+00    0.5666393    0.2712541 -50.95  0.002316902    3.717    0.731
        58 -10.1814    186.2332    220.6884   8.7569378231e+01   1.0177229103e+00    0.3819064    0.1479199 -47.69  0.001547654    3.153    0.683
        59  -9.6695    174.4987    221.9970   9.0196309966e+01   2.7271228357e+00    0.1865247    0.1307418 -39.63 0.0008984669    1.586    0.370
        60 -10.4234    243.2160    200.2624   7.3026919818e+01  -4.7024298905e+00    0.4237481    0.1866737 -34.32   0.00186141    2.101    0.524
        61 -11.6473    248.0294    216.5604   7.5155771089e+01  -7.6919273818e+00    0.5590515    0.2560617 -36.52  0.002888054    2.124    0.529
        62 -10.8154    247.1837    206.4342   7.3476062190e+01  -6.1649796638e+00    0.3895867    0.2025961 -46.49  0.001651372    2.611    0.617
        63 -10.6975    193.2673    218.1134   8.5710378207e+01   2.9343547981e-01    0.4019542    0.2278514 -45.52  0.002019781    2.046    0.511
        64  -9.7843    210.9680    218.1935   8.2235689755e+01  -2.5283040638e+00    0.2242173    0.1734118 -25.04    0.0013724    1.291    0.226
        65 -10.0458    219.9662    216.8797   8.0289394998e+01  -3.7072919193e+00    0.2171427    0.1690124 -22.65  0.001354278    1.248    0.198
        66  -9.5939    205.5665    216.7088   8.3025834795e+01  -1.4532985092e+00    0.3981247    0.1127387 -36.72  0.001401139    3.950    0.747
        67  -9.1098    204.6589    212.2177   8.2412606544e+01  -5.9761115059e-01    0.2102427    0.1502239 -30.10 0.0008297532    1.417    0.294
        68 -10.3242    170.6248    215.9866   9.0021003834e+01   4.4111603256e+00    0.2858524    0.1298393 -45.30  0.001248435    2.450    0.592
        69  -9.5622    179.4997    216.5016   8.8250037027e+01   2.8297442887e+00    0.1356316    0.1165831  18.85 -0.0005459834    1.017    0.017
        70  -9.4893    185.5951    214.7371   8.6691551061e+01   2.1123859231e+00    0.1679446    0.1294225 -50.67 0.0009382642    1.604    0.376
        71 -10.5829    138.2767    214.9683   9.6852148501e+01   1.0099817777e+01    0.1780982    0.1761896 -84.68  0.000538676    1.139    0.122
        72 -10.5832    233.0569    212.2253   7.7035732832e+01  -4.9697595066e+00    0.3542596    0.2121379 -29.83  0.001689632    1.583    0.368
        73 -10.5474    216.9679    211.2714   7.9857894918e+01  -2.3969656287e+00    0.3331394    0.1807679 -40.02  0.001690856    1.942    0.485
        74 -10.6817    240.4845    207.5646   7.4856783685e+01  -5.3726164352e+00    0.4361333    0.2115541 -46.07  0.002033197    2.723    0.633
        75  -9.9142    193.2464    209.5561   8.4223088280e+01   1.7091708947e+00    0.2513143    0.1824681 -35.80   0.00140336    1.450    0.310
        76 -10.0227    176.5931    209.7449   8.7705110030e+01   4.4959862428e+00    0.2505361    0.1289325 -39.45  0.001140019    2.118    0.528
        77 -10.5268    171.8770    208.3229   8.8459648828e+01   5.5625405389e+00    0.2895723    0.2205276  85.00   0.00143179    2.230    0.552
        78 -10.0050    206.2904    207.2099   8.1191796031e+01  -5.4348406533e-02    0.2873229    0.1760367 -30.52  0.001492447    1.661    0.398
        79 -10.3509    224.2865    191.9336   7.4871859305e+01  -5.0289625877e-01    0.3609197    0.1959408 -39.27  0.001198612    1.823    0.452
        80 -10.2363    230.0598    186.6577   7.2783444885e+01  -5.8451549445e-01    0.2858903    0.1862921 -43.68  0.001042948    1.674    0.403
        81  -9.7957    226.5507    196.5242   7.5327446697e+01  -1.5977387297e+00    0.2061527     0.156327 -49.75 0.0008350745    1.726    0.420
        82 -10.8142    228.4829    200.5232   7.5723553328e+01  -2.5245802123e+00    0.7044917     0.183177 -42.82  0.002373569    4.302    0.768
        83 -11.0757    231.1624    194.2702   7.4050883650e+01  -1.9686243417e+00     1.165952    0.1857297 -36.54  0.002976717    6.942    0.856
        84  -9.7001    183.2295    206.6266   8.5766421029e+01   3.9074841286e+00    0.2365281    0.1559832 -19.75  0.001168371    1.814    0.449
        85 -10.0234    217.3493    204.5618   7.8562960359e+01  -1.4092841861e+00     0.248058    0.1488943 -32.11 0.0009495874    1.636    0.389
        86  -9.5871    202.4551    204.0537   8.1375878639e+01   1.0955058480e+00    0.1944297    0.1270355 -36.60 0.0007321725    1.571    0.363
        87 -10.0669    197.3952    203.2744   8.2249208544e+01   2.0740030992e+00    0.2976171    0.1569151 -34.41  0.001162209    1.991    0.498
        88 -10.0994    187.1433    202.9911   8.4299385920e+01   3.8727134819e+00     0.274694    0.1842719 -58.09  0.001340846    2.100    0.524
        89  -9.8149    172.8643    203.3071   8.7371993587e+01   6.3038629372e+00    0.2234399    0.1884636 -50.22 0.0007221299    1.372    0.271
        90 -10.4562    250.2656    200.6736   7.1883933952e+01  -5.7757493299e+00    0.3529983     0.147057 -33.97  0.001631529    2.184    0.542
        91  -9.5788    235.3888    202.2705   7.4791356525e+01  -3.8428696727e+00    0.1634431    0.1115146 -37.77 0.0005619848    1.530    0.346
        92 -10.2796    164.4945    202.0039   8.8955618476e+01   8.0247610365e+00    0.2083443    0.1396638 -45.51   0.00104518    1.627    0.385
        93  -9.5741    223.5226    200.4975   7.6640312635e+01  -1.7455938519e+00    0.2200217    0.1113125 -26.15 0.0008074119    2.132    0.531
        94  -9.3933    210.4079    200.4944   7.9148186514e+01   3.6855827755e-01    0.1336954    0.1149658   1.20 0.0002318114    1.018    0.017
        95 -10.5422    237.1664    197.0299   7.3490692773e+01  -3.3187406780e+00    0.3417674    0.1708301 -31.42  0.001680848    1.879    0.468
        96  -9.7502    215.4618    197.8022   7.7663577001e+01  -1.9754994941e-02    0.2427425    0.1240638 -42.75  0.001130504    2.080    0.519
        97  -9.7208    176.5139    197.2858   8.5504107650e+01   6.7691453067e+00    0.2407455    0.1392174 -49.00 0.0008774413    1.957    0.489
        98 -10.1606    161.8458    198.1566   8.8859645823e+01   9.2333028411e+00    0.1943015    0.1616035  -8.25 0.0009236541    1.328    0.247
        99 -10.1034    202.0692    196.6512   8.0076784856e+01   2.4103738322e+00    0.2661887    0.1894832 -28.87  0.001032672    1.400    0.286
       100  -9.6679    170.3588    196.7683   8.6740617927e+01   7.9686469489e+00    0.1964003    0.1285354 -33.58 0.0009486575    1.677    0.404
       101 -10.5658    184.3894    195.0989   8.3423076045e+01   5.7682160284e+00    0.3891706    0.1908858 -34.07  0.001635947    2.300    0.565
       102 -11.1984    241.4330    180.3522   6.9520578147e+01  -1.3902062224e+00    0.6004584    0.2415891 -45.21  0.002424556    2.852    0.649
       103  -9.8351    241.5310    191.2718   7.1623485645e+01  -3.1021366876e+00    0.2193356    0.1406017 -40.84 0.0007469266    1.638    0.389
       104 -10.8055    246.3850    192.5753   7.1028475090e+01  -4.0258024695e+00    0.4047623    0.2846673 -45.87  0.002335969    1.753    0.430
       105  -9.4735    243.4990    187.5000   7.0555313673e+01  -2.8231413098e+00    0.1882956    0.1083545 -25.35 0.0009716044    1.633    0.388
       106  -9.4098    219.1547    194.1563   7.6264938786e+01  -2.8920977512e-02    0.1642433    0.1613777  -7.77 0.0006937769    1.325    0.245
       107  -9.6752    209.5292    193.7954   7.8054631082e+01   1.6300019414e+00    0.2573128    0.1240915 -33.98  0.001135964    2.111    0.526
       108  -9.8364    157.2464    193.0486   8.8972206423e+01   1.1068713936e+01    0.1802546    0.1228785 -45.06 0.0008781077    1.571    0.364
       109  -9.8904    146.3634    193.1632   9.1469518252e+01   1.3026636056e+01    0.1959113    0.1379436 -63.21 0.0008992403    1.724    0.420
       110  -9.5320    161.7740    191.9938   8.7764076698e+01   1.0450179725e+01    0.1858182    0.1193647 -45.69 0.0007887825    1.665    0.399
       111  -9.5796    215.2436    187.0594   7.5640055273e+01   1.8006985706e+00    0.2352632    0.1764134 -49.70 0.0007026153    1.625    0.385
       112  -9.6464    198.6871    190.5277   7.9591873420e+01   4.0607507964e+00     0.239152    0.1231765 -40.64  0.001069024    1.977    0.494
       113  -9.6800    172.6396    190.4887   8.5081703103e+01   8.7527370065e+00    0.2437864     0.135352 -44.20  0.001086682    1.902    0.474
       114  -9.7239    210.4240    187.7779   7.6716244181e+01   2.5007890051e+00    0.2506361    0.1272187 -42.62  0.001126545    2.032    0.508
       115  -9.4408    220.3611    186.7995   7.4612801075e+01   9.8339759605e-01    0.1912401    0.1146323 -27.07 0.0009406853    1.659    0.397
       116  -9.3690    193.4696    187.4754   8.0070311839e+01   5.5331700692e+00    0.1410342    0.1269875   6.75 8.624033e-05    1.001    0.001
       117 -10.0210    249.7193    184.7345   6.8956329583e+01  -3.3390108203e+00     0.520868    0.1662055 -41.31  0.002043024    3.097    0.677
       118 -10.8623    247.6747    177.8424   6.7957293712e+01  -1.9688196310e+00    0.4364926    0.1839037 -39.22  0.001858989    2.184    0.542
       119 -10.5040    244.5312    174.5224   6.7833394814e+01  -9.5595237678e-01    0.1983026    0.1251121  38.82 0.0002306602    1.715    0.417
       120  -9.8328    166.1072    186.1245   8.5700156116e+01   1.0811517566e+01    0.2267154    0.1933578  -0.06  0.001222868    1.244    0.196
       121 -10.1313    223.9898    183.2944   7.3242074032e+01   9.6037843647e-01    0.3470578    0.1879344 -38.20  0.001263536    1.774    0.436
       122 -10.2508    226.7938    177.1533   7.1499320699e+01   1.5134157781e+00    0.4336614    0.1988307 -21.06  0.001526785    3.562    0.719
       123  -9.6003     77.9319    185.5457   1.0669287107e+02   2.6192138274e+01    0.2040543    0.1305601  36.08  0.001016827    1.562    0.360
       124 -10.7459    237.0136    186.7985   7.1558402130e+01  -1.7123472491e+00    0.3364712    0.1777811 -34.82  0.001096791    1.746    0.427
       125 -10.4276    219.2068    177.5683   7.2997141095e+01   2.7375427706e+00    0.4266371    0.1820352 -35.22  0.001763665    2.292    0.564
       126 -10.2603    210.5004    182.0104   7.5563390481e+01   3.4842849783e+00    0.4155368    0.1560639 -33.75  0.001527745    2.914    0.657
       127 -10.3661    210.5547    175.8143   7.4305350149e+01   4.5630862895e+00    0.3620008    0.1506243 -46.48  0.001394911    2.683    0.627
       128 -10.2081    197.4229    182.0039   7.8179884164e+01   5.8150362173e+00    0.3318636    0.1625702 -40.84  0.001118207    2.052    0.513
       129  -9.8875    183.4904    182.0851   8.1112411109e+01   8.3578717730e+00    0.2169476    0.1396407 -40.26 0.0008251119    1.589    0.371
       130  -9.6462    176.5599    180.9887   8.2394423445e+01   9.8648200313e+00    0.2179009    0.1413771 -42.99 0.0009325866    1.596    0.374
       131 -10.0153    190.6122    178.8376   7.8956898362e+01   7.6489090809e+00    0.2019472    0.1339672 -50.94 0.0009539343    1.738    0.425
       132  -9.1069    165.6379    179.7097   8.4568094957e+01   1.2185195465e+01    0.1523061    0.1124399   4.68 0.0007026655    1.697    0.411
       133  -9.9893    169.4875    177.4899   8.3265197345e+01   1.1899032105e+01    0.2581815    0.1350134 -34.09  0.001029136    2.230    0.551
       134  -9.9730    197.5318    176.4140   7.7033167896e+01   6.8196635981e+00    0.2761627    0.1360626 -41.06 0.0008555296    2.026    0.506
       135 -10.8109    232.7952    173.9255   6.9761980234e+01   1.0450822247e+00    0.7077187    0.1802394 -34.19  0.002156016    4.398    0.773
       136  -9.8809    231.4724    159.4623   6.7024925648e+01   3.7021570657e+00    0.2744293    0.1231372 -36.69 0.0007949973    2.041    0.510
       137 -10.4421    233.3613    153.5856   6.5458555161e+01   4.3741105562e+00    0.3973314    0.2114331 -44.09  0.001392392    1.844    0.458
       138 -11.6493    235.2598    146.8453   6.3700862943e+01   5.1901481169e+00    0.4998217    0.3068919 -40.45  0.001633865    1.491    0.330
       139 -10.4924    237.4900    158.5737   6.5792573947e+01   2.8090397594e+00    0.3164879    0.2161539 -41.60  0.001069936    1.415    0.293
       140 -10.5607    239.9534    163.6547   6.6419695564e+01   1.5470227786e+00    0.3595665    0.1850424 -39.60  0.001040448    1.784    0.440
       141 -11.1299    237.2870    168.7867   6.7928074587e+01   1.1456792484e+00    0.4421787    0.2349187 -41.62  0.001403494    1.817    0.450
       142 -10.7901    235.3920    180.6206   7.0635912132e+01  -4.7169081473e-01    0.2639641    0.2471745  69.50  0.001358744    1.543    0.352
       143 -10.2939    234.0100    163.9841   6.7517763508e+01   2.4968684023e+00    0.3698986    0.1683579 -44.38   0.00145854    2.242    0.554
       144 -10.2489    223.5374    172.7655   7.1212167517e+01   2.8104712294e+00    0.3105058    0.1666372 -44.78  0.001425594    1.955    0.489
       145  -9.3382    192.6023    173.1581   7.7386130514e+01   8.3464926348e+00     0.210704    0.1302496 -29.38 0.0009527405    1.732    0.423
       146  -9.7649    188.0983    172.4367   7.8184030668e+01   9.3366851382e+00    0.2543688    0.1737235 -63.84  0.001127812    2.156    0.536
       147 -10.3040    227.8966    171.1018   7.0072290283e+01   2.3432843346e+00    0.3087802    0.1747929 -46.64  0.001269313    1.947    0.486
       148 -10.8782    246.0855    168.5372   6.6372682811e+01  -2.4945060082e-01    0.3551876     0.207199 -39.02  0.001462295    1.583    0.368
       149 -10.0059    205.1163    168.7528   7.3923221906e+01   6.8251144005e+00    0.3173392    0.1962393 -52.84  0.001436978    1.994    0.499
       150  -9.7265    198.0327    170.1017   7.5632882604e+01   7.8989976107e+00    0.2656047    0.2002393  75.71  0.001236312    2.177    0.541
       151 -10.4631    218.8165    167.6739   7.1046611288e+01   4.5216671917e+00    0.3966752    0.2296592 -35.68  0.001726735    1.629    0.386
       152  -9.6340    211.9507    168.9609   7.2624903198e+01   5.5316278489e+00    0.2042571    0.1728878 -68.30 0.0007729123    1.623    0.384
       153  -9.4924    179.0000    168.0259   7.9227586883e+01   1.1955682963e+01    0.2421815   0.08342514 -43.89 0.0008023616    2.942    0.660
       154  -9.4400    165.4447    167.4686   8.2144783157e+01   1.4734443224e+01    0.1496291    0.1414145   8.98 0.0001940105    1.030    0.030
       155  -9.8334    229.1500    165.6183   6.8719185214e+01   3.0573563503e+00    0.2450792     0.170254 -41.74  0.001300438    1.430    0.301
       156 -10.3617    191.2830    165.2365   7.6009021623e+01   1.0111182515e+01    0.3864018    0.1889391 -35.83  0.001445742    2.124    0.529
       157  -9.8897    199.4447    164.2200   7.4109772851e+01   8.7346053669e+00    0.2637499    0.1357892 -36.65 0.0008402846    1.928    0.481
       158 -10.7752    213.0302    162.6466   7.1093003061e+01   6.4685163620e+00    0.4263952     0.199887 -37.71  0.001785825    2.038    0.509
       159 -13.2075    244.8525    144.8882   6.1701151007e+01   3.8275709507e+00     2.467585    0.8922621 -44.57  0.009509643    2.741    0.635
       160 -13.4984    239.7239    123.2124   5.7851956350e+01   8.4118374385e+00     1.841639     1.390441 -43.94   0.01030875    1.211    0.174
       161 -10.0396    224.3864    247.7841   8.4632966604e+01  -8.6100176830e+00    0.2689316    0.1093519 -40.14  0.001198265    2.846    0.649
       162  -9.9471    228.4675    151.4960   6.5870424565e+01   5.6133933554e+00    0.2682035    0.1227494 -40.98  0.001027098    2.024    0.506
       163 -10.0938    229.4116    147.8092   6.4913673278e+01   6.0840972613e+00    0.3105682    0.1784317 -28.11 0.0009819703    1.755    0.430
       164 -10.2068    216.3119    156.1375   6.9081959383e+01   7.0324488556e+00    0.3361452    0.1785612 -37.46  0.001495237    1.771    0.435
       165  -9.8179    212.2189    155.2844   6.9674200480e+01   7.9585157845e+00    0.2364881    0.1823179 -33.13 0.0007575586    1.219    0.179
       166 -10.0827    211.7836    151.0249   6.8831196805e+01   8.8233340183e+00    0.3072896    0.1528684 -39.10  0.001112942    1.899    0.473
       167  -9.9988    187.5849    155.1617   7.4615755206e+01   1.2810582436e+01    0.3488694     0.141013 -39.44  0.001251358    2.489    0.598
       168  -9.9832    205.5772    153.6713   7.0611348681e+01   9.5334211898e+00    0.2545152    0.2272903  -3.97 0.0009684795    1.091    0.083
       169  -9.6907    202.5942    151.2102   7.0660526350e+01   1.0581508508e+01    0.2325766    0.1399135 -39.58  0.001048238    1.596    0.373
       170  -9.6992    192.6919    153.4559   7.3168041772e+01   1.2120324220e+01    0.2626454    0.1312029 -40.18  0.001058239    1.960    0.490
       171 -10.0361    221.0642    151.8211   6.7271079794e+01   6.9193648661e+00    0.2447204    0.1894381 -34.35  0.000685683    1.194    0.162
       172 -10.1348    215.2928    148.3493   6.7582721075e+01   8.6384729888e+00    0.2966501     0.179012 -46.15  0.001369904    1.680    0.405
       173  -9.3719    161.7729    149.0266   7.9012979459e+01   1.9382753669e+01    0.2114689    0.1271818 -45.25 0.0008829545    1.676    0.403
       174 -10.5274    208.0224    145.4492   6.8320534645e+01   1.0592768825e+01    0.5337858    0.2025842 -41.77  0.001946978    2.505    0.601
       175  -9.6215    149.7591    147.9463   8.1649623368e+01   2.2114601765e+01    0.2075814    0.1308903 -45.23 0.0008800799    1.603    0.376
       176 -10.5582    223.7079    146.2905   6.5593297676e+01   7.4099404420e+00    0.3351278    0.2328537 -39.52  0.001724672    1.339    0.253
       177  -9.5246    139.2885    147.3326   8.4120661849e+01   2.4401379333e+01    0.1569337    0.1234664 -10.16 0.0003138289    1.625    0.385
       178  -9.5245    176.0000    145.9876   7.5076479196e+01   1.7046589416e+01    0.2520547    0.0859203 -43.25 0.0007981032    2.912    0.657
       179  -9.4564    200.5735    144.7688   6.9626542730e+01   1.2212913335e+01     0.206866    0.1354693 -48.80 0.0008777523    1.599    0.375
       180  -9.6125    219.0341    144.2647   6.5993984937e+01   8.6614123716e+00    0.1928332    0.1849328 -19.44 0.0009800347    1.080    0.074
       181  -8.7630    171.3368    144.3163   7.5738772347e+01   1.8374652118e+01    0.1595071    0.1212296   1.98 0.0007048044    1.698    0.411
       182 -10.9117    230.0973    139.1592   6.2918821649e+01   7.4691934312e+00    0.7343739    0.1800139 -40.36  0.002298216    3.643    0.726
       183  -9.9407    155.7595    142.7625   7.9015300706e+01   2.2001100563e+01    0.2550845    0.1266927 -55.66 0.0008978965    2.464    0.594
       184  -9.2060    194.3395    142.3459   7.0334676641e+01   1.3956160890e+01    0.1580724    0.1159566   0.95 0.0007047484    1.783    0.439
       185  -9.8747    181.8602    141.5675   7.2778417990e+01   1.6718719165e+01     0.318548    0.1946284 -56.59   0.00130891    2.002    0.501
       186  -9.8566    147.4877    142.5085   8.0976559617e+01   2.3796489309e+01    0.1555132     0.151561   4.99 -5.234893e-05    1.035    0.034
       187 -10.1327    224.2157    139.6874   6.4055513536e+01   8.4896918217e+00     0.291156    0.1764312 -30.33   0.00111278    1.612    0.379
       188 -10.0614    218.8077    137.5861   6.4552619263e+01   9.9149538150e+00     0.342407    0.2092975 -29.65  0.001583663    1.642    0.391
       189  -9.9345    208.5958    137.2996   6.6375832432e+01   1.2003386515e+01      0.29502    0.1311109 -43.54  0.001141299    2.165    0.538
       190  -9.9867    171.8600    137.0387   7.3926379867e+01   1.9784672034e+01    0.3972262    0.2796769  68.66  0.001705086    1.923    0.480
       191  -9.7923    192.7020    136.3955   6.9298129907e+01   1.5463858739e+01    0.2673025    0.1318918 -39.51  0.001049186    1.968    0.492
       192  -9.8051    199.0000    136.0338   6.7945987462e+01   1.4214911091e+01    0.2896032    0.1973259 -33.16  0.001093053    1.447    0.309
       193  -9.8870    198.2145    131.5208   6.7051566267e+01   1.5249728694e+01    0.2945276    0.2070434 -32.97 0.0006538269    1.403    0.287
       194  -9.9418    187.5608    135.4687   7.0145299013e+01   1.6736751367e+01    0.3159647    0.1448451 -41.36  0.001189318    2.121    0.529
       195  -9.4263    155.5134    135.4892   7.7370998686e+01   2.3641442207e+01    0.1543399    0.1537167   3.93 0.0003611036    1.013    0.013
       196 -10.0983    224.5796    133.3098   6.2576734288e+01   9.5564334834e+00    0.3759352    0.2858793  68.94  0.001936459    1.741    0.426
       197 -10.0259    221.0428    128.6076   6.2134671076e+01   1.1095370646e+01    0.2938536    0.1981528 -32.30  0.001447076    1.408    0.290
       198 -10.2174    179.5530    132.2682   7.1093248557e+01   1.9104731103e+01    0.2952274    0.1461295 -45.59  0.001129284    2.018    0.504
       199  -9.8557    133.3129    133.6813   8.2536354428e+01   2.8751154853e+01    0.1597935    0.1257352  84.52 0.0007036902    1.648    0.393
       200 -10.0774    205.7124    130.3457   6.5325242021e+01   1.3901782431e+01    0.2741931     0.166646 -47.11 0.0008500003    1.645    0.392
       201  -9.5446    201.4925    130.4722   6.6164472730e+01   1.4760276116e+01    0.1480798    0.1400469 -25.61  0.000164817    1.006    0.006
       202  -9.8096    214.3225    142.4213   6.6453316426e+01   9.9120833744e+00    0.2865771    0.1636179 -42.17 0.0007674298    1.661    0.398
       203  -9.8599    192.3873    128.7983   6.7575087245e+01   1.7021317146e+01    0.2836409    0.1387657 -43.60 0.0007198132    1.984    0.496
       204  -9.5390    211.5244    128.0522   6.3710047646e+01   1.3126870591e+01    0.2268899    0.1353369 -40.00 0.0009032592    1.564    0.360
       205 -10.0229    164.9118    125.3082   7.2676288920e+01   2.3767522418e+01    0.5055577     0.195853 -51.85  0.001550313    3.213    0.689
       206  -9.3702    199.6273    125.7885   6.5424517469e+01   1.6050592428e+01    0.2121566    0.1328305 -47.88 0.0007558819    1.607    0.378
       207 -10.4965    205.1202    160.8712   7.2257927146e+01   8.2783665255e+00    0.3616665    0.2073565 -41.35  0.001357196    1.699    0.411
       208  -9.4182    169.8354    123.8340   7.1188470305e+01   2.2979267123e+01    0.2134615     0.184458 -69.08 0.0006405493    1.298    0.230
       209 -10.1090    179.4283    123.8077   6.9072367618e+01   2.0849262146e+01    0.3595722    0.1833577 -42.58  0.001405026    1.916    0.478
       210  -9.6333    188.2437    122.6459   6.6939837233e+01   1.9131581832e+01     0.286602    0.1770593 -49.90  0.001079236    1.683    0.406
       211  -9.5238    212.5252    122.0340   6.2131879947e+01   1.4028804381e+01    0.2299934    0.1358223 -37.46  0.001028739    1.587    0.370
       212  -9.6276    203.2694    121.0286   6.3597685748e+01   1.6174058835e+01    0.2183495     0.182637 -39.59 0.0007887995    1.131    0.116
       213  -9.4846    194.3530    120.7953   6.5262027681e+01   1.8150985758e+01    0.2187666    0.1374331 -31.14  0.000723529    1.670    0.401
       214  -9.8640    221.4614    160.9786   6.9152176520e+01   5.2226613773e+00    0.2578294    0.1623395 -30.86 0.0009919847    1.510    0.338
       215 -10.7590    218.4578    119.2357   6.0437637807e+01   1.3307163065e+01    0.3589045    0.2066392  58.60  0.001586191    2.076    0.518
       216  -9.1811     18.7052    119.2923   1.1389240278e+02   4.9092884075e+01    0.1252822   0.08836057  72.12 0.0002374766    1.556    0.357
       217  -9.5580    209.2479    118.0425   6.1785555684e+01   1.5453563426e+01    0.2122163    0.1719847 -40.01 0.0004918864    1.155    0.134
       218 -11.0921    218.8102    110.5472   5.8356210653e+01   1.4787901527e+01    0.6901913    0.1973619 -41.46  0.002246937    3.140    0.681
       219  -9.6291    218.4714    104.0404   5.6883664212e+01   1.6008854905e+01    0.2258041    0.1299541 -41.37   0.00102064    1.589    0.371
       220  -9.8776    185.6857    114.4297   6.5440103362e+01   2.1313530832e+01     0.278394    0.1369653 -39.72  0.001070736    1.978    0.494
       221  -9.5843    173.5163    113.9979   6.7900967777e+01   2.4160638278e+01    0.2398899     0.150812 -41.86 0.0009107758    1.562    0.360
       222 -10.0196    201.3300    109.7984   6.1253487187e+01   1.8698239148e+01    0.4524218    0.1384761 -35.47   0.00135628    3.524    0.716
       223 -10.7326    138.9981    111.7803   7.5558624191e+01   3.2448113240e+01    0.2367793    0.1803138 -18.15  0.001047441    1.620    0.383
       224  -9.5294    155.2837    110.6574   7.1201897852e+01   2.9018325507e+01    0.1598511    0.1250442 -78.16 0.0004021278    1.637    0.389
       225  -9.9765    183.1633    108.5303   6.4470991507e+01   2.3035534513e+01    0.3035983    0.1056472 -42.34 0.0009808374    2.771    0.639
       226 -10.1938    176.6127    110.2085   6.6266225312e+01   2.4209143657e+01    0.2223755    0.1462176 -30.98 0.0008582548    1.640    0.390
       227 -10.1547    189.6865    107.0150   6.2781119737e+01   2.1836335091e+01    0.4964904    0.1422148 -35.51   0.00137874    3.995    0.750
       228 -10.1741    160.6003    107.7368   6.9180632089e+01   2.8400594678e+01    0.3117181    0.1516438 -37.89  0.001144474    2.124    0.529
       229 -11.0635    222.2718    104.5284   5.6381802860e+01   1.5118214484e+01    0.3854014    0.1852744 -37.30  0.001328088    1.922    0.480
       230  -9.9967    205.7027    105.2425   5.9350839782e+01   1.8568476313e+01    0.2782737     0.159708 -46.77 0.0008678994    1.693    0.409
       231  -9.6750      7.4917    105.4707   1.1554741017e+02   5.3152365761e+01    0.1257372    0.1010357 -65.70 8.779483e-05    1.011    0.011
       232  -9.5061    222.2363    156.9577   6.8157572836e+01   5.7907857715e+00    0.2137812    0.1362675 -36.60 0.0005109096    1.454    0.312
       233  -9.7547    200.8597    103.0622   5.9685840646e+01   2.0044960200e+01    0.2321795    0.1887192 -59.60 0.0006136619    1.278    0.218
       234  -9.5451    195.0000    102.8650   6.0718706809e+01   2.1405936177e+01    0.2429947   0.08267213 -38.69 0.0007852461    2.825    0.646
       235 -10.2618    160.0042     99.7299   6.7175653065e+01   3.0156758892e+01    0.2987218    0.1913447 -52.26  0.001034783    1.680    0.405
       236 -10.3085    224.8644    242.9124   8.3769653693e+01  -8.0477550770e+00    0.2263243    0.1934638 -14.04 0.0009756643    1.303    0.233
       237 -11.9243    221.3328     97.4894   5.4880504317e+01   1.6534497949e+01    0.4361939    0.2262711 -42.40  0.001922098    1.750    0.429
       238  -9.4159    216.6344     99.1819   5.6031895250e+01   1.7253826277e+01    0.2033456     0.130156 -29.06 0.0009379612    1.651    0.394
       239  -9.9769    202.8176     97.6664   5.8001361021e+01   2.0581255960e+01    0.2618922    0.1932831 -31.73  0.001286701    1.374    0.272
       240  -9.7910    194.8031     97.1117   5.9306745666e+01   2.2509074671e+01    0.2344306    0.1962306 -60.32 0.0007990567    1.222    0.182
       241 -10.0806    176.1214     96.8490   6.2890412796e+01   2.6918856670e+01    0.2055176    0.1836228   3.05 0.0005671392    1.285    0.222
       242  -9.6910    170.9670     95.4509   6.3598574263e+01   2.8404285254e+01    0.2487575    0.1967205 -42.52 0.0006063576    1.251    0.200
       243  -9.6485    212.1648     95.1599   5.5797064823e+01   1.8933584285e+01    0.2119894    0.1884668 -28.08  0.000666944    1.162    0.139
       244  -9.5121    206.7102     94.1340   5.6457172796e+01   2.0330562368e+01    0.2341653    0.1653771 -52.70 0.0007426373    1.409    0.291
       245  -9.9541    164.5528     93.3189   6.4407709729e+01   3.0336451497e+01    0.3031259    0.1463918 -43.59  0.001138409    2.063    0.515
       246 -10.0219    176.9825    233.2475   9.1469793618e+01   4.7617679977e-01    0.3311441    0.2096482 -26.27  0.001666806    1.894    0.472
       247  -9.4464    177.0000     92.9819   6.1683685573e+01   2.7439531310e+01    0.2543317   0.08592961 -38.57 0.0007998649    2.925    0.658
       248  -9.6826    210.0400     90.9963   5.5133051475e+01   2.0129110373e+01     0.235706    0.1651619 -66.03   0.00111795    1.658    0.397
       249 -10.1527    171.3891     90.5810   6.2195598024e+01   2.9224887637e+01    0.2944272     0.186892 -36.67 0.0008005733    1.595    0.373
       250 -10.0569     25.0973     90.3437   1.0695986596e+02   5.5545494400e+01    0.2193631    0.1466999 -50.82 0.0004721095    1.250    0.200
       251  -9.4079    203.3776     89.7111   5.5927038703e+01   2.1861047653e+01    0.2040011    0.1367112 -28.89 0.0009416048    1.608    0.378
       252  -9.7507    157.8373     89.8379   6.4945769768e+01   3.2604780811e+01     0.219279    0.1851391 -69.42   0.00100873    1.317    0.241
       253 -11.2786    176.2212    245.3179   9.3433294223e+01  -1.2758707048e+00    0.4913825    0.2890185 -31.63  0.002691103    2.043    0.511
       254  -9.7220    197.5692     86.6815   5.6163023475e+01   2.3729712006e+01    0.2761351    0.1428196 -33.50  0.001119555    1.998    0.499
       255  -9.6919    163.6891     86.5267   6.2721530029e+01   3.1828976688e+01    0.2775981    0.1396966 -39.09  0.001070721    1.990    0.497
       256  -9.4068     30.4951     86.5191   1.0417010788e+02   5.5990118395e+01     0.134166    0.1094001 -45.04 4.610759e-05    1.063    0.059
       257  -9.8374    206.0770     84.6387   5.4214345600e+01   2.2117165066e+01    0.2724918    0.1771383 -46.01  0.001238402    1.455    0.313
       258  -9.5068    200.3333     82.9290   5.4737382415e+01   2.3734096784e+01    0.2102343    0.1776039 -49.31 0.0007157057    1.125    0.111
       259  -9.9072    170.4051     83.2500   6.0394908345e+01   3.0810786609e+01    0.2167294    0.1386192 -48.82 0.0008001684    1.609    0.378
       260 -10.5379    159.0868     81.2317   6.2235208491e+01   3.3917138802e+01    0.3521059    0.2154761 -43.34  0.001514712    1.646    0.393
       261 -10.1902    175.9792    238.2457   9.2434651362e+01  -1.5391214682e-01    0.2828106    0.1895299 -38.66  0.001374332    1.712    0.416
       262  -9.5508    210.4202     71.2554   5.0224460009e+01   2.3325547171e+01    0.2645278      0.12712 -42.07 0.0006934167    1.921    0.479
       263  -9.0189    209.8024     80.9553   5.2707635272e+01   2.1886352994e+01    0.2731846     0.169222 -46.93  0.001283984    1.525    0.344
       264  -9.9297    210.9887     76.2083   5.1357554071e+01   2.2397381856e+01    0.3054568    0.1893075 -29.18 0.0008241326    1.759    0.431
       265  -9.9148    201.0405     77.5634   5.3260658618e+01   2.4474280330e+01    0.2900524    0.1797319 -51.19 0.0009872313    1.613    0.380
       266  -9.6069    167.0000     78.0339   5.9644217291e+01   3.2570712753e+01    0.2523398   0.08623694 -37.08 0.0008044443    2.956    0.662
       267  -9.5736    183.5548     76.7385   5.6069344574e+01   2.8774867750e+01    0.2140466     0.133392 -48.76 0.0009456942    1.620    0.383
       268  -9.6564    223.4925     75.9344   4.9474816798e+01   1.9638553425e+01    0.2108952    0.1280624 -37.12  0.000699961    1.550    0.355
       269 -10.8151    157.6093     74.9253   6.0745708494e+01   3.5409300221e+01    0.3451143    0.1472981 -36.80  0.001244774    2.399    0.583
       270 -10.0570    217.1169     73.3355   4.9755909694e+01   2.1470497809e+01    0.3298481    0.2769492  81.75  0.001690191    1.221    0.181
       271  -9.8383    221.8233     70.8390   4.8500979171e+01   2.0811811930e+01    0.2502132     0.192951 -80.11  0.000999586    1.370    0.270
       272  -9.8359    218.3847     68.1750   4.8338154882e+01   2.1996554964e+01    0.3484165    0.1461933 -45.56  0.000825358    2.206    0.547
       273  -9.5370    206.4522     73.9306   5.1487669610e+01   2.3811478697e+01    0.2206238    0.1330908 -39.27  0.001014674    1.576    0.365
       274  -9.7330    214.3252     69.9376   4.9333531110e+01   2.2640558581e+01    0.2314908    0.1484557 -52.82 0.0007773027    1.509    0.337
       275  -8.9933    212.4652     65.9342   4.8622285058e+01   2.3691244885e+01    0.2843483    0.1479196 -50.58   0.00109453    1.900    0.474
       276  -9.3928    170.4864     70.0016   5.6686584585e+01   3.3101548157e+01    0.2304647    0.1465971 -37.56  0.001032836    1.591    0.372
       277 -10.6526    192.5259     60.4464   5.0211122405e+01   2.9246591585e+01    0.4383172    0.2521827 -33.65  0.001983441    1.792    0.442
       278 -10.0616    192.5518     55.2291   4.8837822831e+01   3.0028084300e+01    0.3253064    0.1401991 -32.57  0.001273556    2.433    0.589
       279  -9.6471    157.6826     61.4734   5.6784834971e+01   3.7660949255e+01    0.2608934    0.1376554 -34.91  0.001071868    1.970    0.492
       280 -10.8877    220.8706     58.7864   4.5771757971e+01   2.2859798014e+01    0.3354353    0.1518496 -37.79  0.001338683    2.042    0.510
       281  -9.8970    197.3482     59.1762   4.9136010700e+01   2.8279609328e+01    0.2072018    0.1194505 -45.20 0.0006662597    1.669    0.401
       282 -10.1358    158.6879    159.4939   8.2033159765e+01   1.7768307593e+01    0.2765065    0.1394673 -45.80  0.001080779    2.021    0.505
       283  -9.7342    217.0000     57.9805   4.6078787289e+01   2.3856390285e+01    0.2215628   0.07361535 -34.85 0.0006794322    2.896    0.655
       284  -9.6287    131.3173     54.6585   6.0568079333e+01   4.5171842732e+01    0.1505227    0.1155037 -75.03  0.000704888    1.712    0.416
       285  -9.3126    184.4565    159.4944   7.6228791027e+01   1.2577621157e+01    0.1470592    0.1415411  -4.27 0.0001643042    1.034    0.033
       286 -10.3840    197.1164    156.9409   7.3020234760e+01   1.0568306359e+01    0.4157507    0.2122686 -35.13  0.001709273    1.994    0.498
       287  -9.8495    168.5938     36.7861   4.7543073913e+01   3.8514083575e+01    0.1980419    0.1230601 -45.58 0.0009464031    1.667    0.400
       288  -9.1460    176.4910    158.4739   7.7745764624e+01   1.4381545290e+01    0.1493895    0.1436554   4.62 4.470994e-05    1.012    0.012
       289  -9.5801    149.3824     34.1907   5.0109699857e+01   4.3642442182e+01    0.1944141    0.1268782 -42.67 0.0005400482    1.639    0.390
       290 -10.3081    125.8380     30.2638   5.3643555008e+01   4.9890712323e+01    0.2331594    0.1874699 -42.70  0.001071191    1.386    0.278
       291 -10.6722    220.9761     29.0234   3.8809434875e+01   2.6887173528e+01    0.2016502    0.1717145 -69.98 0.0006687306    1.031    0.030
       292 -10.3300     30.6211     27.8814   8.6134018912e+01   6.7837099466e+01    0.2528752    0.1541901  -8.03  0.001054826    1.719    0.418
       293  -9.7821    136.6514     25.1798   4.9655117793e+01   4.7866019226e+01    0.1814701    0.1317521  -7.14 0.0004189002    1.694    0.410
       294  -9.2157    118.4669     24.4791   5.3284676491e+01   5.2319652124e+01     0.138103    0.1221358  44.98 8.641364e-05    1.010    0.010
       295  -9.6580    155.6822     16.4863   4.3613281147e+01   4.4094115846e+01    0.2248977    0.1261452 -26.66  0.001085595    2.018    0.504
       296  -9.3938     23.5123     15.4788   8.4317813899e+01   7.0544226979e+01    0.1188844   0.09059367 -10.91 5.408637e-05    1.010    0.010
       297 -10.1617    226.4894    156.5432   6.7297608978e+01   5.0915038177e+00     0.330733    0.1266637 -36.89  0.001112364    2.440    0.590
       298  -9.9034    140.1827    248.7493   1.0111920907e+02   3.7611923191e+00    0.2348451    0.1008198 -60.78  0.001007368    3.574    0.720
       299  -9.2988    242.4826    248.4174   8.1507159762e+01  -1.1049262356e+01    0.1160958   0.08519223   7.51 0.0002544782    1.018    0.018
       300 -10.3165    233.2904    247.4631   8.2977262414e+01  -9.7532792516e+00    0.2261107    0.2151141 -18.01  0.001276763    1.642    0.391
       301 -10.0497    218.3435    247.4922   8.5693740630e+01  -7.7479796766e+00    0.2052664    0.1374754 -34.07  0.001154493    1.674    0.403
       302 -11.0394    156.8667    247.0605   9.7540335272e+01   1.4459469835e+00    0.2651145    0.1854933 -63.31  0.001536764    2.038    0.509
       303 -10.0807    187.0867    246.6202   9.1491423789e+01  -3.1166134753e+00    0.2255754    0.1708393 -21.23  0.001441847    1.441    0.306
       304 -10.1599    123.6357    247.2177   1.0427623143e+02   6.5662681017e+00    0.1540931    0.1161588 -43.25 0.0007620212    1.671    0.402
