#   1 NUMBER                 Running object number                                     
#   2 MAG_AUTO               Kron-like elliptical aperture magnitude                    [mag]
#   3 X_IMAGE                Object position along x                                    [pixel]
#   4 Y_IMAGE                Object position along y                                    [pixel]
#   5 X_WORLD                Barycenter position along world x axis                     [deg]
#   6 Y_WORLD                Barycenter position along world y axis                     [deg]
#   7 A_WORLD                Profile RMS along major axis (world units)                 [deg]
#   8 B_WORLD                Profile RMS along minor axis (world units)                 [deg]
#   9 THETA_WORLD            Position angle (CCW/world-x)                               [deg]
#  10 FWHM_WORLD             FWHM assuming a gaussian core                              [deg]
#  11 ELONGATION             A_IMAGE/B_IMAGE                                           
#  12 ELLIPTICITY            1 - B_IMAGE/A_IMAGE                                       
         1 -11.6780     41.9670     32.1167   2.8901202512e+01   6.8365349412e+01    0.2915497    0.1973009 -45.98 0.0002998313    1.572    0.364
         2 -13.2304     72.0880      9.9654   4.8499058024e+00   6.5066401489e+01    0.4474681    0.2733392 -40.84 0.0006905738    1.795    0.443
         3 -11.1101     50.8535     13.4357   1.4277172222e+01   6.9461958675e+01    0.2039977    0.1791124 -21.18 0.0002327961    1.221    0.181
         4 -11.4113     82.4452     11.4823   2.8456216910e+00   6.2436036351e+01    0.2369248     0.157963 -40.32  0.000720433    1.610    0.379
         5 -11.7408     83.0874      7.1934   6.7306198345e-01   6.2700094400e+01    0.2251975    0.2129657  88.98 0.0003932285    1.079    0.074
         6 -10.0210    150.5554      5.5582   3.5032913354e+02   4.6383527080e+01    0.1304168     0.102574 -69.54 0.0001018952    1.085    0.079
         7 -11.1041     72.3172      2.0660   7.1746250011e-01   6.5754265405e+01    0.1718419    0.1651467  75.25 0.0005179088    1.089    0.082
         8 -11.9546     67.7554    246.7226   6.2529152048e+01   1.3641698978e+01    0.3441466    0.2139378  41.43 0.0009768024    1.360    0.265
         9 -11.6872    139.3757    248.6382   4.7206372732e+01   5.4825720384e+00    0.2882577    0.1989554 -41.14  0.001225239    1.604    0.376
        10 -13.8268      4.4545    201.2514   7.5099650743e+01   2.9273729363e+01    0.9847685    0.5478954 -77.94  0.005236553    1.795    0.443
        11 -13.3459     21.2621    241.3493   7.2710893013e+01   1.9210266369e+01    0.7237481    0.5447214   0.62  0.004682078    1.646    0.393
        12 -14.1621     20.5704    215.9235   7.1695052643e+01   2.4603290746e+01     1.157988    0.4892334  26.93  0.001118688    2.036    0.509
        13 -13.3184     13.1818    214.2864   7.3443627476e+01   2.5602256160e+01    0.7814529    0.4281596 -66.96  0.004184881    1.977    0.494
        14 -14.2813     15.3248    229.5811   7.3578169748e+01   2.2120450381e+01    0.8307092    0.7563374  34.94  0.003937227    1.181    0.153
        15 -13.8834     10.8979    239.8226   7.4972568225e+01   2.0403103533e+01    0.6652453    0.4316898 -35.99  0.003114208    2.281    0.562
        16 -14.2351      5.0025    248.1855   7.6521516637e+01   1.9250020983e+01     1.189613    0.5057827  28.85  0.006519493    1.845    0.458
        17 -14.3379      7.2709    234.1226   7.5596284113e+01   2.1852916087e+01    0.7519729     0.577553  50.48  0.002937209    1.031    0.030
        18 -13.0708      3.3484    220.6851   7.6066374792e+01   2.4992042232e+01    0.4813928    0.3049228  61.84  0.001489168    1.349    0.259
        19 -13.2255      3.9945    214.8215   7.5714486169e+01   2.6224491989e+01     0.488381    0.3809897 -24.81  0.003055128    1.725    0.420
        20 -12.1533     36.7085    246.6400   6.9500980807e+01   1.6765028020e+01    0.4423845     0.189832  39.87  0.002326994    1.754    0.430
        21 -11.9738     33.6455    223.4581   6.8905884459e+01   2.1757416012e+01    0.2952031    0.1742011 -76.24    0.0013829    1.841    0.457
        22 -10.9854     37.8444    241.9336   6.8988300674e+01   1.7569422939e+01    0.1945498    0.1564346  18.08 0.0004223858    1.270    0.213
        23 -11.2639     30.6080    227.4600   6.9868306417e+01   2.1196203065e+01    0.2997544    0.1795324  51.47  0.001160185    1.442    0.306
        24 -12.3291     32.6921    240.3940   7.0078263910e+01   1.8360120167e+01    0.3392336    0.2110849  55.21  0.000593702    1.431    0.301
        25 -13.2986     35.9817    230.7314   6.8777948526e+01   2.0003662384e+01    0.6528379    0.2980834 -69.15  0.002702682    2.391    0.582
        26 -10.6643    178.9806    247.2182   3.9335942212e+01   1.5197298250e+00    0.1677714    0.1269076  -1.82 0.0002039209    1.028    0.027
        27 -10.3082    181.5860    244.4874   3.8494643990e+01   1.6358951139e+00    0.1124415   0.08525126  -2.05 5.852823e-05    1.019    0.019
        28 -10.2250     59.5319    247.5421   6.4437540290e+01   1.4342277857e+01      0.12043   0.09813336  33.76  5.77587e-05    1.019    0.019
        29 -10.7573     44.3718    246.8260   6.7795193856e+01   1.5993779205e+01    0.1502007    0.1047509 -58.94 0.0009441103    1.737    0.424
        30 -10.5370    226.2583    246.4374   3.1166565961e+01  -2.8116645981e+00    0.1198687   0.08222949  19.25 0.0003424416    1.473    0.321
        31 -10.5922     99.7928    246.4087   5.5363840588e+01   1.0226130430e+01    0.1746561    0.1000824  15.10 0.0007403443    1.695    0.410
        32 -10.3425    246.1452    245.1566   2.7976785650e+01  -4.3095591378e+00    0.1200519   0.09040119 -13.74  0.001017572    1.273    0.214
        33 -10.5203    132.6701    244.8886   4.8145454189e+01   6.8150422210e+00    0.2127497    0.1335403  15.22 0.0006852541    1.404    0.288
        34 -10.8794    142.8268    243.4057   4.5870218021e+01   5.9244883135e+00    0.2011657    0.1604963 -39.36  0.001388222    1.419    0.295
        35 -10.4578    204.5268    243.5130   3.4313350511e+01  -4.8327884530e-01      0.10861   0.08045731  -4.53  0.000809792    1.026    0.026
        36 -10.4969    186.6576    241.9926   3.7234861848e+01   1.4691984627e+00    0.2162062    0.1095002 -27.46  0.001260609    1.906    0.475
        37 -11.0299     43.1706    243.1626   6.7848676377e+01   1.6815159255e+01    0.1718802    0.1079092  44.60  0.001030833    1.310    0.237
        38 -11.3633    117.0101    241.2462   5.1056271234e+01   9.1852572438e+00     0.243359    0.1913222  43.04  0.001593348    1.367    0.268
        39 -10.9319    102.0000    240.0094   5.4223885970e+01   1.1110319242e+01    0.2983833   0.07106332 -60.08   0.00106062    5.019    0.801
        40 -10.4144     67.9947    240.9734   6.2022684875e+01   1.4696512579e+01    0.1524095    0.1229951  32.51 0.0004677306    1.024    0.023
        41 -10.5218    138.3922    236.5355   4.5931283167e+01   7.5337704734e+00    0.2323595    0.1412983  47.75 0.0007919822    2.167    0.538
        42 -10.4374     53.5205    237.0333   6.5068498062e+01   1.6979768304e+01    0.1594464    0.1208439 -76.38 0.0005336068    1.522    0.343
        43 -11.4378    120.1303    234.2196   4.9562710982e+01   1.0046177166e+01    0.2131041    0.1495185 -68.08  0.001249118    1.968    0.492
        44 -10.7200    166.1996    234.3802   4.0026871444e+01   4.7405589875e+00    0.1593769   0.09331982  32.40 0.0004843481    1.663    0.399
        45 -11.2920    158.4962    233.4839   4.1421117586e+01   5.7385859430e+00    0.1999348    0.1649158  -2.97  0.000502603    1.055    0.052
        46 -10.6604     71.9635    233.0000   6.0431922639e+01   1.5809929814e+01    0.2451305    0.1582555  26.52  0.001391086    1.330    0.248
        47 -10.6401     73.5224    230.0021   5.9796135444e+01   1.6230122050e+01    0.2321215    0.1735373  67.74  0.001393573    1.519    0.342
        48 -12.0062    152.6319    230.6393   4.2217060220e+01   6.8614184821e+00    0.3386351    0.2703827 -49.60  0.002028764    1.549    0.355
        49 -11.9226    155.0189    224.9384   4.0944067575e+01   7.5157700319e+00    0.2707886    0.1798115 -42.79 0.0009768795    1.590    0.371
        50 -12.2740    160.0255    222.4037   3.9568927707e+01   7.3419548206e+00    0.4317214    0.2041907  38.66  0.002153387    2.276    0.561
        51 -10.4288    216.5515    231.5054   3.0604950991e+01  -5.8621559342e-02    0.1100411   0.07940122  -9.47 0.0001155881    1.020    0.019
        52 -13.4789    138.1946    228.4021   4.4924890870e+01   8.9252972743e+00    0.3367115    0.2499319   9.85 0.0006555032    1.199    0.166
        53 -11.4010     61.5749    231.1505   6.2729481145e+01   1.7308907936e+01      0.26202    0.1599779  28.91 0.0006458216    1.385    0.278
        54 -10.9059    194.2836    229.5496   3.4114740026e+01   2.4330188314e+00    0.1985614    0.1340908 -30.68 0.0006981074    1.362    0.266
        55 -10.1590    245.8185    228.4041   2.5638589974e+01  -2.3214503940e+00     0.130402   0.07685009   6.13 0.0004631298    1.542    0.351
        56 -10.1777    204.4331    228.2106   3.2149196012e+01   1.5769246050e+00    0.1414433   0.09688479 -40.64 0.0009510167    1.644    0.392
        57 -10.4879    166.4664    227.8243   3.9062068275e+01   5.7263199338e+00    0.1600403    0.1095641 -39.86  0.001003423    1.520    0.342
        58 -13.2088    114.7831    226.6753   4.9845690548e+01   1.2041087552e+01    0.6570206    0.2662762 -52.79 0.0006038077    2.672    0.626
        59 -11.5435    119.9981    227.2557   4.8746230366e+01   1.1306462782e+01     0.258053     0.191532  26.51 0.0002175302    1.172    0.147
        60 -11.6781    106.0679    225.8988   5.1740956131e+01   1.3236380365e+01    0.4538034    0.2116411  23.58  0.002128171    1.981    0.495
        61 -12.8191    147.5258    224.9415   4.2490741627e+01   8.4035467139e+00    0.2808181    0.2194176 -29.50 0.0005451443    1.278    0.217
        62 -11.2874     91.9990    225.1909   5.4942397711e+01   1.5054021767e+01    0.1884619    0.1851358 -59.47 0.0004799316    1.181    0.153
        63 -10.1864    180.4788    224.9382   3.5960819405e+01   4.5964182387e+00    0.1347778    0.1066268 -70.36 0.0008075289    2.442    0.590
        64 -12.4731    173.9673    222.9153   3.6899713301e+01   5.6407301311e+00    0.2795292    0.2000028 -33.11 0.0003883987    1.352    0.260
        65 -12.3237    170.5544    219.8351   3.7106654653e+01   6.5211633383e+00    0.3302961    0.2146261   6.19 0.0006058778    1.487    0.328
        66 -12.7795    127.4984    214.4997   4.5394992997e+01   1.2734694374e+01    0.3886756    0.3093929  67.61  0.002264259    1.790    0.441
        67 -12.5965    124.8035    221.7240   4.6969030552e+01   1.1731112895e+01    0.5679653    0.2541092  30.32  0.002448294    1.947    0.487
        68 -12.1774    130.2081    220.1577   4.5560031011e+01   1.1349642203e+01    0.2589523    0.2287023 -76.43    0.0010554    1.527    0.345
        69 -12.6664     48.6265    221.6380   6.5118909512e+01   2.0652002001e+01    0.3478861    0.3224906  48.53  0.001616906    1.089    0.082
        70 -10.3963     48.5477    216.7278   6.4764950817e+01   2.1719875422e+01    0.2392307    0.1486227  57.51 0.0008900142    1.582    0.368
        71 -11.4227     81.8889    222.0898   5.7028586879e+01   1.6865328549e+01    0.2011877    0.1565613  45.42  0.000574204    1.219    0.180
        72 -10.1083     67.0235    220.9576   6.0538184599e+01   1.8806142738e+01    0.1540601    0.1353623  38.48 0.0004796626    1.019    0.019
        73 -11.2194    190.2126    219.8384   3.3408158169e+01   4.2853822505e+00    0.1839029    0.1211816  12.86 0.0004207115    1.378    0.274
        74 -11.0966    193.8780    216.7103   3.2272172422e+01   4.3469964391e+00    0.3309305    0.1427225 -29.21  0.001110947    2.371    0.578
        75 -11.0646    152.2415    220.2219   4.0846996353e+01   8.6362108027e+00    0.1540715    0.1380173  32.26 0.0004624552    1.318    0.241
        76 -10.9586     76.8052    219.5826   5.8008933373e+01   1.7974107963e+01    0.2032322     0.114117  28.53  0.000628876    1.544    0.352
        77 -11.2345     80.5205    218.0072   5.6937911914e+01   1.7865209550e+01      0.20957    0.1629769  16.98 3.732848e-05    1.239    0.193
        78 -12.8975    143.7721    215.3010   4.1927142375e+01   1.0533353230e+01    0.5486669    0.4005625  60.29  0.002636462    2.158    0.537
        79 -11.8427    139.7900    207.7400   4.1687133808e+01   1.2414649226e+01    0.3198163    0.2535444  60.45  0.001292653    1.778    0.437
        80 -10.6913    216.9713    217.0051   2.8369584791e+01   1.8487345429e+00    0.1638409    0.1251961 -12.10  0.001210402    1.047    0.045
        81 -10.7383    121.6860    217.3356   4.7094331919e+01   1.2935403357e+01    0.2118369    0.1153532  31.22 0.0008878907    1.626    0.385
        82 -11.9121    120.5078    213.8687   4.6900537702e+01   1.3744215328e+01    0.3190318    0.2127272  35.12 0.0008540208    1.397    0.284
        83 -11.2780     91.8777    217.0959   5.4072859628e+01   1.6688169003e+01    0.1951018    0.1591444  48.30 0.0003416967    1.239    0.193
        84 -12.5297    108.9014    214.4019   4.9675370363e+01   1.5113801791e+01    0.3539703    0.3233333 -15.71  0.001179043    1.130    0.115
        85 -11.6903     85.6111    214.9267   5.5356752964e+01   1.7896652498e+01    0.5269547    0.2234717  43.44  0.002271974    2.269    0.559
        86 -11.2883    156.4325    213.4845   3.8995471563e+01   9.2733248896e+00    0.2107152    0.1889857 -59.38 0.0007574917    1.502    0.334
        87 -12.4491     41.4351    212.2421   6.6223435685e+01   2.3443774979e+01    0.4140526    0.2477567  19.64  0.001674954    1.670    0.401
        88 -11.0322    172.1792    211.7134   3.5563261547e+01   7.6425765806e+00    0.1674938    0.1386975 -25.66 0.0006181282    1.176    0.149
        89 -11.3392     73.3368    211.9860   5.8096223429e+01   1.9988314135e+01    0.2895347    0.2112649  15.04 0.0007131298    1.391    0.281
        90 -10.3123     72.6990    208.7010   5.7915789307e+01   2.0777830864e+01    0.1760416    0.1563317  15.78 0.0003019029    1.130    0.115
        91 -12.2182    161.4911    208.2247   3.7158221794e+01   9.5462285202e+00    0.2985721    0.2735687 -45.44  0.002017158    1.365    0.267
        92 -10.9372     96.9917    208.3314   5.1779098164e+01   1.7859653773e+01     0.320715    0.1845571 -64.84   0.00124893    2.040    0.510
        93 -12.6126     25.7601    208.5921   6.9987209412e+01   2.5784336540e+01    0.4049118    0.2815512 -70.44  0.001431947    1.539    0.350
        94 -11.1361    180.4022    207.8560   3.3378306938e+01   7.2781159545e+00    0.2484577    0.1570894  29.22 0.0009556784    1.566    0.361
        95 -11.6307    103.6517    206.3994   4.9900194858e+01   1.7405819644e+01    0.3158008    0.1993233  48.73  0.001596665    1.728    0.421
        96 -12.2745     35.1986    206.3000   6.7402560111e+01   2.5413229953e+01    0.3495931    0.2408155 -47.78   0.00192169    1.734    0.423
        97 -11.3707     46.8701    206.1577   6.4350172775e+01   2.4256135057e+01    0.2411978    0.1732187  22.24  0.001341597    1.360    0.265
        98 -11.8963    150.9483    197.9955   3.7754072679e+01   1.2743176733e+01    0.3332509    0.1875189 -53.23  0.001651743    2.033    0.508
        99 -12.4461    146.1901    202.0925   3.9428641837e+01   1.2620486702e+01    0.4551528     0.231049 -39.19  0.002198439    1.996    0.499
       100 -10.6650     16.7972    204.6688   7.2074630158e+01   2.7480922951e+01    0.2741679    0.1217879  63.65  0.001232788    2.229    0.551
       101 -12.9559     91.6288    198.3625   5.1857549985e+01   2.0688314211e+01    0.8670174    0.3354795 -53.13  0.003077147    2.638    0.621
       102 -13.3069     84.5746    199.0675   5.3763319353e+01   2.1443550225e+01    0.6827708    0.4443435 -62.15   0.00351871    1.666    0.400
       103 -11.0775    138.3320    196.7035   4.0323718020e+01   1.4701789721e+01    0.1910429    0.1455247  -6.18 0.0006269925    1.360    0.265
       104 -10.5390    136.7115    201.2892   4.1399922761e+01   1.4037991729e+01    0.2136831    0.1478309  47.02  0.000460936    1.699    0.412
       105 -11.1137    135.6660    198.3174   4.1178433887e+01   1.4753088066e+01    0.2472806    0.1883328  59.97   0.00113774    1.817    0.450
       106 -11.6891    121.0085    201.0088   4.4979652120e+01   1.6209379641e+01    0.2455113    0.1896114 -29.96 0.0007948158    1.349    0.259
       107 -12.7993    123.3461    196.5600   4.3765127506e+01   1.6791318270e+01    0.4332776    0.2921763  46.87  0.002250543    1.653    0.395
       108 -12.2944     19.6694    188.3476   7.0382572187e+01   3.1128955058e+01    0.4415431    0.2401366  -0.95  0.001938203    2.624    0.619
       109 -11.3615     24.0238    195.9863   6.9672056578e+01   2.8889994586e+01    0.3477527    0.1771345  36.31   0.00115972    1.675    0.403
       110 -11.6530     22.3109    192.6936   6.9928241297e+01   2.9836623848e+01     0.210786    0.1896621  72.63  0.000583606    1.072    0.067
       111 -11.6803     17.1657    198.8712   7.1672784306e+01   2.8806443355e+01    0.3465878      0.20438 -87.73 0.0005762387    1.692    0.409
       112 -11.3204     20.4741    197.4926   7.0716090534e+01   2.8847017646e+01    0.2493795    0.2048734  58.34 0.0007134936    1.059    0.055
       113 -13.4301     12.3064    189.8399   7.2496737247e+01   3.1380101654e+01    0.6226476     0.348211 -82.25 0.0004007323    1.748    0.428
       114 -12.1159      5.5211    192.0000   7.4437536227e+01   3.1386414258e+01    0.4217951    0.1770883  20.38  0.001883301    2.357    0.576
       115 -12.1581    175.4419    197.6646   3.2687499784e+01   9.5804365780e+00    0.5314984    0.2480056  45.62  0.002334162    3.124    0.680
       116 -10.4656     53.3957    198.2364   6.1922735883e+01   2.5380551092e+01    0.1836288    0.1589586  30.99 0.0007406617    1.101    0.092
       117 -11.0024    150.6344    203.3171   3.8662057642e+01   1.1809443757e+01    0.2372704    0.1871112 -18.66 0.0007840465    1.204    0.169
       118 -11.5845     36.4354    196.6663   6.6365717001e+01   2.7545550621e+01    0.4132459    0.1615411  54.16  0.001625046    2.658    0.624
       119 -10.0756     41.9572    195.9663   6.4811777770e+01   2.7149594290e+01    0.1606199    0.1426757  49.96 0.0004590128    1.008    0.008
       120 -12.3122    192.7009    193.7699   2.8800840193e+01   8.0485696320e+00    0.2479691    0.2256371  13.14 0.0003021122    1.292    0.226
       121 -11.2997    164.0240    191.7323   3.3980174071e+01   1.2121091043e+01    0.2409184    0.1233764  28.82 0.0005621221    1.951    0.487
       122 -12.5747    132.9240    191.5588   4.0741622680e+01   1.6467283987e+01    0.3963835    0.2745517 -16.10  0.001410215    1.672    0.402
       123 -12.1742     52.0474    192.0049   6.1690202424e+01   2.7008250356e+01    0.4658096    0.2297831  53.78  0.001783767    2.125    0.529
       124 -12.8375    110.5246    188.6109   4.5684364275e+01   2.0249701149e+01    0.4145313    0.2660245 -68.84  0.001855436    1.961    0.490
       125 -10.4856     45.4918    191.0059   6.3407479893e+01   2.7967727015e+01    0.1935394     0.132446 -75.50 0.0004912888    1.515    0.340
       126 -11.4930    153.1477    188.6726   3.5747766729e+01   1.4183364352e+01    0.2142518     0.175152 -47.61 0.0007197447    1.326    0.246
       127 -11.1016     21.1156    203.9727   7.0919097172e+01   2.7266663751e+01    0.1928252    0.1737497  58.14 0.0006282882    1.066    0.062
       128 -10.2403    174.6495    188.7219   3.1338919986e+01   1.1223852602e+01    0.1314972   0.08815488  -6.73 0.0002731604    1.643    0.391
       129 -12.8076    128.1846    185.6941   4.0903865188e+01   1.8339723371e+01    0.3200852     0.262248   1.98  0.001499144    1.236    0.191
       130 -12.6360      3.1691    184.4355   7.4747887449e+01   3.3404304837e+01    0.4843136    0.2911866  77.34  0.001613766    1.535    0.348
       131 -10.4815    226.3189    186.6880   2.1997959638e+01   5.1469705967e+00   0.09958392   0.08666483 -49.26 0.0002632451    1.646    0.392
       132 -11.8864    164.1494    184.6333   3.2740614861e+01   1.3393945351e+01    0.4016615    0.2505352 -60.95  0.001934458    2.339    0.572
       133 -11.0354    150.5298    183.7622   3.5476925805e+01   1.5492738762e+01    0.2243429     0.172938  27.50 0.0004450427    1.275    0.215
       134 -12.2991    105.2491    183.1906   4.6196631125e+01   2.2193271641e+01    0.3485355    0.2340636 -50.41 0.0007850096    1.533    0.348
       135 -11.8066     94.9196    181.1326   4.8598563881e+01   2.4130084324e+01     0.455188     0.284536 -54.08  0.001550039    1.647    0.393
       136 -12.8549     26.1531    182.5637   6.8161196907e+01   3.1984812624e+01    0.3872527    0.3365464 -83.93  0.001396185    1.154    0.133
       137 -11.2675     87.6860    179.6821   5.0341237190e+01   2.5480190893e+01    0.4377534     0.120913  40.34  0.001398892    3.344    0.701
       138 -12.1962     12.3965    180.0947   7.1936125278e+01   3.3786114144e+01    0.2781971    0.1879821  57.95 0.0009811451    1.327    0.247
       139 -10.8296    191.5370    178.0059   2.6275918280e+01   1.0797216589e+01    0.1874814    0.1092483 -40.59 0.0007205587    1.552    0.356
       140 -12.6540    136.6780    176.5368   3.7344148505e+01   1.8979621167e+01    0.4172944     0.326447 -68.66   0.00207852    1.623    0.384
       141 -13.6074    127.7582    174.0765   3.9035487859e+01   2.0851443511e+01    0.6633141    0.4288573 -40.16  0.003262094    1.565    0.361
       142 -12.4987    120.7624    168.2144   3.9727792437e+01   2.3210386459e+01    0.4646531    0.2550344  24.72  0.001988003    2.013    0.503
       143 -12.7032    125.6351    165.9705   3.8101361199e+01   2.2938338575e+01    0.5257564    0.3088121  58.03  0.002142988    2.566    0.610
       144 -12.9726    116.7546    177.7044   4.2379715745e+01   2.1726743872e+01    0.3609875    0.2462508  19.51  0.001517388    1.541    0.351
       145 -12.7693    106.9348    175.4085   4.4521034830e+01   2.3702946714e+01    0.3018298      0.28472 -25.84 0.0009949226    1.072    0.067
       146 -10.4810     62.8729    177.0551   5.6981499045e+01   2.9390243742e+01    0.2239148    0.1673556 -20.93 0.0008902915    1.673    0.402
       147 -11.8202     31.3255    175.9440   6.6129772810e+01   3.3171812360e+01    0.3519067    0.2340484 -63.43  0.001799156    1.530    0.347
       148 -11.9217      2.0513    175.1870   7.4649829930e+01   3.5793691133e+01     0.352091    0.1972212 -77.75 0.0008964372    1.692    0.409
       149 -10.8682      2.1482    168.6021   7.4309911922e+01   3.7467993886e+01    0.3201219    0.1946794 -64.03  0.001637373    1.663    0.399
       150 -11.3940     14.4721    171.4575   7.0801917014e+01   3.5820417660e+01    0.2316365    0.1346406 -38.69  0.001063332    2.197    0.545
       151 -13.2324     20.3085    172.4278   6.9126539201e+01   3.5084216545e+01    0.6733369    0.2996155 -65.32   0.00290758    2.159    0.537
       152 -12.6736     16.4683    167.4874   6.9931020719e+01   3.6688544661e+01    0.5015243    0.1630542  44.08   0.00188341    2.680    0.627
       153 -10.4520     77.4822    166.5101   5.1279937134e+01   3.0099592948e+01    0.1441402    0.1405906  42.40 6.014597e-05    1.019    0.019
       154 -13.2155     83.4421    166.9566   4.9619380016e+01   2.9148070702e+01    0.7322783     0.325269  58.15  0.002228299    4.107    0.757
       155 -12.5135     80.0370    163.0550   4.9998518649e+01   3.0602960506e+01    0.3685101     0.271864  82.83  0.001541637    1.634    0.388
       156 -11.8985     90.5069    174.5068   4.8795520502e+01   2.6310110027e+01    0.2625372    0.2228528  47.09 0.0006399236    1.170    0.145
       157 -13.6693     91.6825    170.5388   4.7851822069e+01   2.7088192980e+01    0.5639878    0.4563051 -72.01  0.001767232    1.343    0.255
       158 -10.9209     35.7800    174.5753   6.4686624140e+01   3.3081073224e+01    0.2575974    0.1525748 -60.29 0.0007024161    1.716    0.417
       159 -12.2062     80.3787    173.1125   5.1423202788e+01   2.8068212493e+01     0.420432    0.2526525  26.55  0.001914063    1.650    0.394
       160 -11.8778    157.8689    171.1746   3.1640905841e+01   1.6846428400e+01    0.2611305       0.1895  38.95 0.0005907364    1.475    0.322
       161 -12.3761    153.0252    170.4599   3.2552416607e+01   1.7722170620e+01    0.2475052    0.2242338 -19.71 0.0004285687    1.024    0.023
       162 -11.1935    198.3365    170.1184   2.3642459011e+01   1.1200385828e+01    0.2545614    0.1370144  34.10 0.0008958339    2.047    0.512
       163 -11.3684    177.0629    169.7933   2.7483086762e+01   1.4253610124e+01    0.2067466    0.1754799 -58.24 0.0004311693    1.465    0.317
       164 -12.7868    170.2941    163.6650   2.7657646943e+01   1.6389808711e+01    0.7582853    0.3496548 -52.06  0.003189953    2.486    0.598
       165 -11.8328     28.7491    168.7922   6.6286094165e+01   3.5264922566e+01    0.2209459    0.1889728  10.37 0.0003220945    1.306    0.234
       166 -10.9372    139.4999    166.0439   3.4778863274e+01   2.0724797195e+01    0.2025222    0.1338091 -46.80 0.0003777235    1.484    0.326
       167 -12.4221    103.5050    165.8068   4.3819180797e+01   2.6441210242e+01    0.3085158    0.2034693  39.11  0.001461002    1.483    0.326
       168 -10.6914    208.4425    170.2355   2.1956971598e+01   9.8338459683e+00    0.1637801    0.1023062 -44.74 0.0005634544    1.572    0.364
       169 -12.7131    111.6077    164.6854   4.1456481916e+01   2.5442516198e+01    0.4676907    0.2311161  27.71  0.001877686    2.166    0.538
       170 -10.6206      1.6375    163.7520   7.4222643137e+01   3.8757850882e+01    0.1939855    0.1528977  79.73 0.0003141149    1.130    0.115
       171 -11.6949      5.2958    160.6464   7.2930605008e+01   3.9324568694e+01      0.33554    0.2877122  -6.17 0.0009480893    1.389    0.280
       172 -12.3569    143.8880    172.9334   3.5039828611e+01   1.8623057836e+01     0.505339    0.2490242  52.70  0.001893812    3.298    0.697
       173 -11.6635     58.6262    160.7999   5.6145591972e+01   3.4065003618e+01    0.2066635    0.1374586 -84.28 0.0005049267    1.657    0.396
       174 -10.4409     49.2348    160.3815   5.9028050904e+01   3.5313937427e+01    0.2699788    0.1604839 -56.59 0.0007806566    1.687    0.407
       175 -10.2621     41.4605    161.4980   6.1610629726e+01   3.5893747578e+01    0.1421382    0.1355353  77.07 9.261994e-05    1.037    0.036
       176 -11.7150     37.3444    160.8862   6.2844378675e+01   3.6492710654e+01    0.2441487    0.1972201  29.28 0.0007057388    1.244    0.196
       177 -10.8967     34.2872    158.3158   6.3546404340e+01   3.7489796687e+01     0.197768    0.1238882  37.29 0.0002123493    1.510    0.338
       178 -11.4618     25.3964    160.0470   6.6556039939e+01   3.7880201236e+01    0.2836288    0.2062868 -27.94    0.0010444    1.699    0.411
       179 -11.9041     12.9818    159.9004   7.0477083570e+01   3.8961234939e+01    0.4035309    0.2060636 -48.24  0.001049098    2.219    0.549
       180 -10.5316    195.9790    159.9934   2.2159157603e+01   1.3237318266e+01    0.1514786    0.1305561 -18.33 0.0004147261    1.046    0.044
       181 -12.8008    104.9302    158.2027   4.2077681643e+01   2.8012971257e+01    0.5192462    0.3058806  65.75  0.001939975    2.869    0.651
       182 -12.3337    111.4213    158.2674   4.0333205727e+01   2.6956212801e+01    0.3696575    0.2573445 -23.34 0.0007472523    1.790    0.441
       183 -12.2595    118.4542    157.1582   3.8272177506e+01   2.6066744103e+01    0.2935177    0.2272658  -6.58  0.001407443    1.548    0.354
       184 -12.3830     76.7756    156.7330   4.9960907935e+01   3.2666537475e+01    0.4033883    0.2009263 -41.04 0.0009530582    2.441    0.590
       185 -12.2641    132.6888    156.8589   3.4638984558e+01   2.3785431128e+01    0.4121568     0.241997  41.19  0.001875873    1.755    0.430
       186 -11.6215    143.6263    152.8178   3.1246524019e+01   2.2824732629e+01    0.3927078    0.2746111 -88.57  0.001669608    2.661    0.624
       187 -12.0000    134.1946    153.3941   3.3587972087e+01   2.4286395477e+01    0.4204179    0.1918882  46.38  0.001624562    2.498    0.600
       188 -11.3558    141.1945    155.2385   3.2295271820e+01   2.2721343536e+01    0.2520688    0.2006197 -44.77  0.001004791    1.217    0.178
       189 -11.1272    139.0099    152.0265   3.2162578410e+01   2.3769288281e+01    0.2874702    0.2155114 -10.37 0.0003345673    1.615    0.381
       190 -10.8226     90.6332    157.1678   4.5925341180e+01   3.0499815283e+01    0.2061504    0.1321293 -48.03 0.0002664244    1.591    0.371
       191 -11.2723    124.2060    155.7972   3.6535008633e+01   2.5425469879e+01    0.2025305    0.1673998 -13.27 0.0003703877    1.331    0.249
       192 -13.7154     83.5277    150.6025   4.6874123564e+01   3.3227217805e+01    0.6730027    0.4262348 -30.51  0.001838867    2.056    0.514
       193 -13.6722     75.2397    150.7430   4.9439479524e+01   3.4424681812e+01    0.6925888    0.2756283  35.40   0.00252593    2.351    0.575
       194 -11.1195      1.3708    153.8923   7.3785952713e+01   4.1369268263e+01     0.370141    0.1480917  84.08  0.001446828    2.502    0.600
       195 -12.3461      4.5920    149.8938   7.2506702790e+01   4.2231040928e+01    0.3530449    0.2622086 -20.45  0.001174328    1.651    0.394
       196 -11.2809     54.4564    154.4470   5.6587266541e+01   3.6255635794e+01    0.1461825    0.1394201  69.90 7.073227e-05    1.004    0.004
       197 -12.8102     42.8538    152.7001   6.0122576153e+01   3.8086532410e+01    0.5438518     0.266901 -48.63  0.002193483    2.201    0.546
       198 -11.6409    172.8450    152.0783   2.4877335914e+01   1.8167064719e+01    0.1990094    0.1818397 -57.44 0.0004524103    1.262    0.207
       199 -10.8442    123.4795    151.5044   3.5872486762e+01   2.6511906026e+01    0.1450989     0.140356 -19.33 5.726423e-05    1.001    0.001
       200 -10.7507     21.1202    155.1790   6.7500063211e+01   3.9559734217e+01    0.1947896    0.1880128 -57.37 0.0004912731    1.141    0.124
       201 -11.6655     27.4372    150.2907   6.4956062108e+01   4.0315084018e+01    0.5120252    0.2560792 -18.65  0.001808245    3.472    0.712
       202 -11.5219     19.3087    149.3546   6.7583783586e+01   4.1285241313e+01    0.3743334    0.2783726 -77.39  0.001930559    1.266    0.210
       203 -11.8312    108.8329    149.0515   3.9265612535e+01   2.9546294282e+01    0.3404843    0.2649103 -59.52 0.0008199193    1.324    0.245
       204 -12.1003     96.3238    149.0639   4.2798926938e+01   3.1602408979e+01    0.2808077    0.2137512  42.69  0.000419054    1.314    0.239
       205 -10.3670    158.3331    145.3268   2.6450746544e+01   2.1870944745e+01    0.1457678    0.1056596 -10.29 0.0007051481    1.715    0.417
       206 -11.1618    146.9845    145.0056   2.8869104186e+01   2.3886001701e+01    0.2132197    0.1962661 -31.24            0    1.018    0.018
       207 -13.0382    102.6017    142.1520   3.9629217351e+01   3.2251772111e+01    0.4980697    0.3505127  76.33 0.0009106577    2.024    0.506
       208 -12.8622     96.3898    138.4013   4.0671877344e+01   3.4222803546e+01    0.4756531    0.3268009  17.05  8.35372e-05    1.775    0.437
       209 -10.7369    153.8728    143.1573   2.6951438047e+01   2.3073257019e+01    0.1982633    0.1609371 -14.17  0.000550628    1.336    0.252
       210 -13.4049     50.6542    142.3166   5.6094830198e+01   3.9977309440e+01     0.554495    0.3670908  24.79  0.002570316    1.566    0.361
       211 -11.2096     41.3565    143.0652   5.9381816622e+01   4.0862916183e+01    0.2065419    0.1786412 -81.75 0.0004010328    1.114    0.102
       212 -12.2001    164.5245    141.1826   2.4291272267e+01   2.1632419636e+01    0.2344487      0.22812 -21.00 0.0002598499    1.096    0.087
       213 -11.8324     10.6532    142.0563   6.9907090726e+01   4.3940921671e+01    0.2561249    0.1863683 -32.81  0.001317608    1.609    0.379
       214 -10.2927    133.4494    139.5330   3.0884157809e+01   2.7441610564e+01    0.1452003    0.1395486 -39.33 0.0002568286    1.025    0.025
       215 -13.6704     68.3641    137.1168   4.9258471734e+01   3.8990554855e+01    0.7586975    0.3496695  38.49  0.002283129    2.095    0.523
       216 -12.5745     67.6441    129.9041   4.8147710413e+01   4.1008544697e+01    0.4943558    0.2780657 -81.62  0.001842106    2.445    0.591
       217 -11.5665      1.7194    137.8540   7.2701647633e+01   4.5667279902e+01    0.3063756    0.1626882  88.30 0.0007351191    1.766    0.434
       218 -11.2805     40.9904    137.5351   5.8748780737e+01   4.2416814323e+01     0.292105    0.1822266  59.52  0.001285146    1.746    0.427
       219 -10.8456     20.0163    137.9236   6.6248749492e+01   4.4354163381e+01    0.2161902     0.203606  84.17 0.0006065083    1.033    0.032
       220 -11.6782    123.2088    135.0741   3.2488548299e+01   3.0284669842e+01    0.2218924    0.1950614 -21.93 0.0003503859    1.203    0.169
       221 -11.6604     79.0716    132.4886   4.4846930221e+01   3.8570396602e+01    0.2574298    0.1948924  52.61  0.001215558    1.386    0.279
       222 -12.4475     83.5887    131.7510   4.3241088513e+01   3.8030859303e+01     0.373869    0.2633156  50.32    0.0013429    1.495    0.331
       223 -11.5976     83.0231    127.6817   4.2567847701e+01   3.9166214482e+01    0.2776025     0.225934 -57.69   0.00069695    1.210    0.174
       224 -11.3245      7.4634    134.9933   7.0463215928e+01   4.6093659677e+01    0.2498539    0.1898135  40.14 0.0003473667    1.317    0.241
       225 -11.8482     13.6339    133.6069   6.8118740633e+01   4.6046011212e+01    0.3897302    0.2460208 -68.07  0.001892558    1.461    0.316
       226 -12.6455     19.7544    131.9122   6.5711237659e+01   4.6037264276e+01    0.3875123    0.3431365  45.34 0.0004550194    1.142    0.124
       227 -12.0053     10.3109    132.6638   6.9240450571e+01   4.6543442193e+01    0.3014671    0.1562234  67.06  0.001087929    2.046    0.511
       228  -9.9811    127.6862    134.7239   3.1263734335e+01   2.9548171074e+01    0.1469781    0.1160097  -8.46 0.0001889161    1.563    0.360
       229 -12.0462     45.4134    133.2189   5.6536971068e+01   4.3090915788e+01     0.302202     0.284041  69.20  0.001663974    1.039    0.038
       230 -11.6669     50.2782    130.6029   5.4371037010e+01   4.3210624183e+01    0.3486995    0.2524723   2.18  0.001134737    1.703    0.413
       231 -10.8405    160.0691    132.8596   2.3407620587e+01   2.4050390045e+01    0.2123941    0.1869521 -32.30  0.000524998    1.057    0.054
       232 -11.3369    115.5296    133.0491   3.4078211188e+01   3.2146173665e+01    0.2267255    0.1457994 -50.50 -8.588025e-05    1.518    0.341
       233 -10.2802    134.5317    144.5340   3.1687603727e+01   2.6156533936e+01    0.1449078    0.1379012 -26.11 0.0002124475    1.005    0.005
       234 -10.6765    241.4733    129.9335   9.6696018031e+00   1.1652673795e+01    0.1770888   0.08940376 -37.85 0.0003945858    1.504    0.335
       235 -11.4320     89.9863    129.9527   4.0842737290e+01   3.7418475971e+01    0.2459223    0.1874945 -15.80 0.0007630351    1.687    0.407
       236 -10.3846    130.1605    127.9033   2.9098764115e+01   3.0605855139e+01    0.2393509    0.1720714 -78.32  0.001056431    1.956    0.489
       237 -11.3836    121.4586    128.0087   3.1352947031e+01   3.2214695780e+01    0.2729295    0.2109751  60.82 0.0004295786    1.497    0.332
       238 -11.9166    102.0908    128.0351   3.6753338440e+01   3.5771226154e+01    0.2900729    0.2156973  38.31  0.001373093    1.365    0.267
       239 -13.3302     56.8237    126.3815   5.1275519200e+01   4.3497475091e+01    0.5715039    0.3956197  33.39   0.00137515    1.451    0.311
       240 -12.0961     49.4689    123.9604   5.3519870953e+01   4.5127123605e+01    0.2641155    0.2170648  30.52 0.0003374812    1.250    0.200
       241 -10.9474     41.2695    127.7058   5.7185644484e+01   4.5089678867e+01    0.2991057    0.1775451 -10.21  0.001165755    2.519    0.603
       242 -10.9539     35.6606    126.9977   5.9167326767e+01   4.5903667550e+01    0.2134463    0.1783601 -73.73 0.0003933957    1.138    0.121
       243 -14.2604     75.0367    124.8540   4.4609811336e+01   4.1198093006e+01     1.396594     0.479304 -42.40  0.003906979    4.076    0.755
       244 -12.5908     71.1103    118.3002   4.4551916508e+01   4.3535982920e+01    0.3989829    0.3030991  50.43 0.0006015284    1.369    0.270
       245 -12.4400     79.7583    119.9894   4.1958758166e+01   4.1683548742e+01    0.4293412    0.2560616 -60.57  0.001328956    1.694    0.410
       246 -12.5181     83.1873    118.6258   4.0505891466e+01   4.1448805471e+01     0.436965    0.3295181 -71.28  0.002039504    1.435    0.303
       247 -10.8072     28.6011    120.7233   6.0955587132e+01   4.8358728832e+01    0.2699623    0.2048544  27.22 0.0007435343    1.372    0.271
       248 -12.3875     22.3669    119.3356   6.3213593724e+01   4.9312587553e+01    0.5041713    0.2662454  10.53  0.001626423    2.231    0.552
       249 -11.5366     26.9729    125.5112   6.2241388122e+01   4.7182003501e+01    0.2730277    0.2516293 -84.53  0.001090265    1.014    0.013
       250 -11.9267     22.9307    124.1018   6.3605617176e+01   4.7937763484e+01    0.3072455    0.2087104  53.65  0.000324164    1.509    0.337
       251 -12.7653      9.0612    125.1998   6.9029765418e+01   4.8690798045e+01    0.3209149    0.2443474  26.26  0.001473052    1.389    0.280
       252 -12.8646      5.3164    122.3840   7.0206212444e+01   4.9704988912e+01    0.4095009    0.2190316 -77.81   0.00161312    1.684    0.406
       253 -13.1773     15.3483    120.9020   6.6164664417e+01   4.9441657618e+01    0.5730047    0.2944417  54.86  0.002405489    2.098    0.523
       254 -12.5118      9.2932    117.4094   6.8178329372e+01   5.0835402162e+01    0.2877608    0.2133956  74.03 0.0007921779    1.330    0.248
       255 -10.1561    205.5904    121.8417   1.2932682824e+01   1.8228907165e+01    0.1776937    0.1025743 -46.51 0.0004811547    1.550    0.355
       256 -10.9847    194.2339    121.9990   1.4736358027e+01   2.0084840975e+01    0.1905661    0.1489974 -37.80 0.0004185638    1.091    0.084
       257 -10.1773    179.1467    121.8297   1.7269402820e+01   2.2738328004e+01    0.1778481     0.149989 -16.16 0.0002802499    1.265    0.210
       258 -11.7339    105.6764    121.2753   3.4141935522e+01   3.6740153413e+01    0.3304829    0.2112369  44.40 0.0009527099    1.601    0.376
       259 -12.7890     95.6420    119.0309   3.6615754109e+01   3.9136756462e+01     0.496717    0.3274185 -74.95  0.001475058    1.988    0.497
       260 -10.6662     38.1094    119.1877   5.7011814134e+01   4.7797417646e+01    0.2256675    0.1956098 -34.70 0.0006921618    1.237    0.192
       261 -10.1310    121.7294    117.6738   2.8827931855e+01   3.4501459558e+01     0.150581    0.1183406 -17.02 0.0002662301    1.577    0.366
       262 -11.3093     55.0393    117.1029   5.0144700059e+01   4.6250107129e+01     0.226675     0.200276 -33.93 0.0003567622    1.207    0.171
       263 -10.5402    201.6599    114.0878   1.1872413067e+01   2.0171601868e+01    0.1833815    0.1398409 -38.21  0.000383391    1.102    0.093
       264 -11.6016     74.0048    114.0591   4.2580292839e+01   4.4168975273e+01     0.230928    0.2277279  83.03 0.0003752201    1.018    0.018
       265 -12.4957     66.4072    105.6634   4.3347263015e+01   4.7580697021e+01    0.4985408    0.2735293  57.39  0.001844581    2.457    0.593
       266 -13.1388     61.7488    109.4276   4.5978088718e+01   4.7325414410e+01      0.59186    0.4758528 -61.05  0.001974161    1.211    0.174
       267 -10.8078    165.4884    111.9825   1.7539305174e+01   2.7102672719e+01    0.2191174    0.1277055 -43.72 0.0004650075    1.551    0.355
       268 -11.4288    114.9906    112.4886   2.9350475975e+01   3.6996874601e+01    0.2256344    0.1518526  42.64 0.0004891286    1.531    0.347
       269 -11.3038     18.0203    111.2143   6.3897113563e+01   5.1929501988e+01    0.4544017     0.208124  -0.33  0.001655007    3.078    0.675
       270 -12.8885      7.9428    110.0190   6.7946984695e+01   5.2969461921e+01    0.4185827    0.2896712   9.21  0.002123622    1.620    0.383
       271 -11.2522    123.7251    109.4952   2.6258927498e+01   3.5920361963e+01    0.2568997    0.2206779 -42.73 0.0002467735    1.137    0.121
       272 -12.3009     11.7024    105.1844   6.5784136003e+01   5.4064126756e+01    0.4325073    0.3269333  26.85   0.00173459    1.405    0.288
       273 -12.2137      9.3565    100.2296   6.6180500457e+01   5.5584240042e+01    0.4245379    0.2706686 -48.52  0.001090855    1.514    0.339
       274 -13.2463      5.6140     96.2758   6.7370678785e+01   5.6892289586e+01    0.7559154    0.2618273 -66.86  0.001750277    2.368    0.578
       275 -11.6998      1.4136    103.8453   7.0072797078e+01   5.5036228964e+01     0.274475    0.1245354 -78.51 0.0007002403    1.983    0.496
       276 -11.1480     58.5149    106.4668   4.6538685906e+01   4.8593034889e+01    0.3004924    0.1365022 -54.41 0.0009689999    2.068    0.516
       277 -10.7204     87.5679    108.4893   3.6607748845e+01   4.3206376636e+01    0.1539621      0.14928 -67.86 0.0001732487    1.009    0.009
       278 -10.2932    139.5129    107.5114   2.1900957423e+01   3.3137998566e+01    0.1489448    0.1385994 -61.58 -3.490389e-05    1.054    0.051
       279 -11.6728    167.0448    104.7917   1.5522225192e+01   2.8149304800e+01     0.239251    0.1848932 -38.56 0.0002850477    1.195    0.163
       280 -10.5554    115.1997    105.4799   2.7484221504e+01   3.8535176067e+01    0.2086935    0.1516067  45.30 0.0003541296    1.417    0.294
       281 -11.2651    104.7217    102.4542   2.9659017770e+01   4.1336976597e+01    0.2610179    0.2312271 -45.92 0.0003038704    1.116    0.104
       282 -11.2376     78.3772    101.8637   3.8036193757e+01   4.6511223611e+01    0.2853757    0.2061985  47.90   0.00131165    1.430    0.301
       283 -11.8151     55.9708    101.0910   4.6283537670e+01   5.0385681087e+01    0.2917551    0.2209378 -57.72  0.000444251    1.274    0.215
       284 -11.2163     57.9441     97.5178   4.4620927565e+01   5.1020118447e+01    0.2869903    0.2431732 -37.74 0.0008292586    1.223    0.182
       285 -10.2754    178.2975     99.3720   1.2232449783e+01   2.6936236075e+01    0.1371927    0.1053571  -8.29 0.0007028548    1.740    0.425
       286 -11.0823     98.3574     97.5669   3.0245190693e+01   4.3737457258e+01    0.4018842    0.2121527 -45.33   0.00139909    1.885    0.470
       287 -11.5494     94.1061     98.2232   3.1763573477e+01   4.4429801296e+01    0.3319842     0.249325  54.64 0.0008175814    1.412    0.292
       288 -10.8129     75.2831     97.6606   3.8028361409e+01   4.8105182040e+01    0.1572244    0.1209967  81.36 0.0002747539    1.629    0.386
       289  -9.8957     32.6883     97.3170   5.5278161791e+01   5.4388488489e+01    0.1543508    0.1082929  63.24 0.0005063622    1.641    0.391
       290 -10.1732     30.0079    103.5144   5.7622350232e+01   5.2979591884e+01    0.2143104    0.1011868  47.62 0.0008079335    2.378    0.579
       291 -12.0957     90.1474     93.9670   3.1853099108e+01   4.6203457901e+01    0.3375455    0.2266948  28.00  0.001460132    1.760    0.432
       292 -11.5744     26.5719     92.6933   5.7126074702e+01   5.6268033247e+01    0.3396058    0.2559874 -48.13  0.000788479    1.277    0.217
       293 -12.2428     78.9958     92.7482   3.5333631907e+01   4.8628490220e+01    0.2883061    0.2345676  42.20  0.001420648    1.243    0.195
       294 -12.4315     73.9682     89.9916   3.6379120419e+01   5.0217557335e+01    0.3435968    0.2776869  65.73  0.001423785    1.401    0.286
       295 -10.5340     57.9505     91.7134   4.3120391339e+01   5.2508616020e+01    0.2115173    0.1930031  30.60 0.0004421575    1.125    0.111
       296 -10.6572     41.6600     91.9579   5.0132520762e+01   5.4765832944e+01    0.2910681    0.1856963  28.07 0.0008761911    1.616    0.381
       297 -12.3353      1.6175    108.7143   7.0453685214e+01   5.3685736935e+01    0.5186479    0.2107485 -61.35   0.00112629    2.116    0.527
       298 -11.1111    185.5092     89.9706   8.8360108527e+00   2.7149989346e+01    0.2059638    0.1177544 -39.58 0.0003471036    1.525    0.344
       299 -10.4143    121.4209     89.9961   2.1578941190e+01   4.0563427099e+01    0.2335331    0.1433141 -43.86 0.0006003895    1.585    0.369
       300  -9.9008    101.3086     90.2804   2.7263650943e+01   4.4780792848e+01    0.1489013    0.1232271  -1.13 0.0001734816    1.560    0.359
       301 -12.4132      4.2840     79.8057   6.5764039880e+01   6.1417290077e+01    0.5556961     0.399765 -57.18  0.002984238    1.242    0.195
       302 -11.2912      8.9681     76.9953   6.2857317793e+01   6.1891447692e+01    0.3477572    0.2103843 -66.62 0.0007305639    1.485    0.326
       303 -10.9256     10.1605     81.7457   6.3066716371e+01   6.0552649164e+01    0.5541661    0.2007286 -53.05   0.00213561    2.350    0.575
       304 -12.6516      7.0354     86.7396   6.5415512852e+01   5.9404477128e+01    0.3939746    0.2860098 -39.78 0.0005306294    1.364    0.267
       305 -12.9676      3.4916     87.4726   6.7246961703e+01   5.9400681716e+01    0.4879924    0.3123185 -76.49   0.00244126    1.430    0.301
       306 -11.1886    125.1645     87.8806   2.0033733548e+01   4.0183327963e+01    0.3641738    0.2100894 -43.94 0.0009089971    1.675    0.403
       307 -12.3339     54.6892     85.3306   4.2741420650e+01   5.4628806692e+01    0.5298941    0.4834541 -68.47   0.00285156    1.107    0.096
       308 -10.6953    134.9658     84.2452   1.6688935066e+01   3.8751696210e+01     0.266435    0.1824561 -31.50 0.0007793678    1.611    0.379
       309 -10.4408    129.7149     85.3892   1.8223059586e+01   3.9683990491e+01    0.1863035    0.1413951  43.00 0.0003215713    1.429    0.300
       310 -12.0873    150.7559     82.7315   1.2963990468e+01   3.5578985164e+01      0.37564    0.2487961 -11.27  0.001560569    2.600    0.615
       311 -11.3202    152.4949     79.4743   1.1742407537e+01   3.5784237627e+01    0.3817634    0.2102312  74.19  0.001514636    2.669    0.625
       312 -11.5150    189.7965     83.0590   6.5575788475e+00   2.7449099888e+01    0.1999222    0.1936195  81.39 0.0002665077    1.190    0.160
       313  -9.9809    178.6960     83.7240   8.3626357203e+00   2.9540241435e+01    0.1245249    0.1063531   4.12 0.0002332654    1.544    0.352
       314 -11.2350     79.0385     82.7485   3.2360841351e+01   5.0974550416e+01    0.2095261    0.2065838  49.05 0.0003913884    1.026    0.025
       315 -12.4573     64.3478     81.6286   3.7642162748e+01   5.3944249212e+01     0.298981      0.29069  -7.76 0.0003043762    1.056    0.053
       316 -12.3079     89.1832     78.1689   2.7400610541e+01   4.9960359330e+01    0.3549984    0.2649363 -38.19 0.0003777846    1.405    0.288
       317 -10.9679    160.2951     77.9643   9.9144528387e+00   3.4356742336e+01    0.1971382    0.1662071 -45.73 0.0001759672    1.098    0.090
       318  -9.8795     56.2797     78.3026   4.0005070549e+01   5.6106198526e+01    0.1497303    0.1144132 -22.42 0.0002722714    1.548    0.354
       319 -11.0343     70.1735     76.3454   3.3670082377e+01   5.4130916146e+01    0.2598293    0.1999895 -40.02 0.0004042008    1.336    0.251
       320 -12.0490     70.2962     70.5292   3.1693881526e+01   5.5415850319e+01    0.5773288    0.3797924 -22.00  0.001784873    2.193    0.544
       321 -10.1734    110.3321     76.6434   2.0527777103e+01   4.5711967183e+01    0.1604726    0.1170246 -81.02 0.0007043501    1.792    0.442
       322 -10.4719     78.3817     75.9178   3.0432132247e+01   5.2647186734e+01    0.2053868    0.1890113 -48.60  0.000789537    1.084    0.078
       323 -10.8172    105.7264     73.7455   2.0891726721e+01   4.7313727503e+01    0.3145261    0.1988984 -51.56  0.001393457    1.615    0.381
       324 -10.1428     45.3248     73.6364   4.3534491681e+01   5.8933642508e+01    0.1546962    0.1138428  71.37 0.0007040046    1.791    0.442
       325 -11.8741     53.9808     70.7977   3.8646969395e+01   5.8269071528e+01    0.4234577    0.2852742 -15.00  0.001809335    2.138    0.532
       326 -10.3070    132.9542     70.6931   1.3176561864e+01   4.1719584560e+01    0.1976835    0.1816055  74.08 0.0004693833    1.094    0.086
       327 -10.7815     79.8418     69.6967   2.7821170564e+01   5.3704484923e+01    0.2979835    0.2039802 -23.21  0.001288522    1.966    0.491
       328 -12.4179     62.2044     68.1047   3.4156516054e+01   5.7463424746e+01     0.352233    0.2975076  61.12 0.0009040185    1.307    0.235
       329 -11.5148     49.4239     65.7274   3.9049539659e+01   6.0186887638e+01    0.3126028    0.2406823 -37.79 0.0008878195    1.320    0.243
       330 -10.9615     46.9975     62.7639   3.9187900067e+01   6.1252158260e+01    0.2481332    0.2122224  26.99 0.0002919359    1.177    0.150
       331 -11.9084      8.3010     67.0293   6.1314358514e+01   6.4532737438e+01    0.2708138    0.1695145 -30.07  0.001331345    1.644    0.392
       332 -10.3508     13.2358     66.0691   5.8285906154e+01   6.4432457582e+01     0.225191    0.1491022  71.80  0.001068904    1.930    0.482
       333 -11.7832     17.8695     60.4950   5.4187764726e+01   6.5444223796e+01     0.372169    0.2739845 -29.37  0.001980741    1.362    0.266
       334 -11.6226     12.5224     59.7710   5.7172917803e+01   6.6072784198e+01    0.2630541    0.2295422   7.57  0.000470192    1.187    0.158
       335 -10.9198     28.2483     60.1466   4.8121442279e+01   6.4450179055e+01    0.2484017    0.2028964  11.24  0.001288616    1.260    0.206
       336 -12.2358     23.7225     56.6431   4.9603769731e+01   6.5797459461e+01    0.4632019    0.3416366 -64.15  0.001238773    1.384    0.277
       337 -11.7505     34.0565     59.0706   4.4563267991e+01   6.3981840077e+01    0.3445793    0.2366422 -61.84 0.0007763736    1.518    0.341
       338 -11.1965     42.1320     59.1943   4.0349788756e+01   6.2813754789e+01    0.2247537    0.1909244 -13.83  0.000949316    1.242    0.195
       339 -10.3683    153.0255     57.5435   5.4872003628e+00   3.9318342465e+01     0.194055    0.1336908  65.32 0.0003131759    1.489    0.328
       340 -12.1726    110.5769     54.1661   1.3033962969e+01   4.9807860710e+01    0.4056041    0.2390925 -41.42  0.001021049    1.692    0.409
       341 -12.2910     37.7870     54.1171   4.0778499040e+01   6.4598069310e+01    0.2555661    0.2384318 -80.47  0.001038694    1.219    0.179
       342 -11.5333     29.4588     55.0962   4.5763329659e+01   6.5495276819e+01    0.2199138    0.1934893  56.33 0.0007092195    1.308    0.236
       343 -11.1421    126.1545     54.8364   9.6790156518e+00   4.6012347126e+01    0.1841485    0.1720821  13.30 0.0003560808    1.286    0.222
       344  -9.9632    143.6729     50.7331   5.0450718361e+00   4.2520948631e+01    0.1325886     0.107566  33.75 0.0002403186    1.572    0.364
       345 -12.8512     30.8410     49.3939   4.2892869618e+01   6.6613045461e+01    0.4315543    0.2805053 -11.31  0.002002416    1.995    0.499
       346 -12.0254     16.3037     49.5658   5.1880843224e+01   6.8221495372e+01    0.3072442    0.2251285 -44.90 0.0004425006    1.256    0.204
       347 -12.0995     99.0070     48.9781   1.4201209285e+01   5.3396075431e+01     0.369664    0.2569741 -88.75   0.00168235    1.921    0.479
       348 -11.5294     96.6631     45.3325   1.3474063850e+01   5.4542523974e+01     0.270739    0.1749521  69.82  0.001242098    1.712    0.416
       349 -12.1071    128.9522     45.8898   6.1875253244e+00   4.6736782208e+01    0.3342773    0.2025685 -34.11  0.001580555    1.700    0.412
       350 -10.9404     43.4342     47.8961   3.5326078269e+01   6.5068575710e+01     0.374048    0.2218314  52.32  0.001657956    2.089    0.521
       351  -9.7391     78.0000     46.9955   1.9973225482e+01   5.8516739946e+01    0.2289335   0.08241508 -39.87 0.0007659653    2.875    0.652
       352 -10.0171      1.3831     47.2691   6.1166672546e+01   6.9864085584e+01    0.1444071   0.08188924 -32.73 0.0006991004    1.698    0.411
       353 -11.3090     92.9318     40.8742   1.2782590977e+01   5.6124958779e+01    0.2180063    0.1885122  32.11  0.000444784    1.273    0.215
       354 -13.0524     32.9636     40.2101   3.7864366387e+01   6.8276621142e+01    0.3591702    0.2843665  29.65  0.001003035    1.241    0.194
       355 -11.8197     28.5777     37.6842   3.9416518538e+01   6.9418904890e+01    0.2545479    0.1211621 -46.62 0.0009104094    2.041    0.510
       356 -11.0610     80.2788     36.7566   1.4914572266e+01   5.9698547767e+01     0.408153    0.1683568 -40.96   0.00159554    2.506    0.601
       357 -10.4645     60.7621     36.0028   2.1807680966e+01   6.4079559954e+01     0.171315    0.1174723 -38.27 0.0002833681    1.525    0.344
       358 -12.8378     19.0324     34.7314   4.4431015741e+01   7.1244545157e+01    0.6582479    0.1922366  36.99  0.002356059    3.475    0.712
       359 -10.0836    190.3871    248.8186   3.7488385211e+01   1.7367687336e-01    0.1415122   0.08098429 -23.75 0.0003292173    1.597    0.374
       360 -11.7331     89.9050     30.7499   9.4835839497e+00   5.8325984457e+01    0.3413608    0.1885404 -39.82  0.001015599    1.874    0.466
       361 -12.4356     30.5244     31.5253   3.5277303306e+01   7.0352739801e+01    0.3005478     0.239157  15.81 0.0008200453    1.234    0.189
       362 -11.8213     77.6632     30.5898   1.3049524828e+01   6.1218169110e+01    0.2734123    0.2340234  73.78 0.0004732431    1.202    0.168
       363 -10.6475     71.7780     30.9473   1.5197929492e+01   6.2501980075e+01    0.2949543    0.1493701  34.78  0.001161856    2.586    0.613
       364 -11.7449     61.0871     28.6775   1.8156866150e+01   6.5180257078e+01    0.2468998    0.1998296 -23.46 0.0007222195    1.337    0.252
       365 -12.1772      3.8226     30.6901   5.4229491338e+01   7.3544845296e+01    0.4057389    0.3337975  38.33  0.002511432    1.406    0.289
       366 -11.2162    100.5674     25.3063   4.5994304965e+00   5.6459385851e+01    0.3087675     0.157531  68.80  0.001297517    1.931    0.482
       367 -11.7231     90.3286     23.6618   6.3527452514e+00   5.9151997607e+01    0.3262578    0.2384024   2.91  0.001666437    1.847    0.458
       368 -12.1874     85.2954     23.6965   7.6909728480e+00   6.0356347439e+01    0.2898789    0.2476871 -87.77 0.0003665508    1.229    0.187
       369 -10.6599      1.4335     25.0768   5.4018932251e+01   7.4930040739e+01    0.1770144    0.1156601 -59.08 0.0003952269    1.494    0.331
       370 -11.0019     19.2843     23.8582   3.8968974556e+01   7.3384758072e+01    0.1982235    0.1682909  32.02  0.000537365    1.238    0.193
       371 -12.1374     70.2677     21.1280   1.1023976235e+01   6.4202088339e+01    0.2879428    0.2360217 -12.86 0.0007237228    1.383    0.277
       372 -10.7664     58.2407     20.3945   1.5065342407e+01   6.6977730910e+01    0.1829192    0.1235387  62.26  0.000409992    1.551    0.355
       373 -10.2048      1.8834     20.3811   5.1575521773e+01   7.5883474693e+01    0.1778315    0.1062346  -2.52 0.0009382663    1.731    0.422
       374 -10.6087     81.5206     19.5185   6.8341317976e+00   6.1768777528e+01     0.135466    0.1245813  68.82 9.884043e-05    1.025    0.024
       375 -11.0695    132.8068     16.9649   3.5591095634e+02   4.9495105515e+01    0.1891673    0.1715118  49.87 0.0005491706    1.274    0.215
       376 -12.1652    125.2612    246.3469   4.9867745695e+01   7.4018885734e+00    0.2335072    0.1929912 -37.73 0.0003919296    1.371    0.270
       377 -10.1217     65.6220     16.2839   1.0145070712e+01   6.5863337252e+01    0.1353846     0.101947 -81.64 0.0007013373    1.720    0.419
       378 -11.0351    114.4351    248.9417   5.2451321702e+01   8.1731305012e+00    0.1816539    0.1652861  60.39 0.0006765986    1.401    0.286
       379 -10.3071     54.5237    249.4615   6.5688975217e+01   1.4492585525e+01    0.1203361   0.09609073  36.55  3.92313e-05    1.003    0.003
       380 -10.7473     50.1150    249.0230   6.6644119125e+01   1.5014284142e+01    0.2081307    0.1597153 -39.61  0.001364563    1.671    0.402
       381 -12.0397     29.2423    246.7977   7.1172597927e+01   1.7429105429e+01    0.3936045    0.2142878  50.97  0.002304445    1.546    0.353
