#   1 NUMBER                 Running object number                                     
#   2 MAG_AUTO               Kron-like elliptical aperture magnitude                    [mag]
#   3 X_IMAGE                Object position along x                                    [pixel]
#   4 Y_IMAGE                Object position along y                                    [pixel]
#   5 X_WORLD                Barycenter position along world x axis                     [deg]
#   6 Y_WORLD                Barycenter position along world y axis                     [deg]
#   7 A_WORLD                Profile RMS along major axis (world units)                 [deg]
#   8 B_WORLD                Profile RMS along minor axis (world units)                 [deg]
#   9 THETA_WORLD            Position angle (CCW/world-x)                               [deg]
#  10 FWHM_WORLD             FWHM assuming a gaussian core                              [deg]
#  11 ELONGATION             A_IMAGE/B_IMAGE                                           
#  12 ELLIPTICITY            1 - B_IMAGE/A_IMAGE                                       
         1 -14.8042    164.5845     41.1041   7.8496783644e+01   3.8995913222e+01     1.493151     1.074889  -4.39  0.004112465    1.474    0.322
         2 -14.4799    178.8733      8.5752   6.4584739501e+01   3.8922693966e+01     1.084783     1.006981  21.91  0.003601858    1.038    0.037
         3 -11.4734    133.7729    247.3243   1.2736754371e+02   1.1793744642e+01    0.1307904    0.1008814  47.48 0.0003230217    1.103    0.093
         4 -19.8317     72.4513    167.4219   1.3075328549e+02   3.2200497478e+01     14.97357     6.220793 -69.69   0.07493823    2.557    0.609
         5 -12.0946    161.5619    197.7827   1.1681943092e+02   1.4102243114e+01    0.2577424    0.2080934  62.68  0.001397214    1.491    0.329
         6 -12.0928    163.8111    203.0793   1.1714724032e+02   1.3021516273e+01    0.2578099    0.2043425  58.49 0.0003918747    1.453    0.312
         7 -11.7306    157.7476    202.0586   1.1812172576e+02   1.4119064646e+01    0.4338686    0.2632963  61.91  0.002284266    2.339    0.572
         8 -11.1066    154.7007    196.2538   1.1788845656e+02   1.5416035277e+01    0.3371525    0.2260443  76.39  0.001768451    2.734    0.634
         9 -11.6791    169.0053    202.6799   1.1614168796e+02   1.2248074338e+01    0.1713993    0.1240403  37.95 0.0003718854    1.095    0.087
        10 -10.4146    139.2304    201.0109   1.2142597393e+02   1.7143178473e+01    0.1639054    0.1336114  66.56 0.0005463104    1.368    0.269
        11 -10.7598    125.1415    243.6137   1.2843087213e+02   1.3392501427e+01   0.09373222   0.09046645  38.30 0.0008455178    1.360    0.265
        12 -10.2395     21.9210    243.9209   1.4447694505e+02   2.4966504112e+01    0.1294162   0.08387118  74.63  0.001090238    1.244    0.196
        13 -11.7565    169.8323    195.1959   1.1490346829e+02   1.3116435372e+01    0.2194664    0.1478797  38.62  0.001354521    1.196    0.164
        14 -12.9898    180.3948    193.2259   1.1264605738e+02   1.1639175241e+01     0.314869    0.2897538  43.39    0.0016946    1.280    0.219
        15 -13.5703    165.6371    188.6690   1.1470915636e+02   1.4715306852e+01    0.7263117     0.347089  43.70  0.003705721    1.759    0.432
        16 -13.6674    174.7984    193.2953   1.1369333523e+02   1.2556907025e+01    0.5616472     0.327511 -49.82  0.002624118    2.371    0.578
        17 -13.5146    175.2688    185.9386   1.1245414569e+02   1.3483141457e+01    0.5363959    0.3717489 -61.60  0.002389068    2.369    0.578
        18 -13.5973    207.3403    178.3071   1.0519848383e+02   8.9664613074e+00    0.8844182    0.5438186 -39.59  0.004880768    2.046    0.511
        19 -11.6721    203.3918    171.4580   1.0467151975e+02   1.0534894777e+01    0.4117146    0.2435811  28.63  0.002089539    1.515    0.340
        20 -10.7050     11.1617    240.8191   1.4592531818e+02   2.6346928467e+01   0.08999454   0.04765835  82.87 0.0006705877    1.614    0.380
        21 -11.0781    153.8105    185.1494   1.1645215539e+02   1.7187219279e+01    0.1864794    0.1552283  52.52   0.00117812    1.217    0.178
        22 -12.1060    117.3685    180.6754   1.2305808136e+02   2.3667556644e+01    0.6802722    0.3003525  62.64  0.002309975    5.260    0.810
        23 -10.3078     23.3938    182.8811   1.4163554093e+02   3.4461519127e+01    0.1164122   0.07840467 -71.65 0.0004014332    1.529    0.346
        24 -10.7629     13.4727    233.2039   1.4535765283e+02   2.7236189185e+01    0.1041107   0.06666388  80.03 0.0004680892    1.298    0.229
        25 -11.4773      3.8793    180.3925   1.4503794857e+02   3.6489695135e+01    0.2232185      0.15996  27.15  0.001822998    1.798    0.444
        26 -11.1898    170.4127    185.2246   1.1326315310e+02   1.4404244051e+01    0.2123561    0.2016315  65.04 0.0006819239    1.323    0.244
        27 -13.2172    195.7517    170.1381   1.0585343800e+02   1.2076873727e+01    0.5279803    0.3773534 -34.14  0.001892902    1.607    0.378
        28 -11.7800    193.7496    165.0193   1.0527788326e+02   1.3142900219e+01    0.3177474    0.2446254  16.04  0.001232216    1.200    0.167
        29 -10.8464     10.8272    174.6228   1.4353104875e+02   3.6982045701e+01    0.1408071    0.1056122 -87.94 0.0003282063    1.207    0.171
        30 -12.3058    143.7892    168.3859   1.1585528874e+02   2.1511002742e+01     0.516396    0.3300451  82.09  0.002225224    3.413    0.707
        31 -12.7366    138.3242    171.0513   1.1740509243e+02   2.1981220747e+01    0.5906656     0.465788  78.47  0.003565208    1.618    0.382
        32 -11.5664    125.9350    171.8012   1.2008082521e+02   2.3859132653e+01    0.2441438    0.2017586 -66.99 0.0009899363    1.391    0.281
        33 -11.8477    177.3608    169.9468   1.0935334546e+02   1.5401035803e+01    0.2645946    0.1238741 -38.97  0.001237512    2.447    0.591
        34 -11.9436    112.6300    169.0749   1.2247611545e+02   2.6395746846e+01    0.4228905     0.226737  52.34  0.002195212    1.831    0.454
        35 -11.2860    201.3535    164.0538   1.0365384777e+02   1.1885851178e+01    0.4332987    0.2633559 -34.37  0.002307165    1.836    0.455
        36 -10.4363    150.7231    245.7005   1.2446775330e+02   9.6781182596e+00    0.1229711   0.09133855  50.16 0.0003900931    1.237    0.191
        37 -10.3291     24.7816    165.2837   1.4034627042e+02   3.7556013230e+01    0.1240364    0.1108452 -76.42  0.000550469    1.332    0.249
        38  -9.8977      3.2951    164.2240   1.4446655452e+02   3.9448204667e+01   0.07965525   0.06943969 -67.92 0.0002762168    1.454    0.312
        39 -10.4260     13.3036    163.1255   1.4248148496e+02   3.8904140300e+01    0.1397183   0.09568269  86.86 0.0003799895    1.167    0.143
        40 -10.6441    222.4587    161.7614   9.9346345219e+01   8.3444230014e+00     0.214696    0.1194842 -33.03 0.0007938967    1.973    0.493
        41 -11.2298    130.1199    161.2501   1.1758415500e+02   2.5021113793e+01     0.208331    0.1807714  80.19 0.0005439793    1.301    0.232
        42 -12.0675    121.7551    157.0913   1.1873214982e+02   2.7136427431e+01    0.3281367    0.2355933  60.82  0.001686899    1.492    0.330
        43 -12.5086    163.1366    155.3921   1.0956575795e+02   2.0232767443e+01     0.325091    0.3064443 -60.46  0.001486092    1.294    0.227
        44 -14.1785    133.8230    145.2932   1.1403073642e+02   2.7273078668e+01     1.381067    0.4057813 -55.29   0.00407046    5.520    0.819
        45 -12.1526     25.1433    225.4365   1.4331337594e+02   2.7345755953e+01    0.2398189    0.1190908 -66.88  0.001665871    2.331    0.571
        46 -13.7706    144.0672    145.4578   1.1177744344e+02   2.5417847985e+01    0.8100328    0.4219768 -61.34  0.003273608    3.100    0.677
        47 -11.0253    174.5582    149.0271   1.0596620583e+02   1.9116136510e+01    0.2529944    0.2179836  41.80 0.0008384587    1.157    0.136
        48 -10.8595    219.1546    224.1504   1.1055149825e+02   2.0157901097e+00    0.1384059     0.112371  32.43 0.0003597683    1.316    0.240
        49 -12.9774    134.6216    109.6501   1.0634241169e+02   3.3935086717e+01     1.274958    0.1873174 -45.25  0.002873077    7.046    0.858
        50 -14.0845    135.7045    127.6427   1.1012599579e+02   3.0247866851e+01     1.417644    0.3237097 -49.62    0.0039255    5.302    0.811
        51 -11.7422     22.8300    138.1891   1.3884952711e+02   4.3039330581e+01    0.2297165     0.189851   4.49  0.001024235    1.748    0.428
        52 -11.6867      5.3491    137.3056   1.4266384813e+02   4.4495783276e+01    0.2468194    0.2001445 -36.68  0.001671473    1.743    0.426
        53 -12.2590    160.6164    127.8682   1.0446668852e+02   2.5388474817e+01    0.3933734    0.3302889 -44.63  0.002171929    1.318    0.241
        54 -11.0299    110.2427    222.9460   1.2905435897e+02   1.8115295162e+01    0.1409365    0.1131376  58.84 0.0004333217    1.126    0.112
        55 -11.5968     19.6095    222.9972   1.4407633875e+02   2.8212472572e+01    0.1218884    0.1048542  71.48  0.001182176    1.343    0.256
        56 -12.3472    139.8260    120.6467   1.0762818112e+02   3.0803255812e+01    0.3036295    0.2407279  52.23  0.001031558    1.308    0.235
        57 -10.5838      7.7253    220.8716   1.4582955106e+02   2.9554227681e+01   0.06872113   0.05003186  42.18 0.0002872943    1.459    0.315
        58 -12.3583    116.1302    212.0705   1.2694677577e+02   1.8884527009e+01    0.2212611    0.1588832  75.15  0.001315425    1.618    0.382
        59 -10.7035    167.6038    112.6180   9.9324348292e+01   2.6616028787e+01     0.286615    0.2236292 -85.23  0.001330125    2.068    0.516
        60 -11.7303    110.5458    212.0441   1.2795045262e+02   1.9657855638e+01    0.3041558    0.1700677  69.22  0.001617955    2.430    0.589
        61 -11.4015    108.5047    207.5705   1.2786901723e+02   2.0611505414e+01    0.1963923     0.150903  50.96 0.0007035973    1.038    0.037
        62 -11.7381      7.3162    111.1439   1.4039791115e+02   4.9783496308e+01     0.166365    0.1466627 -51.38  0.001314153    1.370    0.270
        63 -10.8219    205.5547    110.1070   9.0886616535e+01   1.8786339828e+01    0.2819982    0.1965427  34.92 0.0006639048    1.350    0.259
        64 -11.5936      7.9248    102.0504   1.3946799054e+02   5.1699692089e+01    0.2463103     0.202092  47.95  0.001858676    1.383    0.277
        65 -13.1830     11.7919    206.1669   1.4468523231e+02   3.1517557595e+01    0.3641124    0.2105511  32.90  0.002257592    1.893    0.472
        66 -10.4776    144.5456     80.4872   9.6019733378e+01   3.7437412019e+01    0.1534246      0.14358   1.07 5.909488e-05    1.005    0.005
        67 -14.4538    153.0212     55.9578   8.6140044298e+01   3.9695480845e+01     1.292444     1.120844  22.04 0.0009806178    1.112    0.101
        68 -10.0196    159.8767    248.1466   1.2323702364e+02   8.1391855658e+00     0.129844    0.1003632  22.96  0.001041222    1.321    0.243
        69 -12.7806    168.5573     33.2313   7.4957567627e+01   3.8997152381e+01    0.4364585    0.3587824   3.93 0.0008693055    1.212    0.175
        70 -10.8626     13.6022     59.9019   1.3245849624e+02   6.0721824560e+01    0.1785321    0.1672738  67.24 0.0004047985    1.289    0.224
        71 -10.3448    142.0240     32.9999   8.0429057297e+01   4.5849838323e+01    0.2258802    0.1868932 -66.32 0.0003583073    1.581    0.367
