#   1 NUMBER                 Running object number                                     
#   2 MAG_AUTO               Kron-like elliptical aperture magnitude                    [mag]
#   3 X_IMAGE                Object position along x                                    [pixel]
#   4 Y_IMAGE                Object position along y                                    [pixel]
#   5 X_WORLD                Barycenter position along world x axis                     [deg]
#   6 Y_WORLD                Barycenter position along world y axis                     [deg]
#   7 A_WORLD                Profile RMS along major axis (world units)                 [deg]
#   8 B_WORLD                Profile RMS along minor axis (world units)                 [deg]
#   9 THETA_WORLD            Position angle (CCW/world-x)                               [deg]
#  10 FWHM_WORLD             FWHM assuming a gaussian core                              [deg]
#  11 ELONGATION             A_IMAGE/B_IMAGE                                           
#  12 ELLIPTICITY            1 - B_IMAGE/A_IMAGE                                       
         1 -14.4243    220.5736      4.7830   4.0101932379e+01   2.9141680926e+01     2.783881     1.559809  54.23  0.008505613    1.924    0.480
         2 -14.0729    179.4233     48.2955   5.7425854141e+01   3.4213328456e+01     2.172881      1.38289  36.40  0.009479661    1.882    0.469
         3 -14.0529    191.3063     38.0988   5.2497972500e+01   3.2572694630e+01     1.213551     1.018613 -54.89  0.003196064    1.181    0.154
         4 -14.2224    198.6583     29.5431   4.9030088931e+01   3.1792770672e+01     1.154729     1.058492   6.94  0.001356756    1.289    0.224
         5 -11.1521    189.6129     14.7018   4.5983564029e+01   3.5842091535e+01    0.2677554    0.2269876 -73.08 0.0007353121    1.140    0.123
         6 -10.0519     62.6629      6.3282   7.0775659229e+01   6.6170648066e+01     0.111348   0.09898158 -56.09 0.0007051873    1.728    0.421
         7 -10.4449     53.8862    231.3625   1.2289184474e+02   2.0775661301e+01    0.2004312    0.1240695  82.91 0.0009226956    1.444    0.307
         8 -19.5148     14.7662    144.9717   1.2382487427e+02   4.2961525329e+01     18.48487     5.360021 -79.57   0.07261309    3.275    0.695
         9 -10.4513     55.1257    210.7001   1.2105979676e+02   2.4541871448e+01    0.5351622    0.2876792  74.17  0.002993874    1.815    0.449
        10 -13.4466     55.9198    201.4956   1.2010478021e+02   2.6290021927e+01    0.4308918    0.3739538 -86.79  0.001502838    1.233    0.189
        11  -6.7360     43.1605    207.9702   1.2311919040e+02   2.6532678599e+01    0.4900829    0.2422355  89.54  0.002697121    1.974    0.493
        12 -11.7699     38.3938    212.0763   1.2431263068e+02   2.6272394484e+01    0.2276661    0.1207118  53.02 0.0006713988    1.544    0.352
        13  -9.8299    152.5937    211.7665   1.0175890733e+02   9.2791826095e+00    0.1583237    0.1265179 -69.81 0.0004014943    1.547    0.353
        14 -11.9434     32.8719    206.7448   1.2496403965e+02   2.7941188689e+01    0.4210814    0.1416173  57.23  0.001988968    2.692    0.629
        15 -11.8804    193.5139    195.6931   9.0950766960e+01   4.6016205962e+00     1.256511    0.6654265 -62.31  0.004221704    5.123    0.805
        16 -12.5804    202.6870    200.3305   9.0013600760e+01   2.2219367308e+00    0.7658037    0.3185352  31.82  0.003069273    2.656    0.623
        17  -9.4807     87.3392    202.7906   1.1388119960e+02   2.1713435003e+01     0.202462    0.1624991  10.51 0.0009794967    1.972    0.493
        18 -11.3332    153.1157    198.8737   9.9652305132e+01   1.1460157837e+01    0.4783399    0.2097451 -53.58  0.002011266    2.749    0.636
        19 -10.9006     97.1916    200.4710   1.1156878117e+02   2.0682937590e+01    0.3323298    0.2831645 -22.15  0.001119661    1.777    0.437
        20  -9.2353    162.3141    201.6667   9.8220170774e+01   9.2961059787e+00    0.1335043    0.1014752  71.93 0.0007045941    1.684    0.406
        21 -10.1154     44.2596    198.0572   1.2211701203e+02   2.8410582951e+01    0.1679939    0.1529017  51.39            0    1.384    0.277
        22 -12.4394     30.0921    197.3664   1.2482801686e+02   3.0132961942e+01    0.2017025    0.1542034  65.56 0.0006854734    1.128    0.113
        23 -11.3519    208.0740    194.9473   8.8007866538e+01   2.0874788145e+00    0.3904832    0.1867276 -42.72  0.001285569    2.370    0.578
        24 -10.6656     34.9057    197.2111   1.2388426407e+02   2.9644811539e+01    0.1657715    0.1188547  67.57 0.0003729299    1.121    0.108
        25  -9.8803    159.9093    196.9512   9.7934914018e+01   1.0567562139e+01    0.1998225    0.1825481  47.74 0.0004018988    1.056    0.053
        26  -9.9265     82.0230    194.9578   1.1408540726e+02   2.4095492301e+01    0.2028092    0.1665844  70.76 0.0009690416    1.021    0.020
        27 -10.8567     96.8141    191.5718   1.1051863350e+02   2.2559193545e+01    0.2778966    0.2626085  16.47 0.0008640329    1.383    0.277
        28 -13.3057     65.7198    188.2828   1.1678504590e+02   2.7779196618e+01    0.6866784     0.638975 -76.12  0.003390879    1.298    0.229
        29  -9.9868     61.6232    219.9317   1.2060297401e+02   2.1922910956e+01    0.1571434    0.1131909  89.87 0.0006534086    1.262    0.208
        30 -15.7842     69.8957    146.3680   1.1037236249e+02   3.6670065387e+01     9.142676       4.2052  81.26   0.02150673    8.548    0.883
        31  -9.9388     73.0389    218.0569   1.1828368128e+02   2.0759383034e+01    0.1768621    0.1338132  68.53  0.001182761    1.062    0.059
        32  -9.4192     72.0686    230.8358   1.1959098260e+02   1.8514011248e+01    0.1553276     0.111693  56.02 0.0004145693    1.116    0.104
        33  -9.6959     58.1428    226.6657   1.2178148540e+02   2.1103954447e+01    0.1039784   0.06305384  83.77 0.0006329276    1.530    0.346
        34 -10.5868    153.9216    185.6080   9.7255887573e+01   1.3774675942e+01    0.2604078    0.2096892 -65.35  0.001160739    1.444    0.307
        35 -11.7174    147.1472    184.0530   9.8440033828e+01   1.5345572408e+01    0.4361117    0.2857949  66.64  0.001831246    1.957    0.489
        36  -9.2488     49.9387    216.7576   1.2252191607e+02   2.4000828257e+01    0.2966863    0.2180286   2.40  0.001675956    3.094    0.677
        37 -10.8722     99.4421    180.6910   1.0845023112e+02   2.4438403760e+01    0.2595853    0.2258773  44.45 0.0006047616    1.205    0.170
        38 -10.4381    204.4364    176.3262   8.5123784681e+01   5.7412785238e+00    0.3814771     0.252051 -52.63  0.001855049    1.958    0.489
        39 -11.8152    141.7218    172.8240   9.7642818720e+01   1.8612358048e+01    0.6482553     0.562107  86.12  0.003613581    1.261    0.207
        40  -9.8710     59.1201    176.8365   1.1695797131e+02   3.1125544270e+01    0.1819779    0.1553754  83.00   0.00050655    1.062    0.059
        41 -10.4516     37.5177    176.3892   1.2161222779e+02   3.3774605074e+01    0.3333741    0.1421333  49.88  0.001682898    2.153    0.536
        42 -12.3002     77.0889    174.6051   1.1266036408e+02   2.9183607555e+01    0.3961585     0.287958 -36.15  0.001592397    2.015    0.504
        43 -12.3265     80.8737    169.6234   1.1112051962e+02   2.9744436332e+01    0.3559093    0.2934775 -60.01  0.001460198    1.290    0.225
        44  -9.4368     57.0198    192.9310   1.1908129541e+02   2.7925014318e+01    0.1527913     0.140247 -54.01 0.0002925548    1.480    0.324
        45 -11.6612     43.9806    172.5120   1.1983719610e+02   3.3909234917e+01    0.6120827    0.2325114  50.51  0.001691602    2.506    0.601
        46 -11.0124    175.8724    213.1095   9.7366939122e+01   4.9714655780e+00    0.2002307    0.1674225  53.46 0.0005872825    1.254    0.202
        47 -10.4102    230.1918    167.1535   7.8412358243e+01   2.3777848796e+00    0.3074931     0.155814 -54.84  0.001069981    4.142    0.759
        48  -9.8251    161.9964    166.9265   9.2026165558e+01   1.5829089620e+01    0.2174028    0.2034784  56.98 0.0003547899    1.076    0.071
        49 -10.1500     93.7515    249.6388   1.1733690898e+02   1.2263512880e+01    0.1833982    0.1672177  24.56 0.0006699429    1.568    0.362
        50 -12.3146     94.4656    153.6252   1.0538779070e+02   3.1284657400e+01    0.6363514    0.4678619 -26.16  0.003115718    2.027    0.507
        51 -10.5728    187.5345    154.3622   8.3937703453e+01   1.3013358520e+01    0.4220696    0.1731451  40.36  0.001536594    2.465    0.594
        52 -11.5435    133.8770    145.1525   9.4044980238e+01   2.6043071139e+01     1.223449    0.3175366 -55.12  0.002978489    5.694    0.824
        53  -9.4178    112.9747    150.6949   1.0028095080e+02   2.8777683521e+01    0.2605857    0.1523168  86.96 0.0009026087    3.358    0.702
        54 -10.6998    174.3082    148.6901   8.5501129161e+01   1.6891758209e+01    0.3521744    0.2832162 -76.85  0.001579198    1.619    0.382
        55 -10.8985    143.9885    146.4631   9.1902283497e+01   2.3713997136e+01    0.2962709    0.2158976 -68.01  0.001249957    1.630    0.386
        56 -11.3395    106.5160    139.2966   9.9682679839e+01   3.2552008328e+01    0.5739135    0.3417884 -35.50  0.002395261    2.256    0.557
        57 -12.5150     94.4938    139.1704   1.0277524205e+02   3.4645244739e+01    0.2929625     0.276419  14.28 0.0004543343    1.261    0.207
        58  -9.3823    102.5123    133.4188   9.9529833309e+01   3.4627497792e+01    0.1977295    0.1354693  55.21 0.0005144329    1.547    0.354
        59 -10.9768    105.9417    130.7996   9.8073964000e+01   3.4629720123e+01    0.3826686    0.3164323 -65.59  0.001185463    1.181    0.153
        60 -10.7868    135.7257    128.5038   8.9874052992e+01   2.9350773378e+01    0.6049232    0.2051944 -50.57  0.001898769    3.101    0.678
        61 -10.9668    114.2537    129.9164   9.5693998131e+01   3.3302705014e+01    0.3409587    0.3027439  -8.05  0.000779711    1.370    0.270
        62 -10.3538    161.0249    127.7143   8.3602639635e+01   2.4052469193e+01    0.3547215    0.2887461  79.81  0.001686596    1.502    0.334
        63 -11.1319    101.6590    125.8887   9.8162231091e+01   3.6538913691e+01    0.2871169    0.2487641 -23.67 0.0008124222    1.372    0.271
        64 -11.0812    120.0102    123.2041   9.2652846548e+01   3.3730595158e+01    0.5778196     0.340379 -20.99  0.001907799    3.606    0.723
        65  -9.9485    135.1218    119.9556   8.7963390443e+01   3.1368284673e+01    0.3671694   0.09908082 -46.53 0.0009884854    3.679    0.728
        66 -10.2391    109.6983    118.9798   9.4415343491e+01   3.6682634350e+01    0.2332055    0.2102771  49.54 0.0004037147    1.140    0.123
        67 -10.3566    167.7358    112.4582   7.8219403984e+01   2.5659640684e+01    0.4133265     0.303532 -82.34  0.001583356    1.971    0.493
        68  -9.6127    135.0000    112.4403   8.6093731411e+01   3.3045978617e+01    0.3453371   0.08773082 -45.41 0.0009292135    3.890    0.743
        69 -11.4298    118.4642    110.4474   8.9940172136e+01   3.6928631155e+01    0.6257347    0.3958889  63.26   0.00257882    2.077    0.519
        70 -10.2488    205.3858    110.1217   6.9858682389e+01   1.7320867869e+01    0.3214605    0.2264452  44.41 0.0009355024    1.469    0.319
        71  -9.7796    134.5036    105.9698   8.4517990741e+01   3.4560603436e+01     0.359828    0.1480218 -50.07  0.001206475    2.581    0.613
        72  -9.6710     62.8351    205.2623   1.1907937563e+02   2.4638525456e+01    0.2567228    0.1453446  35.35 0.0009865683    1.923    0.480
        73  -9.6001    182.4182     82.7331   6.6958588671e+01   2.7805845924e+01    0.2153926    0.1510612 -23.17 0.0008122552    1.597    0.374
        74  -8.9782    184.3827     77.2662   6.5022837544e+01   2.8280190515e+01    0.1606487    0.1175941  27.07  0.000698653    1.690    0.408
        75  -9.9231     66.9853     70.9711   9.4818607706e+01   5.4599210585e+01    0.2010869      0.18814 -40.58 0.0005615868    1.079    0.074
        76 -10.9012    248.7733    249.2318   8.9994346162e+01  -1.1135832782e+01    0.3270698    0.1512035  22.17  0.001791436    2.095    0.523
        77  -9.6111    169.1409    236.6612   1.0213664722e+02   2.5394217236e+00    0.1679527    0.1615549  74.59 0.0003263112    1.285    0.222
        78 -11.9089     61.4962    234.9237   1.2181049959e+02   1.9170617467e+01    0.1997509    0.1467065  72.94 0.0004534158    1.094    0.086
        79 -11.7925     67.1668    207.0054   1.1838735736e+02   2.3715326722e+01     0.355468      0.28872   0.63 0.0008841233    2.210    0.548
        80 -11.5398    158.8336     60.6242   6.5213947975e+01   3.7567675819e+01    0.4654292    0.3227811 -82.16 0.0007014244    2.077    0.518
        81 -10.3979     72.8874    204.9277   1.1704439356e+02   2.3353924655e+01    0.3585891    0.2516963  89.41   0.00197532    1.337    0.252
        82 -11.4774     50.0319    234.5102   1.2378609220e+02   2.0680438622e+01    0.2123754    0.1269006  64.87 0.0003778263    1.309    0.236
        83  -9.4356     76.3100     13.3023   6.9262533032e+01   6.2930534827e+01     0.134595   0.08721311  15.83 0.0003106603    1.606    0.377
