#   1 NUMBER                 Running object number                                     
#   2 MAG_AUTO               Kron-like elliptical aperture magnitude                    [mag]
#   3 X_IMAGE                Object position along x                                    [pixel]
#   4 Y_IMAGE                Object position along y                                    [pixel]
#   5 X_WORLD                Barycenter position along world x axis                     [deg]
#   6 Y_WORLD                Barycenter position along world y axis                     [deg]
#   7 A_WORLD                Profile RMS along major axis (world units)                 [deg]
#   8 B_WORLD                Profile RMS along minor axis (world units)                 [deg]
#   9 THETA_WORLD            Position angle (CCW/world-x)                               [deg]
#  10 FWHM_WORLD             FWHM assuming a gaussian core                              [deg]
#  11 ELONGATION             A_IMAGE/B_IMAGE                                           
#  12 ELLIPTICITY            1 - B_IMAGE/A_IMAGE                                       
         1 -15.4073      6.3599     69.2902   1.2087547358e+02   6.1563656092e+01     1.685954     1.065384 -89.28  0.005427044    1.425    0.298
         2 -14.2751      6.8693     47.2792   1.1701434110e+02   6.6776126517e+01     1.262704    0.9569528  65.86  0.008014977    1.485    0.326
         3 -15.1776    197.2777     70.4846   6.4120769449e+01   2.6235478488e+01     2.870751    0.9399225  43.16  0.009030513    3.806    0.737
         4 -15.2635    178.1617     57.8405   6.3522524062e+01   3.2651941057e+01     1.590364     1.282674  25.19   0.00809366    1.372    0.271
         5 -14.1669     80.8028     56.5874   8.7549267204e+01   5.5564059876e+01     1.669271     1.299822  22.75  0.008565458    1.503    0.335
         6 -14.8575    119.7334     54.7169   7.4872671905e+01   4.7609798127e+01      1.16956    0.8921403  35.14   0.00166201    1.411    0.291
         7 -13.1636    138.8993     22.1722   5.8117236945e+01   4.7629505179e+01    0.8107933    0.4075651  55.90  0.001877625    1.883    0.469
         8 -15.0988    119.7771     38.0683   6.8565382820e+01   5.0368236205e+01     1.932361     1.017619  46.59  0.007907085    1.921    0.479
         9 -13.3276    132.0091     32.7080   6.3617942722e+01   4.8066053380e+01     0.723644    0.5172854 -14.95   0.00210077    1.521    0.342
        10 -14.8922    166.6745     30.2202   5.6417367199e+01   3.9294337479e+01     1.244972     1.177344  75.50  0.004159193    1.068    0.064
        11 -15.0230    147.6409     30.4229   5.9656949293e+01   4.4292027373e+01     2.608065     1.091939  70.78  0.008970244    2.850    0.649
        12 -12.5122    232.7167      2.2172   4.1335810320e+01   2.5677353825e+01    0.7390879     0.319369  68.62  0.002931486    2.394    0.582
        13 -15.5895    212.2448     40.9559   5.3733452524e+01   2.6514665668e+01     2.709106     1.388061  67.76   0.01116351    2.121    0.529
        14 -15.2280    189.6793     20.6726   5.0260597944e+01   3.4375702909e+01     2.268551     1.474204 -47.68    0.0110162    1.510    0.338
        15 -13.7155    242.0235     34.4351   4.8995318438e+01   2.0498125293e+01    0.8125715    0.6792786  82.86  0.002955258    1.355    0.262
        16 -14.6693     42.1013      6.5780   8.0886079224e+01   7.1637568697e+01     1.704804     1.132554  -4.53  0.008924223    1.826    0.452
        17 -13.3666      2.8567     10.5338   1.0887849588e+02   7.5290074163e+01    0.6979584    0.3274269 -65.72  0.003130091    1.918    0.479
        18 -12.8922      7.8300      2.6417   1.0122413333e+02   7.6559542423e+01    0.6177115    0.4284313  35.45  0.002795278    1.789    0.441
        19 -15.1047      8.9566     29.3086   1.1145372143e+02   7.0806757936e+01     1.191393    0.7923559  20.39  0.007250898    1.774    0.436
        20 -14.6478     23.6621     13.9973   9.6112262030e+01   7.2819322298e+01    0.8294325    0.5038681  30.54  0.002832743    1.856    0.461
        21 -15.2409     13.7550     19.8678   1.0518036901e+02   7.2544877906e+01     1.094767    0.9663289 -48.54  0.007577864    1.084    0.077
        22 -12.8805     72.1675     16.1717   7.3000454084e+01   6.4606365354e+01    0.7721413    0.3864219 -26.39  0.001784018    2.057    0.514
        23 -13.5020    223.7244     21.0895   4.7045839296e+01   2.5973843938e+01    0.6198777    0.5041105  11.10  0.001191161    1.415    0.293
        24 -12.0297     46.6089     21.1377   8.6827987432e+01   6.8418659758e+01     0.398734    0.3454033 -20.46   0.00202424    1.060    0.057
        25 -15.4947     98.2443     12.6703   6.2921939023e+01   5.9183221402e+01     1.846526    0.8552886  55.10  0.003155756    2.046    0.511
        26 -11.2165     60.2965     17.3590   7.8428999528e+01   6.6748878425e+01    0.3173155    0.1803066 -31.62 0.0008180016    1.679    0.404
        27 -11.8396    203.7559     12.0174   4.6206674603e+01   3.1681993380e+01    0.4851288    0.2325847 -63.72  0.001957258    2.522    0.603
        28 -11.8832    153.0187      8.6659   5.0674118249e+01   4.5297079807e+01    0.3124596    0.2927787  17.95 0.0008197135    1.117    0.105
        29 -11.0804     59.4900      6.5320   7.2556285859e+01   6.8534279213e+01    0.3284946    0.2321005  70.23   0.00167027    2.070    0.517
        30 -10.5469    161.0339      6.0324   4.8678476768e+01   4.3383379196e+01    0.2385005    0.1579609  37.95 0.0009529706    1.658    0.397
        31 -10.6746     68.2433      4.4278   6.7827566524e+01   6.7030297991e+01    0.2416706    0.1559082 -45.24   0.00119675    1.801    0.445
        32 -11.7895    182.8961      2.5305   4.5164568213e+01   3.7881675968e+01    0.4666401    0.2815839 -70.10  0.002162494    1.803    0.445
        33 -14.8263    219.3510     14.2622   4.5527095699e+01   2.7674533916e+01     1.739246    0.9169805   7.49  0.007041554    2.961    0.662
        34 -11.2634    112.0275      1.9893   5.4580386239e+01   5.6849524233e+01    0.2582974    0.2094472  67.44   0.00138282    1.225    0.184
        35 -11.7076    119.9678      3.7694   5.3887365589e+01   5.4611079016e+01    0.4921025    0.2228436  75.46  0.001865744    2.498    0.600
        36 -11.9962    116.6120      1.5626   5.3503921402e+01   5.5694291462e+01    0.3843867    0.2064751  70.19 0.0006186123    1.866    0.464
        37 -12.0109     78.1829      2.2508   6.3168789849e+01   6.5105643758e+01    0.3522716    0.3020519  38.75  0.001351342    1.121    0.108
        38 -11.0546     83.0018      1.2299   6.1137903192e+01   6.4106021422e+01    0.3004197    0.1322023  61.19  0.001072192    2.295    0.564
        39 -13.8080    215.1407      9.9015   4.4641738807e+01   2.9093681871e+01    0.6507524    0.5692981  71.45  0.001388669    1.214    0.176
        40 -12.1017     61.9930      2.0042   6.8731570713e+01   6.8628269025e+01    0.3524513    0.2267343  53.27  0.001836897    1.641    0.391
        41 -10.7766     28.2521      1.7910   8.5900231477e+01   7.4481923393e+01     0.176671    0.1289936 -14.45  0.001056348    1.339    0.253
        42 -12.6568    206.7019    154.9948   8.2618714090e+01   1.2195226208e+01    0.3707128    0.3237414 -26.14  0.002422612    1.276    0.216
        43 -12.1863    109.3125    248.9045   1.1340989426e+02   1.4201618355e+01    0.3901661    0.1581094  46.98  0.002316606    1.910    0.477
        44 -12.7829     57.2075    246.7973   1.2225813887e+02   2.0630720142e+01    0.5901539    0.2581364  30.26  0.003543213    2.294    0.564
        45 -11.1549     41.1466    250.0937   1.2513593202e+02   2.1850030470e+01    0.1540604    0.1193788  83.20  0.001374513    1.404    0.288
        46 -11.8891     40.4742    243.7924   1.2498098855e+02   2.2837841319e+01    0.2805628    0.1818491  78.90  0.002269624    1.498    0.332
        47 -13.7002     27.6045    244.6225   1.2719662167e+02   2.3995002100e+01    0.6863747    0.3421772  80.89   0.00497037    1.979    0.495
        48 -14.0992     23.9374    224.3428   1.2708764008e+02   2.7498854291e+01    0.8518364    0.5171755  82.48  0.006480249    1.532    0.347
        49 -13.2291      9.1160    210.7466   1.2932746792e+02   3.1126274726e+01    0.6676366    0.4173673  33.46  0.004987764    1.581    0.368
        50 -13.7506     18.4085    161.4571   1.2525971511e+02   3.9619749311e+01     1.298273    0.6669959  37.13  0.007767065    1.764    0.433
        51 -12.7285     16.7300    195.8034   1.2731488663e+02   3.3091208836e+01    0.5672781    0.2559273 -68.87  0.002955994    2.369    0.578
        52 -13.4951     29.9015    169.3879   1.2309433670e+02   3.6925517341e+01    0.5854252    0.4096806 -47.33  0.001807333    1.987    0.497
        53 -15.3281      9.1799    180.2668   1.2823050331e+02   3.6663377140e+01     1.552687     1.071535  87.74   0.01142101    1.288    0.224
        54 -11.7052      2.6980    249.8430   1.3142514210e+02   2.5494824255e+01    0.2428005    0.1161306  45.19  0.001635126    1.373    0.272
        55 -13.9262      8.9645    245.7103   1.3032092162e+02   2.5557137646e+01    0.6680815    0.2908456  50.61    0.0031921    1.459    0.315
        56 -12.0008    103.3046    150.2461   1.0333742398e+02   3.1343807897e+01    0.3728943    0.2922492 -24.06  0.001858114    1.750    0.429
        57 -11.4601      6.8235    147.6209   1.2728239265e+02   4.3478947866e+01     0.341544     0.192453  71.34  0.002100395    1.475    0.322
        58 -12.4837     62.9599    146.7523   1.1293045613e+02   3.7956439231e+01    0.2556099    0.1784594 -85.25  0.001477169    1.424    0.298
        59 -12.6390    122.0922    155.9586   9.9866397487e+01   2.7116047311e+01    0.3983676    0.2813233  -6.42   0.00194045    2.350    0.574
        60 -11.0670     38.3233    145.9061   1.1919133337e+02   4.1012215642e+01    0.1694632    0.1386459 -87.87 0.0006009821    1.126    0.112
        61 -11.5045     88.4981    140.4797   1.0545846250e+02   3.5702310033e+01    0.2471384     0.195238 -54.61 0.0008667035    1.357    0.263
        62 -11.3063     63.0179    134.3121   1.1128178043e+02   4.0684192634e+01     0.307811    0.2294808 -80.55   0.00179587    1.293    0.227
        63 -12.7689     44.4583    134.5458   1.1638519870e+02   4.2872496637e+01    0.6893523    0.4186428 -73.77   0.00384125    1.534    0.348
        64 -12.8404    246.3603    133.4104   7.1936962876e+01   8.0760856445e+00    0.4351132    0.3372984 -25.39   0.00276853    1.266    0.210
        65 -14.7067    232.5107    129.6685   7.3182541361e+01   1.0916682946e+01     1.099032    0.7617222 -34.34  0.006398247    1.480    0.324
        66 -13.7408    223.4135    128.8871   7.4423495496e+01   1.2658518392e+01    0.7124139    0.5045705 -50.94  0.003861116    1.956    0.489
        67 -10.9388     81.0564    135.9448   1.0667635745e+02   3.7804117553e+01    0.1906644    0.1756693  74.70 0.0002892496    1.030    0.029
        68 -10.4616     11.2522    134.0522   1.2535446724e+02   4.6092756276e+01    0.1629741    0.1278694  84.55 0.0006120229    1.056    0.053
        69 -13.4463    137.2211     95.7590   8.3225307134e+01   3.5915251387e+01    0.4891933    0.4370762 -64.30  0.001224211    1.210    0.174
        70 -13.2270    134.3721    102.8323   8.5781939354e+01   3.5151787909e+01     1.198792    0.3736227  50.44  0.002610321    3.480    0.713
        71 -13.9015    120.6584    102.2911   8.9115477985e+01   3.8097855773e+01    0.7293019    0.5510235  37.21  0.002894941    1.365    0.267
        72 -12.9283     77.2046    117.1378   1.0451491846e+02   4.2572793285e+01    0.6891931    0.4344186 -71.46  0.003401633    1.670    0.401
        73 -14.8949    106.2144    122.3666   9.7526767671e+01   3.6631293807e+01      1.69127     1.015302  34.93   0.00788957    1.754    0.430
        74 -15.5440    106.9536    105.2691   9.3532627073e+01   4.0153006938e+01     1.733564     1.423479 -23.61  0.009071526    1.468    0.319
        75 -12.9471     28.3957    122.5407   1.1960812775e+02   4.7252360397e+01    0.4853214    0.3171808 -66.00  0.002797205    1.441    0.306
        76 -11.3069     59.7121    125.4889   1.1093611600e+02   4.3106962063e+01    0.2940188    0.2099417  -5.21   0.00118292    2.311    0.567
        77 -12.3195    182.1165    122.0608   8.0108913575e+01   2.1686096276e+01    0.5340176    0.3522948  73.77  0.002294713    2.658    0.624
        78 -11.8027      1.8362    120.1308   1.2706705753e+02   4.9881001704e+01    0.7833951    0.3476977 -27.64  0.003047122    5.416    0.815
        79 -11.3250      5.9891    120.0000   1.2587207753e+02   4.9636071774e+01    0.2826932    0.2112223 -16.70  0.001817692    1.943    0.485
        80 -11.1481     37.8065    119.3423   1.1648144166e+02   4.7071457423e+01    0.1849355    0.1447143  85.71  0.001096966    1.132    0.117
        81 -11.6533     34.4420     86.5914   1.1277787843e+02   5.5208762866e+01    0.2610562    0.2033829 -53.62 0.0007387413    1.263    0.208
        82 -14.5957     18.0091    110.9458   1.2154558150e+02   5.0845171321e+01     1.220393     0.923438   8.76  0.007093199    1.748    0.428
        83 -11.5631    209.2045    249.6052   9.6989723036e+01   1.2404059794e+00    0.1519485   0.06738406  29.83 0.0009550893    1.695    0.410
        84 -14.4302    170.1764    242.8820   1.0245282451e+02   6.9708042991e+00    0.9423477    0.5075791  33.25  0.006323767    1.372    0.271
        85 -13.6730      2.2247     97.0670   1.2532673285e+02   5.5185170289e+01     1.013343    0.3476092 -85.50   0.00376906    2.586    0.613
        86 -14.9937     25.0120     94.7513   1.1737700907e+02   5.4114488055e+01      1.92365     1.273816  -1.22   0.01046023    2.194    0.544
        87 -12.1577    199.4234    114.7250   7.5206568764e+01   1.9280195453e+01    0.2558444    0.1592303  28.29  0.001211788    1.791    0.442
        88 -12.4448    120.9264    111.6033   9.1318927619e+01   3.6130193115e+01    0.4088821    0.3293444 -87.12  0.001700681    1.519    0.342
        89 -11.8557     45.0205    110.3830   1.1306908499e+02   4.8395887642e+01    0.4643002    0.3817416 -72.80   0.00286056    1.121    0.108
        90 -12.8009     32.9564    111.1168   1.1692988904e+02   4.9487298532e+01     0.410132    0.2382637  84.41  0.002117563    1.758    0.431
        91 -11.9989    176.7478    110.7400   7.8458158275e+01   2.4641017857e+01    0.4271969    0.2945345 -11.05  0.002022977    1.762    0.433
        92 -14.2693     86.4060    113.1615   1.0108717740e+02   4.2029056731e+01     1.656918     1.010627 -30.29   0.00630884    2.595    0.615
        93 -11.9026     62.0898    109.0170   1.0754295323e+02   4.6608063004e+01    0.6136526     0.323004 -70.77  0.002804299    1.944    0.486
        94 -12.0075     43.2477     91.2759   1.1048972507e+02   5.3152030995e+01     1.164308    0.4369699 -80.82  0.003457125    5.004    0.800
        95 -12.9920     62.4367     99.4793   1.0562210565e+02   4.8800715048e+01     1.100358    0.5366052  58.90  0.004343587    2.836    0.647
        96 -11.4328     56.5048     93.0582   1.0628022860e+02   5.1116320800e+01    0.2035545    0.1240932 -63.01 0.0003316175    1.507    0.336
        97 -12.9012     52.4362     98.0469   1.0861978704e+02   5.0448645589e+01    0.7109949    0.4613773 -15.57   0.00323396    2.685    0.628
        98 -11.6053    222.8101    109.9860   7.0252658776e+01   1.5268701633e+01     0.236042    0.1939575  39.28  0.001254218    1.262    0.207
        99 -12.3782     49.2959     94.4683   1.0900235804e+02   5.1685553323e+01    0.3930335    0.3025624  84.24   0.00137021    1.319    0.242
       100 -10.5898     77.4593    103.4190   1.0170883981e+02   4.5673273189e+01     0.138979    0.1280844  85.12 4.658747e-05    1.038    0.036
       101 -13.0817    249.1487     96.2887   6.3387948060e+01   1.1976137127e+01    0.8708075    0.2556976 -29.15  0.003383137    2.825    0.646
       102 -13.9357    241.3495     82.9369   6.1213791939e+01   1.5071109357e+01     1.160747    0.8100988  86.83  0.006052222    2.237    0.553
       103 -12.1589    162.1036     98.0906   7.8216891476e+01   2.9982748252e+01    0.3989412    0.3299668 -43.21  0.001376583    1.240    0.194
       104 -12.7045    125.3607     92.6837   8.5358655901e+01   3.9073949449e+01    0.3898962    0.3178768 -82.29  0.001939112    1.506    0.336
       105 -13.5328    188.7637     84.1401   6.9304652020e+01   2.6205399364e+01    0.8821269    0.4563656  36.86  0.002668246    2.290    0.563
       106 -13.9226    214.8477     77.0565   6.3272113084e+01   2.1349173584e+01     1.052375    0.8978998  66.13  0.006038228    1.341    0.254
       107 -13.5359     91.0158    232.5627   1.1533567355e+02   1.8744382848e+01    0.4521749    0.2546346  85.98  0.002752715    2.620    0.618
       108 -14.3569    149.4247     85.1927   7.7419705982e+01   3.5147849109e+01     1.202587    0.6908191  31.38  0.004746021    2.273    0.560
       109 -14.6722    164.9306     71.2433   7.0023637797e+01   3.3857551898e+01     1.487355    0.6851578  53.00  0.005235601    2.158    0.537
       110 -13.8231    160.7973     80.3490   7.3558994366e+01   3.3339755447e+01    0.7610638    0.6444369  20.53  0.002594195    1.278    0.218
       111 -14.1790    169.4893     77.1174   7.0873285720e+01   3.1813773642e+01    0.7212974    0.6112333  36.71  0.002363737    1.207    0.171
       112 -12.9638     89.8171     88.1254   9.4232932395e+01   4.7071072462e+01    0.5397514    0.3975723  46.84  0.002735705    1.391    0.281
       113 -12.5352    147.5137    239.0693   1.0587843241e+02   1.0451998238e+01    0.2120896    0.1769956  57.95  0.001040067    1.424    0.298
       114 -12.8374    126.8985     85.8281   8.3033501126e+01   4.0104426487e+01    0.4946687    0.4608535  15.56  0.002686595    1.138    0.121
       115 -13.1033    132.1081     85.6497   8.1659909549e+01   3.8990201496e+01    0.4131144    0.3763316 -35.13  0.001383413    1.100    0.091
       116 -13.4452    135.4664     79.9382   7.9147618199e+01   3.9320024444e+01    0.8484254    0.5280723  47.33  0.002503456    1.610    0.379
       117 -11.2240     25.3513    127.1662   1.2093450491e+02   4.6468921659e+01    0.2083116    0.2041866 -56.01 0.0007680096    1.295    0.228
       118 -12.6121     38.8938     68.2197   1.0730177051e+02   5.9157138576e+01     1.755896    0.8426723  25.35  0.007980439    2.471    0.595
       119 -11.4003     56.3340    155.6656   1.1562311552e+02   3.6877649194e+01    0.2891775    0.1633289 -48.73  0.001499646    2.256    0.557
       120 -13.5871     58.4689     64.2529   9.8416364818e+01   5.7598311754e+01     1.472107    0.6006355 -40.23            0    3.034    0.670
       121 -13.6284     73.0007     74.8898   9.6145284318e+01   5.2935984455e+01     1.234334    0.7025072  18.91  0.004849576    2.928    0.658
       122 -13.6908     87.4955     65.2910   8.8229499483e+01   5.2476561526e+01    0.9003597    0.6348103 -13.53  0.002846316    2.072    0.517
       123 -13.0779     55.0521     81.5731   1.0427407127e+02   5.4032486845e+01    0.6375705    0.4018645 -49.90  0.002541746    1.521    0.342
       124 -13.8153     61.0790     75.4618   1.0056780237e+02   5.4636335526e+01    0.7465114     0.449189 -45.58  0.001004159    1.648    0.393
       125 -11.2502     90.4131     81.2410   9.2160022687e+01   4.8485210196e+01    0.2936033    0.2574991 -79.63  0.001592496    1.212    0.175
       126 -12.1330     94.3288     79.3556   9.0389458761e+01   4.8161712960e+01     0.548101    0.2355123  49.83  0.002023812    2.587    0.613
       127 -10.6041     32.8382     81.0793   1.1237797394e+02   5.6695426200e+01    0.1996935    0.1577753  84.03 0.0007321167    1.249    0.199
       128 -11.5181    100.0000     75.9806   8.7637814334e+01   4.7774465462e+01    0.2485977   0.08248476 -46.05 0.0008015481    2.936    0.659
       129 -11.6624     42.3519     77.0996   1.0797140582e+02   5.6654275450e+01    0.3086641    0.2789543  89.53  0.001468184    1.090    0.082
       130 -12.7456    241.7664     71.5560   5.8382446341e+01   1.6358001293e+01    0.4958491    0.3231269 -59.85  0.002527448    2.031    0.508
       131 -12.0392    100.1963     64.8677   8.4019094400e+01   5.0029513273e+01    0.6133037    0.4448593  68.83  0.002272174    1.744    0.427
       132 -14.0176    133.6349     66.6385   7.5430292081e+01   4.2190875034e+01      1.13846    0.9272223  22.45  0.003576988    1.398    0.285
       133 -14.0516    101.3639     49.6028   7.8183067386e+01   5.2732755327e+01    0.9479828    0.7840665  74.27   0.00292876    1.433    0.302
       134 -13.3453    157.6628     43.7940   6.2578359439e+01   3.9864965206e+01     1.088271    0.6919342  23.61  0.004085878    2.114    0.527
       135 -12.4601    143.0878    235.4707   1.0626577721e+02   1.1493601245e+01    0.2254969     0.178817  74.38  0.001689136    1.769    0.435
       136 -13.4632    135.5456     50.6354   6.9515026861e+01   4.4462303387e+01    0.9445587    0.5119629  32.86  0.002765011    2.519    0.603
       137 -12.0686     85.8200    152.7077   1.0797165652e+02   3.3540672425e+01    0.4187943     0.285017 -45.95  0.002299234    1.768    0.434
       138 -13.1983    236.9977    231.1069   9.0339263646e+01  -6.1825380107e-01    0.3613776    0.2621733  23.51   0.00292661    1.178    0.151
       139 -11.7452    109.2289    243.1172   1.1294543472e+02   1.4971200239e+01    0.1848025    0.1270344  66.50  0.001359531    1.644    0.392
       140 -12.9676     57.2804    203.5818   1.1959570978e+02   2.7499491939e+01    0.7086398    0.2776398 -75.42  0.003696525    2.909    0.656
       141 -13.2315     66.6478    223.0274   1.1913681936e+02   2.3159303048e+01    0.6760638    0.4418408  33.71  0.004760847    1.447    0.309
       142 -11.0664    100.9778     70.1612   8.5519555152e+01   4.8788534997e+01    0.2680418    0.2156037 -48.23  0.001363871    1.215    0.177
       143 -12.2352    114.0064     80.0962   8.4804412487e+01   4.4032502586e+01    0.4596198    0.3678281 -56.02  0.001273086    1.295    0.228
       144 -12.0409     24.2903     59.9591   1.1156952138e+02   6.2545101908e+01    0.3490119    0.2179917 -58.46  0.001925377    1.350    0.259
       145 -13.2943    248.1756     51.5639   5.2741878699e+01   1.7354461790e+01    0.7002149    0.4215553 -22.43  0.003716245    1.466    0.318
       146 -12.0955    229.9947     55.3949   5.5631912158e+01   2.0760480957e+01     0.467632    0.2654299  62.75  0.002286529    1.956    0.489
       147 -11.9214    193.5998     54.3256   6.0036290302e+01   2.9336488917e+01    0.3519878    0.2138813  -9.20  0.001509967    1.998    0.500
       148 -13.2365     66.0413     48.8717   9.0268422067e+01   5.9795492638e+01    0.5686709    0.5073279  81.70  0.003254691    1.328    0.247
       149  -9.9266     36.6890     53.6948   1.0442877408e+02   6.2810790171e+01    0.1357627   0.09144828 -34.45 0.0004507157    1.614    0.380
       150 -10.9722     23.5398     49.8298   1.0946581894e+02   6.5000452930e+01    0.3096172    0.1957044 -14.78   0.00122187    2.129    0.530
       151 -11.1536     26.9296     46.2931   1.0685061810e+02   6.5516501651e+01    0.2702504      0.20543  26.13  0.001349086    1.516    0.341
       152 -14.0106     62.8201    214.5842   1.1928181977e+02   2.4978856323e+01    0.8973002    0.3660177  42.54  0.005131979    1.802    0.445
       153 -13.9055     96.5071    238.6779   1.1483168103e+02   1.7182713596e+01    0.5885643    0.3775954  42.02  0.002345337    1.144    0.126
       154 -13.2178     22.3439    181.2643   1.2547031399e+02   3.5303179483e+01    0.4514883     0.361058  80.49  0.002041711    1.153    0.133
       155 -10.9172     81.8202     45.4598   8.2995435414e+01   5.7602403998e+01    0.4137059    0.2117072  59.85  0.001495352    2.919    0.657
       156 -12.6207    169.7626     43.2594   6.0298413341e+01   3.6814981640e+01    0.5038899    0.3418859  60.67   0.00200552    1.490    0.329
       157 -10.3782     51.7427     40.3956   9.3054706093e+01   6.3830357823e+01     0.197148    0.1709941  65.60  0.001144038    1.411    0.291
       158 -13.4224     95.7771    218.8741   1.1328794322e+02   2.0191738975e+01    0.5234224    0.2136641  37.83  0.002831089    1.915    0.478
       159 -11.6081     55.6565     41.1032   9.1599123633e+01   6.3091823778e+01    0.2186489      0.19964  28.36 0.0003176819    1.190    0.159
       160 -11.4307    104.5233     37.2268   7.2307262446e+01   5.4168993090e+01     0.353615    0.1470004 -31.37  0.001150745    2.465    0.594
       161 -11.6647    105.4129     31.0997   6.9460299354e+01   5.4926953512e+01    0.4338514    0.2321091 -41.99  0.001810503    1.910    0.476
       162 -12.6621     75.9860     37.4640   8.1809497382e+01   6.0258733522e+01    0.3560828     0.287574  44.77 0.0008690067    1.311    0.237
       163 -11.7871     70.1964     36.3197   8.3537561911e+01   6.1570528595e+01    0.4318419    0.2707184  33.04  0.001622303    1.796    0.443
       164 -11.5766     58.4346     35.5058   8.8061941890e+01   6.3784917312e+01    0.5625929    0.2994192  31.61  0.002508731    2.217    0.549
       165 -11.4759    180.8779    216.4128   9.7334485546e+01   8.4968183201e+00    0.2084849    0.1368322  -9.45  0.001325071    1.923    0.480
       166 -11.1924     85.4878    215.9855   1.1500800007e+02   2.1976032285e+01    0.2321925    0.1150861  48.39   0.00138052    1.593    0.372
       167 -12.7458    185.4593    213.0238   9.6073241299e+01   8.2318604401e+00    0.2695963    0.2083822 -38.30  0.001942105    1.666    0.400
       168 -12.3288     29.5672     32.1531   1.0074839091e+02   6.8420460283e+01    0.6655567    0.3910586   2.50  0.001871901    2.512    0.602
       169 -10.3536    154.3027    214.6511   1.0183327748e+02   1.2596098315e+01    0.1092155   0.08034535  59.97 0.0007039803    1.694    0.410
       170 -11.3914    157.4194    213.2447   1.0108465462e+02   1.2324913058e+01    0.1331767    0.1125243 -65.49  0.000953793    1.692    0.409
       171 -12.2458     46.0086     34.0251   9.3122742118e+01   6.5982275405e+01    0.4915741    0.3298193 -35.37  0.002608147    1.437    0.304
       172 -11.3045     91.3438     33.4913   7.4719184871e+01   5.7775115502e+01    0.3641685    0.2773048  19.68  0.001741904    1.519    0.342
       173 -10.3884     89.4279     30.4149   7.3966788704e+01   5.8703534042e+01    0.2240388    0.1379916 -32.19 2.030897e-05    1.582    0.368
       174 -11.4411    136.7674    211.4366   1.0469284180e+02   1.5604963155e+01    0.1775444    0.1657387 -58.00 0.0009749719    1.364    0.267
       175 -12.3922     45.4944    209.0224   1.2229145554e+02   2.7872147668e+01    0.3097946    0.1548367  87.82  0.001869829    2.169    0.539
       176 -12.7418     56.6106     27.4674   8.5214358300e+01   6.5632551147e+01    0.6421668    0.3280905  48.48  0.001926667    2.314    0.568
       177 -12.8515     67.8500     24.5412   7.8993794670e+01   6.4130923751e+01    0.7285676     0.387029  42.89  0.003310592    1.968    0.492
       178 -11.0932     80.3585    208.3463   1.1535589341e+02   2.3876735836e+01    0.2373196    0.1184252  59.16  0.001206296    2.005    0.501
       179 -10.7652     97.9052     27.1583   6.9863347087e+01   5.7293324074e+01    0.2221947    0.2032072 -76.24  0.001219405    1.259    0.206
       180 -11.3433    150.7241    206.8379   1.0148665651e+02   1.4190003563e+01    0.3073391    0.1399135  34.58  0.001598462    1.873    0.466
       181 -12.9965     40.3871    195.2881   1.2248080857e+02   3.0860004306e+01    0.4609366    0.2367685  71.71  0.002748165    1.869    0.465
       182 -10.8515    212.5641    200.2242   8.9582757750e+01   5.7227320783e+00    0.1517114   0.09593924 -11.00  0.000949957    1.689    0.408
       183 -12.9683    164.1622    194.7858   9.7280802368e+01   1.3810195207e+01    0.4691342    0.2988063 -60.55  0.002595304    2.555    0.609
       184 -12.6355    201.1124    192.2289   9.0231968621e+01   8.3670942172e+00    0.3816582    0.2725739 -18.03  0.001890382    1.472    0.321
       185 -10.3874     54.2422     19.8154   8.2457486344e+01   6.7413773839e+01    0.1811231    0.1466182  -0.36  0.000633063    1.303    0.232
       186 -10.8668    107.3355    192.5820   1.0826341828e+02   2.2862152728e+01    0.1861117    0.1469125 -29.58 0.0007864544    1.759    0.431
       187 -10.7285     80.4352    193.2673   1.1395919256e+02   2.6469027259e+01    0.3282802   0.06164452  39.76  0.001216307    3.628    0.724
       188 -13.0172    198.4704    181.6311   8.8932132697e+01   1.0094432913e+01    0.3085822    0.2641434 -42.97  0.001868308    1.562    0.360
       189 -11.9965     48.9736    181.1830   1.1966944405e+02   3.2575132116e+01    0.4013984    0.2505335 -64.27  0.002524619    1.769    0.435
       190 -12.4014     85.0723    180.3156   1.1161299663e+02   2.8211479041e+01    0.2852287    0.1826556  75.59  0.001619612    1.798    0.444
       191 -12.3585    130.7893    173.6351   1.0077155460e+02   2.2486051995e+01    0.2885881    0.2065266  48.67  0.001694431    1.274    0.215
       192 -12.2681     92.1731    168.7865   1.0863300560e+02   2.9395688506e+01     0.556664    0.3064034  59.60  0.002517013    1.990    0.498
       193 -12.7388    124.6003    167.8109   1.0121277265e+02   2.4522821936e+01    0.4035751    0.2563519 -52.54  0.002207389    1.786    0.440
       194 -11.1358    155.3585    157.8237   9.2945081172e+01   2.0950583125e+01    0.3036877    0.1376467  53.36  0.001215951    2.740    0.635
       195 -12.3396     77.3550    156.9489   1.1061279248e+02   3.3875639441e+01    0.4857695    0.2662029  35.84  0.001807924    1.746    0.427
       196 -13.5053     74.3297    153.1911   1.1087390631e+02   3.5074285999e+01    0.7526852    0.4344022  35.34  0.003118394    1.690    0.408
       197 -11.6586    112.8635    157.3170   1.0220783714e+02   2.8398645560e+01    0.2208325    0.1499691  52.98  0.001194372    1.411    0.291
