#   1 NUMBER                 Running object number                                     
#   2 MAG_AUTO               Kron-like elliptical aperture magnitude                    [mag]
#   3 X_IMAGE                Object position along x                                    [pixel]
#   4 Y_IMAGE                Object position along y                                    [pixel]
#   5 X_WORLD                Barycenter position along world x axis                     [deg]
#   6 Y_WORLD                Barycenter position along world y axis                     [deg]
#   7 A_WORLD                Profile RMS along major axis (world units)                 [deg]
#   8 B_WORLD                Profile RMS along minor axis (world units)                 [deg]
#   9 THETA_WORLD            Position angle (CCW/world-x)                               [deg]
#  10 FWHM_WORLD             FWHM assuming a gaussian core                              [deg]
#  11 ELONGATION             A_IMAGE/B_IMAGE                                           
#  12 ELLIPTICITY            1 - B_IMAGE/A_IMAGE                                       
         1 -15.8810     16.7852    156.3964   1.2119222198e+02   3.9851550497e+01     4.881834     1.686073 -88.97   0.01792356    3.724    0.731
         2 -15.8236     12.2621    177.3789   1.2393096556e+02   3.5442496133e+01     4.020294     1.125639 -80.37  0.005639818    3.319    0.699
         3 -15.0623    215.7089    123.5052   6.5701991603e+01   1.3125695124e+01     2.665156     2.411781  83.61   0.01367489    1.362    0.266
         4 -17.3237    166.1193    132.0841   7.8092617760e+01   2.2185709348e+01     4.633152     4.129918 -72.69   0.01180066    1.308    0.235
         5 -13.3903    153.8253     40.8967   5.4363803177e+01   4.1824151597e+01     1.114028    0.8002437 -76.48  0.004109175    1.816    0.449
         6 -14.1455    217.3579     25.5928   4.0761438572e+01   2.8031198963e+01     1.620219    0.8555934  34.44  0.005129105    3.385    0.705
         7 -13.3800    241.8980      3.6175   3.3571781097e+01   2.4947100399e+01     1.203168    0.6456339  87.34  0.006584491    1.800    0.445
         8 -13.7813    227.2858     23.3885   3.9232613079e+01   2.5997556900e+01    0.8703991    0.4900703 -53.81  0.004167734    1.664    0.399
         9 -14.9392    227.1096      9.7019   3.6051121420e+01   2.7569703583e+01     2.139501     0.799912 -47.44  0.007976593    2.387    0.581
        10 -10.7583    194.2127      1.7615   3.7066928510e+01   3.6083278480e+01    0.3885491    0.1054266  75.67  0.001309273    3.745    0.733
        11 -10.9369    116.2777      1.5749   4.7951377543e+01   5.5188290165e+01    0.2572854    0.1216089  68.27  0.001141371    2.124    0.529
        12 -16.1254     35.3553    206.3448   1.2133775782e+02   2.6929409137e+01      1.56402    0.9363454 -53.06  0.006614604    2.088    0.521
        13 -11.9077    249.5231    248.1498   8.4617598835e+01  -1.1374194291e+01     0.439374    0.2399764 -19.51  0.002714419    1.761    0.432
        14 -14.7823    223.5522    217.7715   8.4082960903e+01  -3.9409634253e+00     1.214282    0.9027315 -16.83  0.004856173    1.272    0.214
        15 -14.2394    237.2432    214.1989   8.0942517859e+01  -5.5091086780e+00     1.060593    0.5308651 -28.26  0.004309766    1.945    0.486
        16 -14.9979    232.3411    236.4473   8.5694837312e+01  -7.6978627245e+00     1.561923    0.8196422   7.98  0.007655866    2.385    0.581
        17 -14.4542    243.7041    229.1718   8.2449758605e+01  -8.3777629543e+00    0.7948032    0.5802987  17.33  0.003121466    1.131    0.116
        18 -10.8807    195.1693    250.4513   9.4691273865e+01  -4.0997863061e+00    0.2891202    0.1141908  37.52  0.001090154    2.061    0.515
        19 -14.9189     56.3917    176.3256   1.1390415531e+02   3.1140213400e+01     1.372828     1.002412  84.68  0.006591957    1.285    0.222
        20 -14.2311     62.4476    161.3113   1.1050465468e+02   3.3921370619e+01     1.035825    0.6445882 -83.73  0.001486278    1.679    0.404
        21 -15.0800     75.5514    157.2223   1.0654352058e+02   3.3145816549e+01     2.068702     1.445866 -86.83   0.01019984    1.547    0.354
        22 -14.2010     98.2477    238.0510   1.1179053638e+02   1.2592649618e+01    0.9610837    0.4755339  49.71  0.003818444    1.726    0.421
        23 -15.1648    106.9794    186.2302   1.0335246415e+02   2.1611029164e+01     1.751813     1.134716 -61.10  0.008828153    1.603    0.376
        24 -14.6967    114.3078    234.6649   1.0825934795e+02   1.0818861117e+01     1.198757    0.4739087  42.52  0.004683358    2.076    0.518
        25 -16.7603    112.8116    214.7853   1.0610936438e+02   1.4754269141e+01     2.150948     1.880555 -67.75   0.01291142    1.255    0.203
        26 -15.4664    171.1303    238.1411   9.7465735937e+01   1.3220650517e+00     1.187669     1.007645 -77.86  0.004337916    1.750    0.429
        27 -15.8630    159.5802    245.6671   1.0076027658e+02   1.9949095748e+00     1.544101     0.770072  47.74  0.006544647    1.942    0.485
        28 -15.9009    149.4655    229.7497   1.0056004244e+02   6.1340186299e+00     1.942691     1.148219  30.26  0.008592897    1.611    0.379
        29 -15.0010     83.5455    183.7544   1.0847513555e+02   2.5789323720e+01     1.101054    0.7032232  63.17  0.002938862    1.664    0.399
        30 -15.5031     72.5027    205.9044   1.1362948442e+02   2.2501664617e+01     1.370919    0.6694727  51.89  0.006780023    1.899    0.473
        31 -15.9965     87.6155    197.8384   1.0939733296e+02   2.2088352809e+01     1.558947     1.176896  50.35  0.006790908    1.210    0.173
        32 -14.2140     38.5475    246.7938   1.2348539163e+02   1.8711156784e+01     1.679802    0.6150593  83.37  0.007320929    3.924    0.745
        33 -15.5213     25.8123    244.1841   1.2550679803e+02   2.0572640845e+01     0.997152    0.4583441  82.85  0.004649638    2.067    0.516
        34 -14.6481      4.4701    247.5968   1.2915336444e+02   2.2098781942e+01     1.151208    0.4314006  85.02  0.006558142    2.445    0.591
        35 -14.2941     15.1661    245.9129   1.2736073558e+02   2.1357109142e+01    0.5811169    0.2673441  69.40  0.002839311    1.785    0.440
        36 -15.6741     58.9640    245.1354   1.1978347688e+02   1.6593023728e+01     1.092995    0.5282545  71.03  0.005030971    2.242    0.554
        37 -15.4954     46.4078    232.6109   1.2116032048e+02   2.0426901045e+01    0.9585874    0.5132774 -73.90  0.003707508    1.832    0.454
        38 -14.7499     37.5823    224.0933   1.2219819177e+02   2.3083267507e+01    0.6623081     0.383285  72.58   0.00327222    1.517    0.341
        39 -14.7841     24.3985    200.2520   1.2307220224e+02   2.9349765118e+01    0.5950319    0.4643198  18.20  0.002540516    1.843    0.457
        40 -14.8344     22.6675    193.8669   1.2296236950e+02   3.0883635844e+01    0.5329484    0.4990448  -7.03  0.002596056    1.589    0.371
        41 -14.7356     25.5432    185.0419   1.2168615289e+02   3.2533717424e+01    0.6257828    0.4552462 -70.96  0.002462881    1.299    0.230
        42 -10.3944    207.8049    223.0585   8.7966889091e+01  -2.2504929745e+00    0.1854599    0.1646899  24.33  0.001047512    1.233    0.189
        43 -13.1328    194.3407    215.3350   8.9255283545e+01   1.0812899801e+00    0.8468537    0.5976837 -13.27  0.003243475    1.554    0.357
        44 -10.8037     21.2859    222.2087   1.2507587769e+02   2.5182592570e+01     0.233543    0.1732718 -55.28  0.001466685    1.821    0.451
        45 -12.0263    181.7521    219.6883   9.2498381915e+01   2.4763835096e+00    0.4471408    0.3443329 -24.18  0.002094535    1.406    0.289
        46 -12.3854    176.7497    219.3602   9.3450920736e+01   3.3607804942e+00    0.4166966    0.3895841  22.10  0.001923608    1.140    0.123
        47 -11.5296    193.8184    245.7938   9.4254643372e+01  -3.2783985083e+00    0.3078535    0.1672892  31.33  0.001475141    1.518    0.341
        48 -13.7408    108.2618    147.3399   9.6147744393e+01   3.0330220888e+01     1.033378    0.9872785 -79.49  0.003742296    1.024    0.024
        49 -14.5490     65.3645    225.3028   1.1698014209e+02   1.9505092377e+01    0.7755122    0.4838103 -79.22  0.002951326    1.611    0.379
        50 -15.4806    125.3926    139.3676   8.9923187614e+01   2.9031166878e+01      3.26543     1.378306 -56.97   0.01093006    2.824    0.646
        51 -14.8549    143.1537    139.4163   8.5392799912e+01   2.5466527130e+01     1.333581     1.229436  51.04  0.004140332    1.118    0.106
        52 -15.8963    149.4196    195.1774   9.5160014196e+01   1.2428056253e+01     1.838766     1.286037  77.30  0.006898384    2.281    0.562
        53 -16.9006    150.3436    171.3454   9.0538019637e+01   1.7091727850e+01     2.901569     2.125381  88.68  0.008442188    2.126    0.530
        54 -12.6312    244.7110    200.9539   7.7149405559e+01  -4.7927896626e+00    0.4767727    0.3637067  20.28  0.001982763    1.205    0.170
        55 -12.4607    132.3640    193.9225   9.8752932749e+01   1.5687652921e+01    0.7702239     0.496431 -84.84  0.002661236    2.589    0.614
        56 -11.2875    238.6152    191.8210   7.6467546107e+01  -2.5377867648e+00    0.2938142    0.1509248 -31.02  0.001450575    1.820    0.450
        57 -10.6728    217.5080    191.0433   8.0227604718e+01   1.0445617200e+00    0.2500219    0.1905452  48.96  0.001337592    1.630    0.386
        58 -11.4974    202.5754    184.4637   8.1851114336e+01   4.7471087588e+00    0.4548368    0.3233978  38.34  0.001934776    1.382    0.277
        59 -11.2974    114.7324    173.0095   9.9337814852e+01   2.3248058404e+01    0.4820146    0.2749036  52.92  0.001418659    1.891    0.471
        60 -11.5701    118.3528    163.5335   9.6726954925e+01   2.4761660546e+01     0.859911    0.5626337  63.51  0.003751816    1.915    0.478
        61 -10.9658    108.7738    158.3492   9.8165179511e+01   2.7645167973e+01    0.3950116    0.3225321  10.72  0.001586311    1.519    0.342
        62 -12.6311    105.5050    164.9417   1.0019573492e+02   2.6665831632e+01    0.6302422    0.4967408  41.38  0.002190864    1.264    0.209
        63 -12.4154    100.4067    164.6203   1.0141984618e+02   2.7587019222e+01    0.6311257    0.4331871 -56.88  0.002222385    1.437    0.304
        64 -11.5914     34.6102    143.3640   1.1530120336e+02   4.1373322334e+01    0.2982778    0.2325422 -66.93  0.001232894    1.128    0.114
        65 -11.6011     85.3166    142.5247   1.0138972586e+02   3.5277662690e+01     0.262954    0.2316494 -48.53 0.0003640933    1.147    0.128
        66 -11.7901    106.9197    131.6335   9.3153025079e+01   3.4312800748e+01    0.8026056    0.3692229  48.97  0.002938441    2.498    0.600
        67  -9.7326     95.7785    128.4460   9.5573990314e+01   3.7020221468e+01    0.1929127    0.1480876  19.26 0.0005504033    1.551    0.355
        68 -13.5712     38.3385    122.1370   1.1123436749e+02   4.6194812615e+01      0.77631    0.5861132 -57.12  0.002874867    1.165    0.142
        69 -11.8680    233.5830    120.4032   6.1858754241e+01   1.0008330020e+01    0.5847357    0.3126861 -50.26  0.002471816    2.150    0.535
        70 -14.2727    200.7230     94.3507   6.1081756931e+01   2.1695456637e+01     1.402588     1.097975   9.15   0.00489221    1.602    0.376
        71 -12.3344    146.5142     93.9961   7.2599772557e+01   3.4537036989e+01     1.102582    0.5444198  56.31  0.003949925    2.407    0.585
        72 -11.2320    234.8638     91.8187   5.4843607997e+01   1.4529543227e+01    0.3969244    0.2640743 -57.94   0.00183825    1.693    0.409
        73 -12.5136    156.6811     87.5313   6.8261170093e+01   3.3424748933e+01    0.5265748    0.3866192   2.00  0.002270818    1.837    0.456
        74  -9.4632     71.3143     82.6748   9.1691998510e+01   5.1661091793e+01    0.1378782    0.1141703  87.25 0.0004392428    1.665    0.400
        75  -9.6350     24.6931     82.7080   1.0845751194e+02   5.6804584999e+01     0.132975   0.07851405 -38.94 0.0002217915    1.579    0.367
        76 -13.0195    169.6536     70.3524   6.0345095502e+01   3.3371000117e+01     1.637714    0.7013487  42.33  0.005660033    2.705    0.630
        77 -10.7327    197.0840     79.7035   5.7820358201e+01   2.5097115888e+01    0.3563783    0.2765512  75.02  0.001576907    1.461    0.316
        78 -10.9184     13.3387     60.0335   1.0768575956e+02   6.2644706452e+01    0.1785863    0.1262961 -53.67 0.0004251525    1.122    0.109
        79 -11.7210    124.6831     56.1267   6.6174939720e+01   4.6604166026e+01    0.6277281    0.3510045 -43.19   0.00258197    1.911    0.477
        80 -11.8197    146.3333     44.6632   5.7124927180e+01   4.3167822939e+01    0.4797983    0.3966373 -62.67  0.001581866    1.397    0.284
        81 -12.8224    164.7633     43.9144   5.3253447672e+01   3.8664887621e+01    0.8583399    0.5697222 -53.15   0.00300064    1.692    0.409
        82 -13.0817     55.9410    210.5180   1.1753559594e+02   2.3675596942e+01    0.8194737    0.4311065  87.72  0.002801462    2.092    0.522
        83 -12.2407    202.0055     38.0902   4.5784524792e+01   3.0152789392e+01    0.3242812    0.2975313  69.96  0.001044318    1.105    0.095
        84 -10.9390    173.1359     39.0814   5.0324153883e+01   3.7204877700e+01    0.3235183    0.2035077  69.08  0.001413719    1.598    0.374
        85 -12.2967    203.5849    243.2792   9.2047525228e+01  -4.4039044163e+00    0.4133345    0.3327791   4.84  0.001547129    1.134    0.118
        86 -13.6204      6.8169    196.6216   1.2629171075e+02   3.1744734789e+01    0.7850452    0.5978723  57.41  0.004226159    1.248    0.199
        87 -13.0555     11.5739    227.3747   1.2707651742e+02   2.5136321104e+01    0.5743424    0.2523836  80.63  0.002210428    2.041    0.510
        88 -14.7027      6.5044    216.1421   1.2740633352e+02   2.7791996578e+01     1.128615    0.5154346 -60.87  0.006521787    2.459    0.593
        89 -12.2653    169.6230     30.7538   4.8382928031e+01   3.9140933521e+01    0.6770093    0.4039958  56.22  0.003212017    1.559    0.358
        90 -10.9512    201.5197    235.9959   9.1293175214e+01  -3.1065337349e+00    0.3040149    0.2369618 -17.02   0.00132214    1.329    0.248
