#   1 NUMBER                 Running object number                                     
#   2 MAG_AUTO               Kron-like elliptical aperture magnitude                    [mag]
#   3 X_IMAGE                Object position along x                                    [pixel]
#   4 Y_IMAGE                Object position along y                                    [pixel]
#   5 X_WORLD                Barycenter position along world x axis                     [deg]
#   6 Y_WORLD                Barycenter position along world y axis                     [deg]
#   7 A_WORLD                Profile RMS along major axis (world units)                 [deg]
#   8 B_WORLD                Profile RMS along minor axis (world units)                 [deg]
#   9 THETA_WORLD            Position angle (CCW/world-x)                               [deg]
#  10 FWHM_WORLD             FWHM assuming a gaussian core                              [deg]
#  11 ELONGATION             A_IMAGE/B_IMAGE                                           
#  12 ELLIPTICITY            1 - B_IMAGE/A_IMAGE                                       
         1 -13.2180    230.0760      6.4338   3.2276343882e+01   2.7576919388e+01     1.293213    0.8602518  55.22  0.007192387    1.861    0.463
         2 -13.2618    196.7327     41.7871   4.4415750130e+01   3.1021268523e+01     1.215253    0.9978282 -33.05  0.003172081    1.152    0.132
         3 -11.4072    222.2308     30.5149   3.8834580815e+01   2.6671395867e+01    0.3547075    0.3119595  14.87  0.002241756    1.442    0.306
         4 -13.7261    205.6067     32.8782   4.0983083955e+01   3.0086379507e+01     1.364251    0.9315166 -13.26  0.001324866    1.711    0.415
         5  -9.8748     63.1914      8.7968   5.9027645989e+01   6.8075117070e+01    0.1924833    0.1466735  23.30 0.0005919333    1.322    0.244
         6 -11.1957     43.2056      6.4479   6.6728358867e+01   7.2334460785e+01    0.2322493    0.1857335  22.12  0.001397594    1.192    0.161
         7 -10.4009     49.7128      2.4233   6.0704891400e+01   7.1622373193e+01    0.2444601    0.1263334  56.39  0.001143706    2.124    0.529
         8 -10.7749     55.1747      4.0906   5.9370768917e+01   7.0322033610e+01    0.3420554    0.2002697   4.48  0.001553593    2.308    0.567
         9 -11.4475     62.2461    199.8274   1.0913862198e+02   2.5532967575e+01    0.4310937    0.2386095 -55.99  0.001118512    2.104    0.525
        10 -11.3935    139.8232    247.8170   9.7779465705e+01   7.4425462031e+00    0.4544529     0.268613 -48.65  0.002971047    2.161    0.537
        11 -15.3390     58.3234    185.5123   1.0878142288e+02   2.9001637878e+01     19.23438     8.424516 -86.13   0.08114928    2.994    0.666
        12 -16.5056     50.6538    201.2803   1.1190259809e+02   2.6586010925e+01     19.18517     6.989851  83.83   0.06427603    5.402    0.815
        13  -8.9385     91.0951    182.6557   1.0049933549e+02   2.5302050116e+01    0.2083929    0.1706468  85.30 0.0006026819    1.307    0.235
        14 -10.3427     99.2767    180.9063   9.8298150169e+01   2.4481329417e+01    0.2863628    0.2030379  27.53 0.0009123838    1.426    0.299
        15  -8.4950     94.2681    180.3200   9.9428951262e+01   2.5335501792e+01    0.1238627    0.1021927 -20.74 0.0002228234    1.561    0.359
        16  -9.9345    187.8820    176.1573   7.8215731049e+01   1.1285293550e+01    0.2978237    0.2800685 -39.33  0.001793675    1.328    0.247
        17  -8.5409    148.5224    175.4869   8.6108393841e+01   1.7780108915e+01    0.2307146    0.1706774 -86.31 0.0007945218    2.266    0.559
        18  -9.6120    146.5019    171.9585   8.5937533650e+01   1.8765479085e+01     0.242088    0.2034099  65.63 0.0006284357    1.460    0.315
        19  -8.6176     77.6378    174.8374   1.0284496503e+02   2.8858129834e+01    0.1802346    0.1203819 -85.17 0.0004439976    1.675    0.403
        20 -10.1278     66.2896    194.6521   1.0773548372e+02   2.6099989905e+01    0.2756218    0.1887417  56.80 0.0006658281    1.307    0.235
        21 -13.6038     43.5402    129.5401   1.0667497033e+02   4.4015383203e+01     1.460181      1.17508  58.19   0.00834442    1.195    0.163
        22 -13.5920     44.1840    111.8440   1.0385610301e+02   4.8496680574e+01     2.159887     1.236117  53.76  0.009925146    1.883    0.469
        23 -14.5998     68.5938    144.2128   1.0116009404e+02   3.7219529549e+01     4.928198     1.902392  58.24   0.00363095    4.478    0.777
        24 -11.8208     72.1664    171.7070   1.0385694283e+02   3.0291314789e+01    0.4954641    0.3640145 -34.09  0.002149715    1.831    0.454
        25 -11.3010     76.0001    167.0869   1.0229206742e+02   3.0813452241e+01     0.290807    0.2544067 -31.58  0.001608093    1.411    0.291
        26  -8.8995    193.8741    171.1824   7.6175036131e+01   1.1112437676e+01    0.1830387    0.1737878  18.23  0.001014964    1.245    0.197
        27  -9.4820    185.5390    169.2558   7.7385952793e+01   1.2759870196e+01    0.2125253    0.1823635 -32.67  0.001002245    1.229    0.186
        28 -10.4320    240.5424    169.5696   6.8023926115e+01   4.3764757661e+00    0.2484175    0.1112246  44.83 0.0006726979    2.726    0.633
        29 -10.7072    192.5442    193.5923   8.0389245600e+01   7.9495515531e+00    0.7555931    0.5053413 -73.09  0.002814337    6.076    0.835
        30  -9.9929    120.9403    195.4950   9.5290169125e+01   1.8405809936e+01    0.2134843    0.1760072  86.51 0.0006250565    1.510    0.338
        31  -9.6855    134.5300    164.2100   8.7274861819e+01   2.2272710479e+01    0.5460547    0.3288568  70.07  0.002083339    3.368    0.703
        32 -17.5494     10.5028    246.4509   1.2228654936e+02   2.2198639620e+01     5.410745     2.060444  22.21   0.02017926    3.301    0.697
        33  -9.8141    148.7044    187.0958   8.7998785952e+01   1.5671574445e+01     0.237342     0.165775  42.78  0.001330598    1.379    0.275
        34 -12.2399     83.9993    159.5915   9.9158151768e+01   3.1386359673e+01     1.040298    0.6559073  77.85 0.0007050352    2.051    0.512
        35 -13.1839     72.6330    153.8778   1.0141685778e+02   3.4339785584e+01     0.669467     0.532154 -67.66  0.001177038    1.262    0.207
        36 -11.5985     91.2775    151.9498   9.6027668040e+01   3.2046806264e+01    0.7080099     0.546055  -9.37  0.003573593    1.816    0.449
        37 -11.1799    133.7363    144.6440   8.3727832030e+01   2.6408314193e+01     1.255961    0.3088268 -53.48  0.003208246    5.698    0.825
        38  -8.1985    112.5090    150.4705   9.0168607659e+01   2.8915540336e+01    0.1416394    0.1351523  53.21 0.0008098697    1.008    0.008
        39  -9.1145    175.0136    149.0132   7.5461809365e+01   1.7997894445e+01    0.2013361    0.1736818 -86.97 0.0006171138    1.639    0.390
        40 -10.9072     40.9288    146.9128   1.0953962765e+02   3.9948098098e+01    0.3349937     0.315956 -75.26  0.001471092    1.172    0.147
        41 -10.2744    104.0934    138.2139   9.0080109652e+01   3.3124293095e+01     0.535383    0.3346215 -26.95   0.00219241    2.464    0.594
        42 -11.5862     91.5752    137.8520   9.3497382917e+01   3.5304854086e+01    0.2739468    0.2624008 -46.05  0.000491326    1.124    0.110
        43 -10.1284    105.9220    130.8624   8.8092112645e+01   3.4504888881e+01    0.3505122    0.3159028 -80.58  0.001178475    1.144    0.126
        44  -9.9498    112.8230    129.1327   8.5830916558e+01   3.3653025103e+01    0.3675496     0.283619   0.63 0.0009180062    1.766    0.434
        45 -11.0021    118.6237    124.0828   8.3143472333e+01   3.3707540452e+01    0.6142718    0.4114175 -13.16  0.001984983    2.527    0.604
        46  -9.2358    161.4650    128.5121   7.3810308410e+01   2.4350530497e+01    0.1441796    0.1370677 -11.54 9.172069e-05    1.007    0.007
        47 -10.3431     99.9729    125.0955   8.8553223718e+01   3.6911199066e+01    0.3087137    0.2675898 -13.44  0.001290838    1.389    0.280
        48 -10.3601    135.1037    121.7578   7.8344202649e+01   3.0985837269e+01    0.6201436   0.08502446 -46.01  0.001294358    7.209    0.861
        49  -9.2197    108.5701    118.2561   8.4566732735e+01   3.6944836949e+01    0.2445732    0.2018375  42.08 0.0004664289    1.222    0.182
        50 -10.0292    231.4447    113.7186   5.7959932538e+01   1.3533682725e+01    0.2491945    0.2110338 -11.61 0.0007539058    1.103    0.093
        51  -8.5867    167.6534    112.3034   6.8595024142e+01   2.6170641518e+01    0.1471026    0.1173116 -79.87 0.0007040385    1.691    0.409
        52  -9.4463    205.4635    110.1722   6.1093963464e+01   1.8872019943e+01    0.2760739    0.1965861  37.11 0.0006886672    1.549    0.354
        53 -11.0582    116.8317    109.2610   8.0059027624e+01   3.7394211982e+01    0.5222344    0.3739658  35.59  0.002434269    1.483    0.326
        54 -10.3729     26.7225    107.9703   1.0946950667e+02   5.1260614495e+01    0.2931569    0.2057597  23.47  0.001346126    1.618    0.382
        55  -9.8351    134.6324    104.6567   7.4157687307e+01   3.4708152880e+01     0.553501    0.1420519 -41.13  0.001496952    4.112    0.757
        56  -9.7128     21.9899    105.0607   1.1080447308e+02   5.2416062071e+01    0.2087526    0.1827101 -85.55 0.0004791044    1.016    0.016
        57  -9.1005     66.1922    104.3932   9.4741878473e+01   4.7547175159e+01    0.2103604    0.1302172  46.14 0.0009465896    1.683    0.406
        58  -8.2900    129.3113     96.6394   7.3330001422e+01   3.7542896257e+01    0.1607883    0.1220673 -80.63 0.0007041662    1.746    0.427
        59 -10.4004     55.5398     95.1196   9.6534430526e+01   5.1413479201e+01    0.3331206    0.2381119  57.73 0.0009189672    1.550    0.355
        60 -13.4612     55.0264    146.5020   1.0540565785e+02   3.8425584118e+01     1.386064     1.079189 -54.64  0.007777942    1.378    0.274
        61  -9.6978     45.1035     90.1801   9.9460396366e+01   5.4003143816e+01    0.1988748    0.1604307  74.23 0.0005544566    1.328    0.247
        62  -8.2979    157.4982     89.5271   6.4676510947e+01   3.2661793928e+01    0.1522271     0.142644 -57.14 0.0006451008    1.074    0.069
        63  -8.4291    157.5210     82.5345   6.2668566261e+01   3.3946498211e+01    0.1505763    0.1443574 -38.85 0.0002402808    1.013    0.013
        64  -8.3939    184.4937     77.4102   5.6171517234e+01   2.8624193165e+01    0.1429583     0.134874 -32.71 0.0001243183    1.038    0.037
        65  -9.3789     60.3154     68.0289   8.7379254624e+01   5.7436457127e+01    0.2072252    0.1798322 -58.26  0.000424603    1.102    0.093
        66 -16.3427      2.3517    224.0273   1.2324332221e+02   2.6857274049e+01     10.45787          nan -78.39   0.01482339   13.551    0.926
        67 -12.9857    185.4501     50.6942   4.8420409924e+01   3.2474537002e+01     1.001743    0.8966222  -7.51 0.0007962706    1.250    0.200
        68 -11.9763    111.2900    197.2728   9.7675874877e+01   1.9488359649e+01    0.7410111    0.4448776   4.62  0.003197219    3.109    0.678
        69  -8.2281    224.2838    206.6990   7.7049313837e+01   1.8771838294e+00   0.09270322   0.08750342   3.09 0.0002350368    1.552    0.356
        70 -11.1001     28.8913     35.3770   9.1084139007e+01   6.9133609871e+01    0.3608195    0.2351589 -13.48  0.001823436    1.883    0.469
        71  -8.6401    158.2726    235.3568   9.2891414126e+01   6.7820197397e+00    0.1117487   0.07683469   0.44 0.0007000985    1.645    0.392
        72  -9.6267    197.9485     23.8512   3.9225139351e+01   3.2922553316e+01     0.195141    0.1825209  -0.65 0.0007144394    1.262    0.207
        73 -11.8556    197.3057    204.4128   8.1294896100e+01   5.7551684198e+00    0.4957407    0.2780291  21.26  0.002784256    1.729    0.422
        74 -11.5401    111.7360    204.5838   9.8496142886e+01   1.8070169621e+01     0.374457    0.3212153 -66.27 0.0005006577    1.359    0.264
        75 -10.8079    195.4093    199.1932   8.0793364254e+01   6.7407660202e+00    0.2609692    0.2244596  33.22  0.001479581    1.339    0.253
        76  -9.0898    189.4960     14.9996   3.7471360860e+01   3.5909803708e+01    0.2008722    0.1249338 -28.18 0.0005151572    1.546    0.353
        77 -10.8310    164.6306    213.0610   8.8706205868e+01   9.1005522964e+00    0.2387336    0.2079237  79.72    0.0015915    1.773    0.436
        78  -9.5813     89.9673    212.3974   1.0412232073e+02   1.9601219061e+01    0.2025042    0.1729131  88.10 0.0005081889    1.296    0.228
        79 -11.0237    107.5194    203.9386   9.9343044952e+01   1.8782793803e+01    0.2934968    0.2285593 -68.39  0.001266508    1.507    0.336
