#   1 NUMBER                 Running object number                                     
#   2 MAG_AUTO               Kron-like elliptical aperture magnitude                    [mag]
#   3 X_IMAGE                Object position along x                                    [pixel]
#   4 Y_IMAGE                Object position along y                                    [pixel]
#   5 X_WORLD                Barycenter position along world x axis                     [deg]
#   6 Y_WORLD                Barycenter position along world y axis                     [deg]
#   7 A_WORLD                Profile RMS along major axis (world units)                 [deg]
#   8 B_WORLD                Profile RMS along minor axis (world units)                 [deg]
#   9 THETA_WORLD            Position angle (CCW/world-x)                               [deg]
#  10 FWHM_WORLD             FWHM assuming a gaussian core                              [deg]
#  11 ELONGATION             A_IMAGE/B_IMAGE                                           
#  12 ELLIPTICITY            1 - B_IMAGE/A_IMAGE                                       
         1 -15.7814    106.4691    112.1727   7.8726225428e+01   3.9005047528e+01     3.286052     2.891176  45.65   0.01088917    1.164    0.141
         2 -14.5200    191.5372     56.8878   4.5084531378e+01   3.0397014942e+01      1.76154     1.427116 -39.76  0.005988818    1.207    0.172
         3 -13.4492    238.4542     55.8459   3.9546900551e+01   2.0971767514e+01     1.183539    0.4486905 -45.24  0.004462132    2.124    0.529
         4 -12.8920    223.9777     46.6260   3.8964105110e+01   2.4966287164e+01     0.728363    0.5920553 -88.02  0.002914836    1.215    0.177
         5 -13.7891    208.2659     50.9646   4.1587295315e+01   2.7609759361e+01     1.413117     0.802124 -42.13  0.005502502    1.557    0.358
         6 -13.6721    226.4801     32.6177   3.5714321443e+01   2.6207399807e+01     1.578421    0.8909121  85.18  0.008276822    1.868    0.465
         7 -11.8154    192.2605     33.3663   3.9160231325e+01   3.3329785017e+01    0.7358868    0.2811754 -38.66  0.003275574    2.324    0.570
         8 -15.6695     81.6674      9.2420   5.0383385778e+01   6.1987697570e+01     2.976071     1.522107  46.26   0.01480033    1.670    0.401
         9 -12.3870    206.6254     19.9731   3.4593242262e+01   3.1740818604e+01    0.6783113    0.5970932 -19.65   0.00324473    1.444    0.307
        10 -11.6999    249.9489      9.8591   2.9556050326e+01   2.4293398188e+01    0.4504201    0.1600967 -35.27  0.002384103    2.359    0.576
        11 -12.1202     47.3672      9.0280   6.2427503803e+01   6.9025514791e+01    0.4811973    0.3192473  42.58  0.002826249    1.362    0.266
        12 -14.5349     31.1046    188.1917   1.1406339900e+02   3.0813897270e+01     4.155432     1.410988  61.49   0.01325747    4.543    0.780
        13 -12.1968    135.0584    249.4290   9.6191287244e+01   5.0219651044e+00    0.6046578    0.2444184  28.04   0.00206307    2.169    0.539
        14 -12.6649     85.5712    222.0859   1.0399123079e+02   1.6744213908e+01     1.727013    0.4854198  35.15  0.006374125    2.828    0.646
        15 -14.1045     62.5821    246.7097   1.1149998677e+02   1.4719666916e+01     3.176343    0.7019155  27.97   0.01053464    4.551    0.780
        16 -15.2760      6.8142    127.9089   1.1548111464e+02   4.7909605286e+01     6.587824     1.909369 -73.27   0.02437857    2.873    0.652
        17 -11.5462     48.2084    179.1195   1.0862449870e+02   3.1197889337e+01    0.3845328    0.2739548 -30.02  0.001441693    1.811    0.448
        18 -11.5501    160.5932    194.1620   8.2286020984e+01   1.1237891692e+01    0.3767579    0.2905304   9.74  0.002071002    1.278    0.218
        19 -11.5457     55.1651    173.0797   1.0597963969e+02   3.1874259450e+01    0.2996877    0.2601525 -25.54 0.0004855656    1.346    0.257
        20 -12.3435    168.1162    168.2374   7.5702871528e+01   1.5042332177e+01    0.5382575    0.2653396 -45.25   0.00228079    2.019    0.505
        21  -8.6558    110.7260    167.6725   8.9669877134e+01   2.5118235467e+01    0.1498655    0.1135133 -19.87 0.0002747677    1.586    0.370
        22 -10.8857     67.1136    163.3127   1.0121083091e+02   3.2799102796e+01    0.2586629    0.2495864  11.88 0.0003651245    1.106    0.095
        23 -13.9122     12.6473    206.4341   1.1985823277e+02   2.8307012406e+01     1.068753    0.5238678  22.42   0.00548908    2.213    0.548
        24 -13.2212     52.8725    159.5882   1.0486626925e+02   3.5543760658e+01    0.5455124    0.3325404 -34.71  0.001662105    2.082    0.520
        25 -12.2671     75.3902    156.5638   9.7703476362e+01   3.3350131050e+01    0.6316206    0.5413663  55.94  0.001524697    1.190    0.160
        26 -12.6968     68.1230    144.1932   9.7788074610e+01   3.7519008181e+01    0.8345611    0.5830647  72.58  0.003236756    1.792    0.442
        27 -10.7614     34.3017    157.6199   1.1013649196e+02   3.8069722510e+01    0.4467683    0.2822173  65.44  0.001827297    1.710    0.415
        28 -14.7590      7.1482    239.6632   1.2264312365e+02   2.1817219804e+01     2.431648     1.260063  81.47   0.01446642    1.820    0.450
        29 -10.9671    177.0570    130.5475   6.5633493353e+01   2.0821748343e+01    0.4760182    0.4050418  35.83  0.002010071    1.234    0.189
        30 -11.4890    181.6115    135.1384   6.5754726365e+01   1.9059111488e+01    0.6273805      0.53672  83.76  0.003373822    1.545    0.353
        31 -12.8107    182.5541    143.6281   6.7451799498e+01   1.7256242548e+01     1.370894    0.8392778  52.60  0.006299838    1.982    0.495
        32 -11.8467    170.3422    142.4876   6.9753743646e+01   1.9767279655e+01    0.8440463    0.6616006   9.54  0.003418321    1.458    0.314
        33 -10.8261     91.6325    143.3907   9.0413161771e+01   3.4146842052e+01    0.3129562    0.2667612 -19.43 0.0007966161    1.301    0.231
        34  -9.9131     95.4522    139.5735   8.8482496028e+01   3.4451101528e+01    0.3415448     0.221274 -18.74 0.0009055102    2.304    0.566
        35 -11.8531     79.2871    141.3152   9.3770965426e+01   3.6623547079e+01    0.3196916    0.2734275 -43.09 0.0005564402    1.180    0.153
        36 -10.8775    167.8347    245.1788   8.8835884263e+01   1.3961122703e+00    0.2923439    0.2128432 -38.61  0.001594993    1.553    0.356
        37 -15.2093    110.1525     98.2732   7.3870095155e+01   4.1377262880e+01     1.978456     1.777984 -80.83  0.005287173    1.282    0.220
        38 -12.1492     54.1242    120.9897   9.8103923145e+01   4.5347914076e+01     2.012554    0.6775171 -73.06  0.001596892    7.005    0.857
        39 -10.6595    182.5354    124.1463   6.3054753594e+01   2.0970312588e+01    0.5384124     0.217606 -44.54   0.00203353    2.366    0.577
        40  -9.4522    204.5949    110.7069   5.5991524683e+01   1.9088147529e+01     0.284084    0.1591242  37.47  0.001292777    2.230    0.551
        41 -14.3297     23.8487    198.2459   1.1667365843e+02   2.9152948621e+01      1.69155    0.7909917  56.97   0.00436786    2.069    0.517
        42 -11.0806    134.5025    103.0078   6.8481610762e+01   3.5222488297e+01     0.498901    0.3282673 -42.30   0.00179798    1.507    0.336
        43 -11.3820    139.4055    104.1909   6.7568810815e+01   3.3920354207e+01    0.6571519     0.374945 -54.06  0.002652738    1.999    0.500
        44 -11.3402    139.0147     98.4541   6.6116691155e+01   3.5166572964e+01    0.7519646    0.4342968 -25.07  0.002888365    2.375    0.579
        45 -13.3258    151.2781    102.1487   6.4209335580e+01   3.1748084499e+01     1.918587     1.085776  40.45  0.008055977    1.899    0.473
        46 -13.7282    179.4315     84.0713   5.3838226339e+01   2.8844828685e+01     1.938149     1.294172  -7.00  0.008416707    2.445    0.591
        47 -13.6096    128.5684    234.8531   9.5734305114e+01   8.4019035595e+00     1.273867    0.6625911  39.82  0.006406842    1.735    0.424
        48 -13.8143    139.1872    230.6812   9.2836025229e+01   7.6682335944e+00     1.686862     1.045716   0.82  0.008292381    2.134    0.531
        49 -12.5742    179.5098    182.1824   7.5988859637e+01   1.0469188505e+01    0.6952996    0.6236414 -16.35  0.003374629    1.075    0.070
        50 -13.1233    248.4378     79.8032   4.3475652038e+01   1.5887596406e+01     1.017148    0.5572788 -39.01  0.005752757    1.482    0.325
        51 -10.8548     64.2240     91.1999   8.7437309837e+01   5.1337202614e+01    0.5192236    0.3584639  -3.87  0.002335008    1.874    0.466
        52  -9.8653    216.4848    189.5128   7.0183235896e+01   3.6215176504e+00    0.1297294    0.1044924 -10.90  0.000191257    1.028    0.027
        53 -11.3835     41.1414     81.9173   9.4265032355e+01   5.6629737591e+01    0.3109635    0.2279247  48.04  0.001402274    1.635    0.388
        54 -11.7829     38.7162     75.4335   9.3569709773e+01   5.8422918248e+01    0.3748076    0.1847076  33.60  0.001654336    2.120    0.528
        55 -12.6865    168.8925     78.6226   5.4309378439e+01   3.2109226415e+01    0.5459869    0.4536178  20.68  0.002272805    1.487    0.328
        56 -12.0224     52.4672     69.5088   8.5783774068e+01   5.7982994222e+01    0.6003433     0.481101  51.46  0.003223192    1.527    0.345
        57 -10.8471    204.7815     70.4896   4.6602310320e+01   2.5564934042e+01    0.3806586    0.2978564 -70.21  0.002220421    1.299    0.230
        58  -9.1919     45.9403    189.5019   1.1033356699e+02   2.8942522285e+01    0.1930688    0.1242729  32.04 0.0003973363    1.505    0.336
        59 -10.9952     85.6497    233.9060   1.0524641010e+02   1.4358092771e+01    0.2677754    0.1609361  39.89  0.001238971    1.407    0.289
        60  -9.4769     13.2305     60.1323   1.0156372202e+02   6.4257279501e+01    0.1979106      0.14685 -37.49 0.0004556689    1.151    0.131
        61 -12.9547    248.3937     97.7631   4.7120286383e+01   1.3289833578e+01    0.9377267    0.4268579 -49.61  0.004006763    2.096    0.523
        62 -10.1758    250.2847     49.0688   3.7130498424e+01   1.9697180015e+01    0.2887369    0.1330573 -34.78  0.001542934    1.918    0.479
        63 -10.4179     12.3523     43.6094   9.7217291441e+01   6.7904372528e+01     0.401805    0.2039224  41.68  0.001736634    2.739    0.635
        64 -12.0384    194.2876    228.2682   8.1036098376e+01   5.4108879233e-01    0.7368612    0.4501647  17.61  0.003273555    1.489    0.328
        65 -11.1352    176.7357    229.5082   8.4714513085e+01   2.6720369025e+00    0.4032621    0.2696972   2.08  0.001774941    1.506    0.336
        66 -12.0063    185.2990    187.5539   7.5804528989e+01   8.5748026082e+00    0.6247028    0.4912026 -43.15  0.002210943    1.375    0.273
        67 -11.9785    101.6661    229.0843   1.0106272420e+02   1.3179801555e+01    0.6252306    0.1717055  31.47  0.002242668    3.148    0.682
        68 -11.4402    120.7049     28.7241   4.8643852265e+01   5.0830713563e+01    0.5850452    0.3243095 -71.55  0.001872912    3.236    0.691
        69  -9.3312    189.5169     15.4843   3.5048147795e+01   3.5953563542e+01    0.1247021    0.1040077 -75.38 0.0003008349    1.016    0.015
        70 -11.6808    187.8694    180.3704   7.3922360820e+01   9.4631814623e+00      0.52382    0.4308138  34.40  0.001791182    1.304    0.233
