#   1 NUMBER                 Running object number                                     
#   2 MAG_AUTO               Kron-like elliptical aperture magnitude                    [mag]
#   3 X_IMAGE                Object position along x                                    [pixel]
#   4 Y_IMAGE                Object position along y                                    [pixel]
#   5 X_WORLD                Barycenter position along world x axis                     [deg]
#   6 Y_WORLD                Barycenter position along world y axis                     [deg]
#   7 A_WORLD                Profile RMS along major axis (world units)                 [deg]
#   8 B_WORLD                Profile RMS along minor axis (world units)                 [deg]
#   9 THETA_WORLD            Position angle (CCW/world-x)                               [deg]
#  10 FWHM_WORLD             FWHM assuming a gaussian core                              [deg]
#  11 ELONGATION             A_IMAGE/B_IMAGE                                           
#  12 ELLIPTICITY            1 - B_IMAGE/A_IMAGE                                       
         1 -14.7230     70.0012     68.7321   8.9232907616e+01   5.4844805187e+01     1.889312     1.237812  48.88  0.007594659    1.893    0.472
         2 -15.6840     30.2825     75.6324   1.0575321319e+02   5.8077346709e+01     3.352651     1.109167 -58.18   0.01364305    2.374    0.579
         3 -14.8083     73.1048     43.5295   7.9107946104e+01   5.9112286614e+01     1.586243     1.416232  -8.38  0.006250992    1.039    0.037
         4 -13.5638     57.0793     43.9957   8.5358671299e+01   6.1533181382e+01    0.9183899    0.8401198  33.64  0.004643866    1.332    0.249
         5 -13.6567    107.3871     35.3047   6.4945335443e+01   5.3632761319e+01      1.22225    0.9003541   7.37  0.005152788    1.517    0.341
         6 -14.1297    113.0696     57.0439   7.1392955013e+01   4.8993771940e+01     1.556048     1.221047 -10.06   0.00624611    1.395    0.283
         7 -13.8887     99.5824     57.5462   7.5542522627e+01   5.1747651755e+01     1.747272    0.8742457 -42.06  0.007318579    1.990    0.497
         8 -14.5175    175.8134     62.8892   5.8842494478e+01   3.2847539746e+01     1.798949     1.176875 -63.23   0.00574325    1.892    0.472
         9 -13.5968    166.5028     45.6722   5.5342115140e+01   3.7836433041e+01     1.436961     1.002636 -56.91  0.006779393    1.595    0.373
        10 -11.8791    128.5017     28.8853   5.7308632179e+01   4.9573906883e+01    0.6764534    0.2851292 -30.66  0.002712153    2.414    0.586
        11 -13.7693    129.9576     39.4488   6.0775650056e+01   4.7838620526e+01      1.58547     1.152815  77.94  0.007029909    1.700    0.412
        12 -12.8287    243.9935     28.1677   4.0619041276e+01   2.1263037565e+01    0.7114455    0.6244701 -89.42  0.003197464    1.151    0.131
        13 -13.4039    146.3312     20.8728   5.0946250136e+01   4.6095581624e+01      1.68332     0.835257 -43.62  0.007228123    2.239    0.553
        14 -12.4683    129.8509     14.1821   5.1673438908e+01   5.0876312817e+01    0.8493634     0.512821  46.41   0.00316696    1.517    0.341
        15 -13.9118     48.5465     25.0895   8.0985562057e+01   6.5870119840e+01     1.161693    0.7918453 -27.16  0.004932793    1.284    0.221
        16 -11.8598     56.4139     20.6664   7.5689317480e+01   6.5347290480e+01    0.5258671    0.2530729 -41.15  0.002530862    2.285    0.562
        17 -13.5976    184.1472     21.2062   4.5289672570e+01   3.6447334684e+01     1.712959    0.6744318 -52.31  0.006224818    3.104    0.678
        18 -14.1045    166.0153     20.4227   4.7585364876e+01   4.1150268087e+01     1.455267    0.8893034 -23.36  0.005195647    1.814    0.449
        19 -12.2200    167.9426      4.4394   4.2444280956e+01   4.2258232931e+01    0.5989236    0.4280293  74.35   0.00233099    1.257    0.204
        20 -12.4762    224.8360     14.5880   3.9160471960e+01   2.7232346281e+01    0.6330544    0.4997231 -64.88  0.003225217    1.108    0.098
        21 -12.7228    191.9512     13.3159   4.2135341578e+01   3.5344644103e+01    0.8900289    0.5813602 -58.68  0.004064491    1.546    0.353
        22 -13.9813     14.9157      4.5251   8.7381520683e+01   7.2853085796e+01      1.06091    0.5317659  15.14  0.005265543    2.143    0.533
        23 -11.4252     86.4878    142.5986   1.0232603157e+02   3.5115494538e+01    0.2620733    0.2355625 -48.63    0.0004346    1.179    0.152
        24 -13.1826    237.6304    247.4314   8.8346635988e+01  -9.9000590620e+00     1.004186    0.3653306  33.00  0.004997156    2.322    0.569
        25 -15.1821    117.9065    241.4158   1.0951447552e+02   9.2970121421e+00     1.419877     1.183543  63.81   0.00711811    1.128    0.113
        26 -15.5548     84.5630    231.7186   1.1485370109e+02   1.5980026159e+01      2.21423     1.172248  67.90   0.01046787    2.091    0.522
        27 -15.1544     72.1250    193.1396   1.1330947068e+02   2.5529934038e+01     2.497487      1.28972  88.41   0.01106965    2.542    0.607
        28 -14.8336     47.6241    186.1864   1.1789242247e+02   3.0234686538e+01     1.735324     1.005984 -61.55  0.007120099    1.711    0.416
        29 -14.9164     17.8656    127.4042   1.1865573945e+02   4.6918475366e+01     2.956863    0.7280565 -67.87   0.01140384    2.938    0.660
        30 -14.7945      5.5120    131.4998   1.2237431493e+02   4.6853364183e+01     1.249686    0.5383242 -79.14   0.00373754    1.891    0.471
        31 -14.6245     11.9217    204.5287   1.2652883393e+02   3.0121342633e+01    0.9275208    0.4077577  78.74  0.003748088    2.069    0.517
        32 -14.6207     72.0403    247.2064   1.1852841676e+02   1.4919291891e+01    0.7569475    0.5135018  73.68  0.003824077    1.314    0.239
        33 -17.2875     40.6483    237.0003   1.2334168150e+02   2.0705391675e+01     2.789952      1.21207  60.09    0.0152703    1.933    0.483
        34 -15.5380     31.1079    174.4868   1.2038982186e+02   3.4699249692e+01     1.031767    0.6474417 -78.81   0.00381577    1.341    0.254
        35 -11.0113     76.8873    141.3164   1.0466409721e+02   3.6893150632e+01    0.2880788    0.1929489 -56.55  0.001038203    1.394    0.283
        36 -16.8169     13.6156    179.8733   1.2459063711e+02   3.5189286793e+01      2.01786     1.195054 -73.96   0.01257587    1.431    0.301
        37  -9.6468     96.7116    128.4389   9.6672268899e+01   3.6835718637e+01    0.1901409    0.1474655  23.26 0.0009273767    1.544    0.352
        38 -16.1401    152.5778    176.4792   9.2606784302e+01   1.5492356962e+01     2.964824     1.557492 -53.83   0.01179775    2.148    0.534
        39 -13.3128    208.8953    114.4649   6.6719107221e+01   1.5808654652e+01     1.262502    0.9174591  69.95  0.004848558    1.740    0.425
        40 -11.4206     52.6687    115.9252   1.0687172714e+02   4.6309228832e+01    0.6648127    0.3610819  69.28  0.002635934    3.085    0.676
        41 -15.0032     62.8739    103.5840   1.0114517364e+02   4.8007638279e+01      1.69154     1.481415   5.85  0.009858422    1.339    0.253
        42  -9.5541      3.6642    247.1941   1.2998634346e+02   2.2819709888e+01    0.1217099    0.0732822 -80.91 0.0004367081    1.556    0.357
        43 -11.5921    159.2165    247.6060   1.0248326485e+02   1.8457011723e+00    0.4236591    0.2473587 -20.70  0.002043187    3.239    0.691
        44 -13.2254     49.3118     71.0528   9.7466589187e+01   5.7145989782e+01    0.6464179    0.5836498 -72.43   0.00227385    1.283    0.221
        45 -12.9610    162.6740    237.4999   1.0047040716e+02   2.8049255787e+00    0.4665384     0.421131  73.77  0.002245596    1.357    0.263
        46 -12.3133    162.7058    231.3589   9.9594698738e+01   3.7519295293e+00    0.4657421    0.3099556  60.30  0.002126995    1.867    0.464
        47 -13.2296    242.9407    107.9000   5.9492402471e+01   9.6833991451e+00    0.9032869    0.6497318  45.42  0.003287182    1.562    0.360
        48 -10.5854    190.2321    110.5320   6.9282966066e+01   2.0783501814e+01    0.3113576    0.2910207 -30.36  0.001171779    1.037    0.035
        49 -11.7227     28.1961    104.4857   1.1232223998e+02   5.1549477647e+01    0.4171296    0.3601158 -81.57  0.001934412    1.128    0.113
        50 -10.9223    126.4800     99.8310   8.1215340416e+01   3.7636673423e+01    0.4551407    0.2965249 -48.64  0.001451835    1.524    0.344
        51 -10.3433      3.4933    101.5125   1.1951559105e+02   5.3981376215e+01    0.2590502     0.188839 -13.63  0.001684261    1.807    0.447
        52 -10.6019      1.4777     97.5194   1.1960532605e+02   5.5015299350e+01    0.3958413   0.09358083 -71.88  0.001491507    3.258    0.693
        53 -12.3190    228.8201     95.7935   5.8732507512e+01   1.4668482653e+01     0.612141    0.5170516 -52.95  0.002539943    1.161    0.139
        54 -13.4763    207.3244     92.3342   6.1360890360e+01   2.0129711311e+01     1.008821    0.8069024 -80.30  0.002885677    1.493    0.330
        55 -13.2789    219.5107     91.7268   5.9181648042e+01   1.7427710298e+01    0.9043766    0.5878291 -37.41   0.00292009    1.415    0.293
        56 -10.3071    103.0213     94.4544   8.6323240256e+01   4.3604539350e+01    0.3041511    0.2074129 -31.11  0.001367332    1.610    0.379
        57 -12.3238    248.7498     88.3484   5.4095591829e+01   1.1640238360e+01    0.7790719    0.3747225 -38.54  0.003491727    1.774    0.436
        58 -12.4304    246.3075     74.6877   5.1205599855e+01   1.4268301464e+01    0.6010311    0.5718638 -53.22  0.003772874    1.099    0.090
        59 -10.7326    150.0580     92.0991   7.2994697054e+01   3.3902641262e+01    0.3718585    0.3192192  82.39  0.001622179    1.346    0.257
        60 -11.9048      2.8750     85.8598   1.1747311693e+02   5.7620254920e+01    0.6835362    0.2264006 -65.89  0.002855113    2.145    0.534
        61 -11.9014    214.4050     81.5989   5.7405591366e+01   2.0305409501e+01    0.5351768    0.4465882 -17.46  0.002249673    1.314    0.239
        62 -13.3764    228.1225     76.4107   5.4039318622e+01   1.7991112173e+01     1.107727    0.7472652 -79.98  0.005193633    1.939    0.484
        63 -13.5639    218.7658     66.3596   5.2820619879e+01   2.1730028644e+01    0.9949501    0.8414623  28.87    0.0033182    1.442    0.306
        64 -14.1052    223.4376     53.0911   4.8814742668e+01   2.2615864223e+01     1.474935    0.8846877 -74.59  0.005963445    2.109    0.526
        65 -14.5772    148.5279     69.2649   6.6445474475e+01   3.8582582969e+01     1.844516     1.463159  80.51  0.005819917    1.508    0.337
        66 -13.0092    235.3804    232.5974   8.6332195380e+01  -7.8525115191e+00    0.8337541     0.406165  23.88  0.004162698    2.016    0.504
        67 -11.5848     34.6372    209.5728   1.2255538489e+02   2.6741113169e+01      0.25093    0.2049184 -54.78 0.0007619347    1.664    0.399
        68 -14.8866    211.6370    155.0325   7.5750081318e+01   7.8722799404e+00     2.800399    0.9487022 -40.55  0.009837198    2.865    0.651
        69 -13.6128    183.4940     44.4921   5.2116813211e+01   3.3670486642e+01      1.27896    0.8472384  69.34  0.004325021    1.509    0.337
        70 -16.3038    201.9149    188.3638   8.4563777594e+01   3.9511726599e+00     2.387769     2.096857 -12.79  0.009148481    1.110    0.099
        71 -15.5826    193.3136    150.1672   7.8283555953e+01   1.2478242611e+01     3.060557     1.515441 -42.32   0.01030077    2.009    0.502
        72 -12.0514    212.3766     55.7498   5.0960429611e+01   2.4861476986e+01    0.4050168    0.2956329 -88.76  0.002041036    1.512    0.338
        73 -12.3704    132.0586     75.8633   7.2548514106e+01   4.1291220955e+01    0.9298807    0.6713344  69.88  0.004155451    1.745    0.427
        74 -13.1461     54.9180     80.4136   9.8051936263e+01   5.4402716074e+01     0.912556    0.6097943  70.21  0.003628765    2.535    0.606
        75 -12.1471    181.9467    171.7950   8.5310766705e+01   1.0674028003e+01    0.5575221    0.4213611  69.26  0.002635907    1.822    0.451
        76 -12.2128    133.7444     46.6215   6.2407553187e+01   4.5889067518e+01    0.8191128    0.3520694  45.40  0.003081831    2.314    0.568
        77 -10.9096     76.9808    165.3380   1.0854756791e+02   3.1134245958e+01    0.2402106    0.1835593 -62.70 0.0004020211    1.268    0.211
        78 -11.5427    198.8225     38.5114   4.8190807627e+01   3.0619642125e+01    0.2661137    0.2225678  28.73 0.0008876993    1.464    0.317
        79 -12.1592    207.3409     32.5347   4.5499410427e+01   2.9286571614e+01    0.3653939    0.2463098  31.72  0.001752177    2.081    0.519
        80 -12.7156     64.3075    161.5196   1.1110824283e+02   3.3801800107e+01    0.4726252      0.27304 -47.38  0.001526425    2.001    0.500
        81 -11.5267    113.5610    145.1852   9.5734008953e+01   2.9841197177e+01    0.6413299    0.3352841 -62.68  0.002515546    2.189    0.543
        82 -12.8774    120.6483    140.2642   9.2867934545e+01   2.9647719535e+01    0.8997647    0.6588443  73.31  0.002750876    1.713    0.416
        83 -12.6336    133.5242    158.5133   9.3495878456e+01   2.3006052628e+01    0.7489931    0.5116904 -50.90  0.003178729    1.490    0.329
        84 -13.5533    122.9324    152.0172   9.4766813861e+01   2.6503694234e+01     1.470389     1.084522 -83.40  0.005630755    1.693    0.409
        85 -11.5973     83.7831    159.0912   1.0589697863e+02   3.1590383134e+01    0.4526763    0.2833103 -37.18  0.001215299    2.200    0.545
        86 -13.0747    140.4527    144.4785   8.8844761576e+01   2.4742492690e+01    0.9696088    0.6144294 -59.31  0.003623334    1.775    0.437
        87 -13.4312    136.8765    131.8103   8.6810628546e+01   2.8314749514e+01     1.308798    0.8943977 -24.88  0.004193004    1.917    0.478
        88 -11.6645    215.0568     24.9676   4.2670581332e+01   2.8345673892e+01    0.3501493    0.2536824  31.12  0.001132916    1.917    0.478
        89 -12.9438     94.3426     46.0822   7.2941050703e+01   5.4758034469e+01    0.8221986    0.7944033 -48.60  0.003729295    1.222    0.181
        90 -13.0515    145.7083    132.5743   8.4810994541e+01   2.6277983654e+01     1.024801    0.7068846 -61.23  0.003430198    1.669    0.401
        91 -13.0559     68.5371    144.1425   1.0738458700e+02   3.7397972198e+01    0.7007102     0.492113  72.01  0.002599265    1.571    0.363
