#   1 NUMBER                 Running object number                                     
#   2 MAG_AUTO               Kron-like elliptical aperture magnitude                    [mag]
#   3 X_IMAGE                Object position along x                                    [pixel]
#   4 Y_IMAGE                Object position along y                                    [pixel]
#   5 X_WORLD                Barycenter position along world x axis                     [deg]
#   6 Y_WORLD                Barycenter position along world y axis                     [deg]
#   7 A_WORLD                Profile RMS along major axis (world units)                 [deg]
#   8 B_WORLD                Profile RMS along minor axis (world units)                 [deg]
#   9 THETA_WORLD            Position angle (CCW/world-x)                               [deg]
#  10 FWHM_WORLD             FWHM assuming a gaussian core                              [deg]
#  11 ELONGATION             A_IMAGE/B_IMAGE                                           
#  12 ELLIPTICITY            1 - B_IMAGE/A_IMAGE                                       
         1 -13.9814     68.8705    144.5226   9.6553550999e+01   3.7343566920e+01     4.434367     2.206651  70.15  0.003069282    5.578    0.821
         2 -13.6987    205.1489     42.4992   3.8519483417e+01   2.9373609271e+01     1.740139     1.326914  36.16  0.007785772    1.880    0.468
         3 -13.5109    217.4840     31.2557   3.4715883682e+01   2.8162160936e+01    0.9567838    0.7906335  44.42  0.004583979    1.663    0.399
         4 -12.7770    243.9754      6.1832   2.7654718852e+01   2.5722465633e+01    0.7594479    0.5457373 -76.40  0.005344729    1.093    0.085
         5  -9.5741     52.3396      4.4957   5.7399541253e+01   6.7502273071e+01    0.1932573     0.163024  53.23 0.0006381936    1.450    0.310
         6  -9.4791      2.0000      3.4882   8.2472161022e+01   7.4453780508e+01    0.2254325   0.05288682 -43.25 0.0009387837    3.967    0.748
         7  -9.4981     47.5858      2.4059   5.8203983375e+01   6.8521609313e+01    0.2027252    0.1545692  37.90 0.0005760708    1.206    0.171
         8  -9.5126    122.5809    199.2993   9.1720405087e+01   1.5145125676e+01    0.3258412    0.2418806 -80.59  0.001580899    1.711    0.415
         9  -9.6926    102.1657    249.9915   1.0336755274e+02   7.7187060056e+00    0.2544211     0.180784 -67.61  0.001355185    1.633    0.388
        10 -10.4570    101.5630    243.6910   1.0277872591e+02   9.0196909656e+00     0.363233    0.1244156 -57.97  0.001479908    3.201    0.688
        11 -12.1402     66.2728    170.0143   1.0160935501e+02   3.1094294312e+01     1.009347    0.5058153 -29.54  0.003160003    4.409    0.773
        12 -15.5272     37.4386    195.9891   1.1227401386e+02   2.8140894682e+01     10.92166     4.228316  82.92   0.02885028    5.093    0.804
        13  -9.3171     99.4037    180.9027   9.4464342092e+01   2.3339399436e+01    0.2654367    0.2186254  25.77 0.0005836092    1.299    0.230
        14  -9.7427    186.3277    174.4337   7.2301336119e+01   9.2480755411e+00    0.3440118    0.2999284 -79.68  0.001844886    1.521    0.343
        15  -9.5192     85.8139    174.6841   9.7029373383e+01   2.7050417459e+01     0.399687    0.2870265 -89.13  0.001877959    1.622    0.384
        16  -9.1126     89.2888    173.6684   9.5922951799e+01   2.6763628822e+01    0.2353102    0.2050103  65.50 0.0005869235    1.163    0.140
        17 -12.1052     77.9318    158.9164   9.6515929562e+01   3.2281767656e+01     1.075774    0.5601826  53.98 0.0003693895    2.351    0.575
        18 -12.7524     65.4601    154.5567   9.9356792001e+01   3.5207361023e+01    0.5502023    0.4536522 -39.77 0.0008893273    1.302    0.232
        19  -8.6597    110.8074    167.7603   8.9070010034e+01   2.4644235894e+01    0.2161927    0.1799858  83.21 0.0007466903    1.378    0.275
        20 -13.7222     14.6265    214.3035   1.1893011217e+02   2.6214233347e+01     1.021532     0.480904  29.08  0.003942382    2.297    0.565
        21 -13.4952     47.5395    187.2035   1.0884762006e+02   2.9134887502e+01     1.398538     1.045112  60.14  0.007780425    1.286    0.223
        22 -11.4176     85.2966    152.4429   9.3202060137e+01   3.2811240487e+01    0.6659947    0.4452154 -27.80  0.002849056    1.984    0.496
        23 -10.3288    134.0000    146.5099   7.8461503953e+01   2.5462376308e+01    0.8274192    0.2074337 -51.59  0.002127265    4.302    0.768
        24  -9.2339    174.8618    149.1302   6.9308079727e+01   1.6687595399e+01    0.2358562    0.2090466 -75.02  0.001081088    1.314    0.239
        25  -9.4969    149.6306    191.7450   8.3922636143e+01   1.2158615699e+01    0.4601925    0.2884281 -80.76  0.001650523    3.451    0.710
        26  -9.5623     54.3338    147.1393   1.0139960097e+02   3.8599800040e+01    0.3222885    0.1020541 -56.72   0.00111248    2.646    0.622
        27 -10.3553     59.1766    146.5407   9.9842047384e+01   3.8139168465e+01    0.2539349    0.1975157  86.84  0.001284493    1.388    0.280
        28 -14.4070     10.2278    206.5793   1.1936378699e+02   2.8388317528e+01      1.01459    0.8562326  25.81  0.003738856    1.490    0.329
        29  -9.5017     32.6137    143.8835   1.0742336796e+02   4.1860606302e+01    0.4033546    0.2420074  74.76  0.001844949    2.035    0.509
        30 -10.2588    100.2234    138.5781   8.5967559402e+01   3.3819562795e+01    0.6027605    0.3968196 -12.55  0.002297915    2.513    0.602
        31 -11.6438     87.3739    137.9766   8.9643093697e+01   3.6183778206e+01    0.3269145     0.280153 -41.61 0.0004618878    1.164    0.141
        32  -9.8474    106.0111    130.7068   8.2465290396e+01   3.4715616156e+01    0.3562232    0.3393768  26.50  0.001329035    1.089    0.082
        33  -9.5576    109.9782    129.5166   8.1033034005e+01   3.4255980073e+01    0.3241541    0.2484577 -14.92 0.0007977971    1.656    0.396
        34 -10.0504    135.1964    129.0066   7.4001535012e+01   2.9323971829e+01    0.3880807    0.3001466 -55.08  0.001809547    1.311    0.237
        35 -16.6676     15.5030    242.3812   1.2045093326e+02   2.0077544938e+01     6.730715     4.035375  26.73   0.04054169    1.985    0.496
        36  -8.4088    161.3255    127.9880   6.7373492902e+01   2.4034058693e+01    0.2624775    0.1201528 -61.19 0.0007051447    4.356    0.770
        37  -9.8630     97.1513    125.2000   8.3773098480e+01   3.7699557425e+01    0.3211249    0.2585351   2.42 0.0008929361    1.510    0.338
        38  -8.5578    116.4753    124.4596   7.7939881605e+01   3.4205222095e+01    0.1572262    0.1526441 -35.92 0.0001149497    1.014    0.014
        39 -11.0289    240.0432    169.5126   6.1222064320e+01   1.2608688862e+00    0.2752059    0.1725556 -37.93 0.0007961614    1.345    0.256
        40  -9.1327    106.9369    118.4622   7.9173556340e+01   3.7502348402e+01    0.2219234    0.2025635 -42.10   0.00036038    1.063    0.060
        41  -9.6648     46.6398    167.4793   1.0664527855e+02   3.4238259099e+01    0.4446185    0.2333321  64.54   0.00131055    2.423    0.587
        42  -9.7847    231.3575    113.7807   5.1041771770e+01   1.2587871281e+01    0.2441144    0.2215364 -48.58 0.0007515451    1.071    0.066
        43 -10.7710     53.0317    110.3229   9.4671574899e+01   4.8219060113e+01    0.4241414    0.2635503 -67.93  0.001942667    1.700    0.412
        44  -9.3347    205.2652    110.1431   5.4347813569e+01   1.8345289309e+01    0.2894204    0.1992338  36.58  0.001079252    1.805    0.446
        45 -10.0380    119.7357    244.9527   9.9011632382e+01   6.1177075781e+00    0.2811951    0.1457331 -49.30  0.001042983    2.198    0.545
        46  -9.8075    250.0000    105.9890   4.6861322432e+01   1.0571663899e+01     0.225799    0.0614156 -39.91 0.0008111959    3.003    0.667
        47  -8.9549     45.3808    101.7234   9.5435452872e+01   5.1251713824e+01     0.205492    0.1142548 -49.54 0.0005346748    1.571    0.363
        48  -9.2792     31.5677     95.6821   9.9200419773e+01   5.4153275905e+01    0.3127792    0.1381976  37.84  0.001327295    2.617    0.618
        49  -9.6843     53.3689     90.7780   8.9744855734e+01   5.2872306408e+01    0.2104618    0.1158072 -45.04 0.0004916841    1.644    0.392
        50 -10.1057     18.0532     90.2731   1.0322930313e+02   5.6570988015e+01    0.2193843     0.174415  44.80 0.0004261689    1.544    0.352
        51  -8.9301    160.0466     83.5160   5.6114851612e+01   3.3297129663e+01    0.2241859     0.145549  54.81 0.0005593675    1.552    0.356
        52  -8.9155     72.5278     83.3208   8.0565840014e+01   5.1718701777e+01     0.244997    0.1673879  45.14 0.0006071546    1.633    0.388
        53  -8.3424    129.9230     65.0031   5.7454011964e+01   4.3560240663e+01    0.1733076    0.1606069  53.86 0.0003950807    1.043    0.041
        54  -8.6785     89.9611     65.0553   6.8688925646e+01   5.2193353803e+01    0.2124626    0.1788289  89.84 0.0005634811    1.666    0.400
        55 -12.3883    195.4150     49.0966   4.1269298542e+01   3.0638926880e+01    0.6922865    0.5307845  51.16 0.0008850835    1.492    0.330
        56 -10.3226    197.0382    203.2129   7.5730388073e+01   1.9086361479e+00    0.3719526    0.2329497 -66.67  0.001490367    3.453    0.710
        57 -10.4168     13.5549     60.0763   9.7903132170e+01   6.3657826917e+01    0.2534581    0.1963616 -49.93 0.0005629875    1.174    0.148
        58  -9.0430     48.8570     62.9106   8.3179699389e+01   5.9458904772e+01    0.1967403    0.1781857 -18.95 0.0004610493    1.086    0.079
        59  -8.6231    234.4476     45.4598   3.6101517313e+01   2.2801337279e+01    0.1246695   0.09941693 -65.04 5.129138e-05    1.005    0.005
        60 -10.4378    191.4943    192.0024   7.4733503665e+01   4.8965356205e+00    0.7284322    0.3966575 -65.14  0.002282822    5.059    0.802
        61  -8.9576    198.1779     23.3642   3.4854840068e+01   3.3318417797e+01    0.1854193    0.1664702 -38.21 0.0005787227    1.326    0.246
        62  -9.6680      2.0000     22.9821   9.1499579335e+01   7.1478096699e+01    0.1822686   0.05479516 -51.25 0.0008070522    2.975    0.664
        63  -8.7210    189.5116     15.0019   3.3778980693e+01   3.6194271882e+01    0.1720905    0.1155026 -38.91  0.000452155    1.545    0.353
        64 -10.3826    141.0587    221.6193   9.1007443843e+01   7.3677191642e+00    0.3219219    0.1220964  35.38  0.001243802    2.418    0.586
        65  -9.5275    111.0494    203.8440   9.5247299021e+01   1.6014800306e+01    0.2158667    0.2020532  43.57  0.000578267    1.020    0.020
        66  -8.7024     94.3315    204.2841   9.9382165060e+01   1.8546638152e+01    0.1373111    0.1112427 -14.47  0.000298976    1.614    0.380
