#   1 NUMBER                 Running object number                                     
#   2 MAG_AUTO               Kron-like elliptical aperture magnitude                    [mag]
#   3 X_IMAGE                Object position along x                                    [pixel]
#   4 Y_IMAGE                Object position along y                                    [pixel]
#   5 X_WORLD                Barycenter position along world x axis                     [deg]
#   6 Y_WORLD                Barycenter position along world y axis                     [deg]
#   7 A_WORLD                Profile RMS along major axis (world units)                 [deg]
#   8 B_WORLD                Profile RMS along minor axis (world units)                 [deg]
#   9 THETA_WORLD            Position angle (CCW/world-x)                               [deg]
#  10 FWHM_WORLD             FWHM assuming a gaussian core                              [deg]
#  11 ELONGATION             A_IMAGE/B_IMAGE                                           
#  12 ELLIPTICITY            1 - B_IMAGE/A_IMAGE                                       
         1 -14.0119    212.7812      8.3043   4.0767937548e+01   3.0795865735e+01     2.346681     1.376956  43.83  0.009999726    2.133    0.531
         2 -13.2347    173.8324     53.4894   5.8921231114e+01   3.4948089496e+01     1.906787     1.266818  25.31  0.005737794    2.047    0.511
         3 -13.4738    188.9063     39.5104   5.2224819468e+01   3.3086051593e+01     1.097213     1.035821 -32.64  0.003871963    1.122    0.109
         4 -12.7401    193.6173     33.4516   4.9797984419e+01   3.2678591874e+01    0.6437188      0.61155  48.39  0.001273979    1.141    0.124
         5 -10.2411     60.5363      3.9608   6.9234601815e+01   6.6828245039e+01    0.2679304    0.1180245  21.11  0.001039837    3.512    0.715
         6 -10.9141     48.0007      2.4827   7.3524240723e+01   6.9005543330e+01    0.2999917    0.1078346  42.88  0.001375022    2.778    0.640
         7  -5.6659     63.0532    221.2167   1.1980531817e+02   2.1310061491e+01      0.33833     0.138803  62.00  0.001579982    2.569    0.611
         8 -12.7568    247.6976    244.6441   8.8451573058e+01  -1.0564124061e+01    0.9146846     0.621196 -10.68    0.0063941    1.390    0.281
         9  -9.7718    204.8238    199.4112   8.8433676879e+01   1.9585240385e+00    0.1937754    0.1102778  29.94  0.000760752    1.698    0.411
        10 -11.3133    150.7030    196.1997   9.8812420745e+01   1.2307617452e+01    0.3452817    0.3089921  80.19  0.002075392    1.244    0.196
        11 -11.5853     61.1384    196.3704   1.1791100858e+02   2.6550823464e+01    0.3410489    0.2479283 -41.45  0.001415045    2.056    0.514
        12  -9.1844     82.4932    195.0188   1.1326959907e+02   2.3899680853e+01    0.1976757    0.1565633  59.29  0.001068439    1.105    0.095
        13 -11.4838     39.3591    212.7766   1.2359791109e+02   2.5848490763e+01    0.1756235    0.1385595  63.03 0.0002890002    1.144    0.126
        14 -10.3830      8.9933    192.8723   1.2801792357e+02   3.2970194973e+01     0.157068   0.09988225  32.20  0.001044503    1.914    0.477
        15  -9.7001    184.4790    212.0392   9.4571085715e+01   3.5531093016e+00    0.1823591     0.129538 -39.35  0.001017446    1.603    0.376
        16  -9.5130    156.5437    190.0110   9.6529812919e+01   1.2394440922e+01    0.1885927     0.138529 -46.38 0.0003153764    1.501    0.334
        17 -10.7505    150.4223    187.7499   9.7449177083e+01   1.3960649648e+01    0.2940258    0.1793457 -65.60  0.001323169    2.250    0.555
        18 -11.2617    133.5909    186.2605   1.0086661295e+02   1.7336585782e+01     0.325555    0.2182038  79.68  0.001501344    2.141    0.533
        19 -11.2925    145.1573    181.1183   9.7439204591e+01   1.6243082083e+01    0.3410867    0.2849599 -15.81  0.001059126    1.490    0.329
        20 -12.0413    141.9227    175.5192   9.7158249006e+01   1.7983984494e+01    0.7497661    0.5287098 -86.47  0.002731929    2.040    0.510
        21 -10.5969    151.3760    180.4084   9.5945320390e+01   1.5212294624e+01    0.3815485    0.2470125 -78.01   0.00158909    2.585    0.613
        22  -9.9493    238.4154    185.2379   7.9538635686e+01  -1.7200193930e+00    0.1740576    0.1160708 -39.24 0.0009477245    1.647    0.393
        23  -9.8818    189.2802    178.4868   8.7545013724e+01   8.2835871751e+00    0.3934273    0.2740739  59.64  0.001174701    1.814    0.449
        24  -9.7548    187.8874    173.4773   8.6833684122e+01   9.4468621947e+00    0.4132676    0.2679974 -67.69  0.001715549    2.763    0.638
        25  -8.8541     84.0164    177.5581   1.1072658025e+02   2.7444926643e+01    0.1976833     0.120237  44.10 0.0006314919    1.564    0.361
        26  -9.4789     74.8470    250.6401   1.2004286578e+02   1.4474146534e+01    0.1065249   0.08069181  57.81  0.000195509    1.072    0.067
        27  -9.4643    189.6610    207.6957   9.2830408187e+01   3.3310493450e+00    0.1356957   0.09408667  11.77 0.0007039937    1.675    0.403
        28 -10.4296    240.0475    169.2697   7.6032647160e+01   3.6581929085e-01    0.1875714    0.1601359  10.77 0.0004834438    1.073    0.068
        29 -11.1083     67.5706    206.6750   1.1760985067e+02   2.3578606538e+01    0.2068993     0.164851  69.28 0.0003201833    1.013    0.013
        30 -10.9601    133.8387    145.7052   9.3203458407e+01   2.5942212536e+01     1.209181    0.3141908 -55.13  0.002912814    5.742    0.826
        31  -9.7431    187.7102    152.1485   8.2364747491e+01   1.3435444225e+01    0.2349616    0.1925234 -60.38 0.0008697463    1.456    0.313
        32  -9.6152    113.3064    151.2788   9.9410220803e+01   2.8581959131e+01    0.3029695    0.2030267  81.43  0.001315308    2.075    0.518
        33  -9.5237    174.5468    148.6928   8.4410142000e+01   1.6875065832e+01    0.3683684    0.2511517 -70.81  0.001531601    2.272    0.560
        34  -8.4398    224.2915    206.6898   8.6118555018e+01  -2.4220727599e+00     0.109054    0.1029493  70.01 0.0003002997    1.585    0.369
        35  -7.5525     75.7146    247.6453   1.1966010741e+02   1.4862208010e+01    0.1376516    0.1090642 -57.78 0.0009887937    1.722    0.419
        36 -11.0506    108.4628    137.9280   9.7987488641e+01   3.2541330654e+01    0.5503336    0.3404677 -36.09  0.002363556    2.023    0.506
        37  -8.8619    113.4737    142.9715   9.7727987551e+01   3.0460054215e+01     0.203669    0.1285226 -81.89 0.0008068364    2.347    0.574
        38 -10.5206    107.2175    145.3078   9.9791700450e+01   3.1045477456e+01    0.4186829    0.2733527  89.73  0.001271208    2.194    0.544
        39 -11.8184     96.7077    137.3736   1.0096983936e+02   3.4718157672e+01    0.3016813    0.2834056  87.27 0.0002665381    1.026    0.025
        40 -10.8504    105.9140    131.0692   9.7214077593e+01   3.4604349342e+01    0.4850413    0.3239727 -55.34  0.002007649    1.449    0.310
        41 -10.1446    135.8031    128.7774   8.8911217041e+01   2.9314172825e+01     0.464976    0.1970038 -50.51   0.00163578    2.427    0.588
        42 -10.3651    115.3743    128.9889   9.4237641367e+01   3.3340286867e+01    0.3376017     0.271529 -37.49 0.0006054703    1.334    0.251
        43  -8.2162     73.2561    204.0309   1.1619410511e+02   2.3343699556e+01     0.334792    0.1763099  67.17  0.001673971    2.031    0.508
        44  -9.5324    160.7695    127.6705   8.2597575212e+01   2.4171114404e+01    0.3291939    0.2156744 -53.13  0.001414688    1.650    0.394
        45 -10.5389    103.1325    124.6583   9.6561669753e+01   3.6607511129e+01    0.2999053    0.2526649  -4.23 0.0006827413    1.515    0.340
        46 -10.0794    120.3087    123.1473   9.1577044038e+01   3.3729617189e+01     0.366627    0.2469816 -22.25  0.001509642    2.170    0.539
        47  -9.6623    135.0997    120.1015   8.6980734160e+01   3.1390991864e+01    0.3488003    0.1630093 -48.89  0.001041099    2.149    0.535
        48 -11.1472     59.0005    202.9267   1.1897631358e+02   2.5463197936e+01    0.2976572    0.2210281 -42.07  0.001804572    2.042    0.510
        49  -9.2934    110.4642    118.2546   9.3066319955e+01   3.6756630029e+01    0.2446519     0.200345  43.43 0.0002932366    1.263    0.208
        50  -8.8635    150.7215    117.3527   8.2393897442e+01   2.8590297499e+01     0.159604    0.1245965 -78.76 0.0007010372    1.649    0.393
        51 -10.0026    231.2260    113.7525   6.5110784010e+01   1.1101703357e+01     0.276273    0.2516965  34.46 0.0007709732    1.170    0.145
        52  -9.6322    167.4904    112.4350   7.7187525272e+01   2.5793152891e+01      0.34224    0.2618702 -77.67  0.001512749    1.748    0.428
        53 -10.0423    134.8105    106.4148   8.3507056627e+01   3.4459111229e+01     0.404137    0.1508795 -47.92  0.001306183    2.731    0.634
        54 -11.4566    119.2394    110.2739   8.8674643604e+01   3.6870703246e+01    0.5567852     0.487844  68.22  0.002860714    1.243    0.195
        55  -9.7479    205.1989    110.2598   6.8836202169e+01   1.7457292067e+01    0.3588802    0.2483716  34.97 0.0009813249    1.615    0.381
        56  -9.6641     43.9481    211.7559   1.2265895733e+02   2.5520139147e+01    0.2499163    0.1364628 -79.93  0.001075661    1.683    0.406
        57  -8.9882    183.2999     83.0090   6.5765062131e+01   2.7633361125e+01    0.2245658    0.2052331 -32.23  0.001158555    1.090    0.083
        58  -8.4811    153.6895     81.7193   7.1751258632e+01   3.5151079325e+01    0.1567297    0.1229671  15.87 0.0003639639    1.565    0.361
        59  -8.3816    184.3600     77.2965   6.3941193859e+01   2.8377027258e+01    0.1605363    0.1194967  22.73 0.0007033166    1.707    0.414
        60 -10.9961     71.9136    245.3490   1.2014543953e+02   1.5760681902e+01    0.2704843    0.1635093 -76.45  0.001770251    1.755    0.430
        61 -10.8349    193.2664    195.5143   8.9971518860e+01   4.6426574239e+00    0.8340165    0.4488731 -62.29  0.002883485    4.753    0.790
        62  -9.4750    167.6842    231.4919   1.0080414555e+02   3.4033804677e+00    0.2183849    0.1757154  19.81 0.0007518834    1.263    0.208
        63 -19.5011     25.0670    147.1254   1.2098000198e+02   4.1552742561e+01     19.02175     4.777497 -75.07   0.06734215    3.766    0.734
        64  -9.7091    163.3288    222.6576   1.0036514126e+02   5.5065252107e+00    0.1276284   0.09365521  66.87   0.00070512    1.744    0.427
