#   1 NUMBER                 Running object number                                     
#   2 MAG_AUTO               Kron-like elliptical aperture magnitude                    [mag]
#   3 X_IMAGE                Object position along x                                    [pixel]
#   4 Y_IMAGE                Object position along y                                    [pixel]
#   5 X_WORLD                Barycenter position along world x axis                     [deg]
#   6 Y_WORLD                Barycenter position along world y axis                     [deg]
#   7 A_WORLD                Profile RMS along major axis (world units)                 [deg]
#   8 B_WORLD                Profile RMS along minor axis (world units)                 [deg]
#   9 THETA_WORLD            Position angle (CCW/world-x)                               [deg]
#  10 FWHM_WORLD             FWHM assuming a gaussian core                              [deg]
#  11 ELONGATION             A_IMAGE/B_IMAGE                                           
#  12 ELLIPTICITY            1 - B_IMAGE/A_IMAGE                                       
         1 -14.9349    166.5482     43.5279   7.4756328817e+01   3.8284789053e+01     1.226237     1.090562   8.49  0.004007694    1.352    0.260
         2 -15.0737    184.7115     10.2027   6.3060714438e+01   3.7668599231e+01      2.10369     1.010117  67.01  0.007146652    1.716    0.417
         3 -10.2765    138.8392    243.4217   1.2604771489e+02   4.4932253908e+00    0.1668636    0.1402035 -53.93  0.001030883    1.430    0.301
         4 -15.0456    100.6426    243.5668   1.3369237938e+02   1.0887911395e+01    0.7775498    0.6040553 -55.76  0.004857067    1.590    0.371
         5 -19.9609     62.6939    170.2913   1.3281647528e+02   3.2617291439e+01     18.41218      7.32324 -66.85   0.07500838    2.378    0.579
         6 -11.8236    152.1595    184.2118   1.1351613722e+02   1.3733567817e+01    0.3191014    0.2444661 -61.28 0.0006690956    1.445    0.308
         7 -14.3344    141.4769    164.4298   1.1210936206e+02   2.0326959824e+01    0.9616035    0.5975834  69.80  0.002585509    2.405    0.584
         8 -13.2684    146.7761    179.1613   1.1379839669e+02   1.5928825772e+01    0.6572718      0.33491  44.49  0.002188802    1.855    0.461
         9 -14.2089    137.7352    171.0831   1.1437445700e+02   1.9575356431e+01     1.004907    0.5550177  53.49  0.004025759    1.931    0.482
        10 -12.0560    202.2101    167.3172   9.8883625113e+01   6.8138834630e+00    0.6197076    0.4482349  19.84  0.002484926    1.631    0.387
        11 -12.6271    196.9292    176.0327   1.0185381428e+02   6.1934337354e+00    0.7532337    0.4508295 -67.49    0.0027104    3.237    0.691
        12 -12.7355    193.4807    166.1046   1.0046739126e+02   8.8867300707e+00    0.4696217    0.3471108 -44.41 0.0007128486    1.386    0.278
        13 -12.1486    190.1490    160.8796   1.0004121053e+02   1.0660947963e+01    0.4098096    0.3999311  50.13 0.0006569453    1.054    0.051
        14 -12.3213    189.9068    155.6266   9.8922928959e+01   1.1793558727e+01    0.5419062    0.4869152  45.70  0.001867271    1.107    0.097
        15 -11.9219    188.0238    175.1890   1.0358912170e+02   8.2007116542e+00    0.3573192    0.2109837 -60.71  0.001402689    2.412    0.585
        16 -10.6753     13.6606    232.5448   1.4883902382e+02   2.4708287672e+01    0.1075109   0.07932567  85.87  0.000783592    1.126    0.112
        17 -12.5699    126.5739    172.6102   1.1739941858e+02   2.1441531231e+01    0.5781186      0.41852  72.45  0.002067501    1.644    0.392
        18 -11.2381     10.8638    174.5366   1.4519666436e+02   3.7261188743e+01    0.1891866    0.1280486 -77.26 0.0002980564    1.178    0.151
        19 -12.6670    177.0033    169.9434   1.0491657834e+02   1.1598688325e+01    0.4635922    0.2337136 -54.44  0.001725298    2.402    0.584
        20 -11.4155     12.5905    241.8578   1.4955564669e+02   2.3014199246e+01    0.2335246    0.1480039 -64.13  0.001602537    1.869    0.465
        21 -10.6911     13.7886    163.4876   1.4354036335e+02   3.9506429407e+01    0.2399227     0.189484  48.76 -0.0001544689    1.407    0.289
        22  -9.9000     16.5979    226.3934   1.4795013533e+02   2.5625029937e+01    0.1086059   0.08381502  83.27 0.0002975159    1.122    0.108
        23 -13.0823    204.5093    175.9030   1.0023761365e+02   4.6762876867e+00     0.530848      0.51365 -70.68  0.001147124    1.184    0.155
        24 -10.9041     22.2757    221.5404   1.4661029490e+02   2.6006329537e+01    0.1780667    0.1083166 -77.23 0.0005546485    1.431    0.301
        25 -11.2780    236.8146    158.1881   9.0149027220e+01   1.5834468735e+00    0.1963826    0.1603313  -3.26 0.0002967515    1.320    0.243
        26 -12.2899    167.4149    155.8113   1.0402743123e+02   1.6698017992e+01    0.3750364    0.2755768  89.41  0.001441696    1.979    0.495
        27  -9.9042    151.1504    241.8745   1.2333677322e+02   2.6080104251e+00    0.1613329    0.1432632  16.45  0.000539416    1.276    0.216
        28 -11.0139    109.0907    240.0420   1.3161209692e+02   1.0181761819e+01    0.1846776    0.1524751  61.78 0.0003486163    1.027    0.026
        29 -11.6846    174.3709    148.6739   1.0080035070e+02   1.6700319038e+01    0.3683684    0.3049869 -80.62  0.001286651    1.461    0.316
        30 -12.0235      6.0750    137.4659   1.4267157562e+02   4.6014448735e+01    0.3892461    0.2725877 -69.53  0.001382189    1.119    0.106
        31 -12.4101    152.4831    139.1215   1.0375931608e+02   2.3710982271e+01    0.4007341    0.2866391 -71.15  0.001429158    1.792    0.442
        32 -11.1734     21.6521    238.1794   1.4782155098e+02   2.2743762057e+01    0.1363375    0.1025074 -88.19 0.0006396691    1.224    0.183
        33 -10.3944    168.4914    134.9511   9.8920545541e+01   2.0999093856e+01    0.2357232    0.1576493 -46.97 0.0005697748    1.518    0.341
        34 -12.7230    160.6160    128.0754   9.9100112499e+01   2.4307491272e+01     0.506717    0.3878482 -58.76  0.001861099    1.414    0.293
        35 -10.7294     12.8146    137.4819   1.4097502251e+02   4.5535520659e+01    0.2937571    0.1806844 -12.21  0.001611044    2.594    0.614
        36 -13.4448     11.8333    205.8388   1.4743938469e+02   3.0349609246e+01    0.4167732    0.3173907  21.39  0.002770163    1.989    0.497
        37 -12.8870    105.7758    204.0670   1.2758236805e+02   1.8127388260e+01    0.5026959    0.3409485 -78.44  0.002112092    1.630    0.387
        38 -10.9462    152.6465    198.1320   1.1599371396e+02   1.0689554987e+01    0.3585774    0.2531479 -45.93  0.001758319    1.552    0.356
        39 -10.7784    138.7272    250.5206   1.2700824961e+02   3.2734837651e+00    0.1772963    0.1283713  37.82   0.00103725    1.240    0.193
        40 -10.8123    167.9372    112.8422   9.3515653780e+01   2.5825205883e+01    0.3752503    0.2521829  86.69  0.001412612    2.405    0.584
        41 -11.8817      7.2013    110.9675   1.3904671516e+02   5.1916032751e+01      0.25152    0.1654171 -44.02 0.0008589339    1.445    0.308
        42 -11.1302    205.0779    110.8008   8.5206191815e+01   1.7358244955e+01     0.360104    0.3050394   9.40    0.0011439    1.479    0.324
        43 -10.5484    112.9091    196.3795   1.2479573700e+02   1.8578416781e+01     0.378738    0.2518248  -5.39  0.001380094    3.791    0.736
        44 -11.3935      6.9889    102.0595   1.3779207262e+02   5.3899136639e+01    0.2237848    0.1970483  11.03  0.000898029    1.425    0.298
        45 -10.2404    103.3692    194.5266   1.2671234564e+02   2.0666598261e+01    0.3771716    0.1899814  29.99  0.001495192    2.564    0.610
        46 -11.9110    152.6070    192.1479   1.1491122643e+02   1.1949268073e+01    0.3832968     0.313029  57.48  0.001227001    1.217    0.178
        47 -10.7794    145.8233     81.2122   9.0108379802e+01   3.7370509582e+01    0.2106224    0.1794191  20.01 0.0004290534    1.310    0.236
        48 -14.5141    154.5861     58.0786   8.1329118194e+01   3.9159265704e+01     1.387259     1.081805  49.71   0.00311938    1.197    0.165
        49 -12.2190    125.1050    241.8378   1.2861371919e+02   7.1502798363e+00    0.4783125    0.1691543 -54.97  0.001964725    3.282    0.695
        50 -13.1050    170.8034     35.7778   7.1843539127e+01   3.8232951696e+01    0.4212525    0.3944775  39.64 0.0009467113    1.188    0.158
        51 -11.4932    100.7908     60.4915   9.5972430145e+01   5.0899598833e+01    0.4565061    0.2545374  54.00  0.001972252    2.122    0.529
        52 -11.0094     13.4900     59.9549   1.2721936752e+02   6.2285718183e+01    0.1716503    0.1574636  30.05  0.000428349    1.441    0.306
        53 -12.2476    155.2227    187.4223   1.1342390975e+02   1.2426122286e+01    0.3394733    0.2555195  51.55  0.001069995    1.285    0.222
