#   1 NUMBER                 Running object number                                     
#   2 MAG_AUTO               Kron-like elliptical aperture magnitude                    [mag]
#   3 X_IMAGE                Object position along x                                    [pixel]
#   4 Y_IMAGE                Object position along y                                    [pixel]
#   5 X_WORLD                Barycenter position along world x axis                     [deg]
#   6 Y_WORLD                Barycenter position along world y axis                     [deg]
#   7 A_WORLD                Profile RMS along major axis (world units)                 [deg]
#   8 B_WORLD                Profile RMS along minor axis (world units)                 [deg]
#   9 THETA_WORLD            Position angle (CCW/world-x)                               [deg]
#  10 FWHM_WORLD             FWHM assuming a gaussian core                              [deg]
#  11 ELONGATION             A_IMAGE/B_IMAGE                                           
#  12 ELLIPTICITY            1 - B_IMAGE/A_IMAGE                                       
         1 -13.2965    197.9726     41.8348   4.3138238746e+01   3.0680740681e+01       1.1372       0.9906 -51.55  0.003232858    1.129    0.114
         2 -13.8681    207.4582     32.5313   3.9720059133e+01   2.9672403206e+01     1.346196     1.101209   3.95  0.001444298    1.769    0.435
         3 -13.0232    232.2722      6.2992   3.1636716738e+01   2.7201800101e+01    0.8367802    0.6317497 -83.92  0.004779246    1.124    0.110
         4 -10.4008     61.9034      8.0196   6.0123852941e+01   6.5649973731e+01     0.192683    0.1576784  20.39 0.0006132299    1.008    0.008
         5 -10.4397    104.6258    209.5922   1.0187517756e+02   1.6661608505e+01    0.3178098    0.1343613 -64.84   0.00125411    2.861    0.650
         6 -11.0908    139.8033    245.0158   9.9120055904e+01   4.3318004908e+00    0.3775876    0.2060536 -45.56  0.001983723    2.178    0.541
         7 -15.5104     47.2983    199.5885   1.1370179278e+02   2.6988205173e+01     11.48995     4.368512  70.75   0.02678999    5.977    0.833
         8 -11.2687    107.5824    203.7345   1.0037256771e+02   1.7441242547e+01    0.5735295    0.2704549  55.90  0.002249843    2.623    0.619
         9 -10.8960    192.8378    194.1287   7.9903160721e+01   4.5511447469e+00    0.8728167    0.5147609 -70.17  0.002581247    6.341    0.842
        10  -9.6203     31.8667    203.6302   1.1746465753e+02   2.7848838027e+01    0.2849298    0.1852033 -88.40  0.001298485    1.356    0.263
        11 -10.8419     61.3224    198.7288   1.1042063269e+02   2.5413489752e+01     0.298771    0.2451256 -59.72  0.000478439    1.334    0.250
        12  -9.2832     66.0979    194.5007   1.0882139842e+02   2.5744141978e+01    0.3388648    0.2010736  34.68  0.001038418    1.725    0.420
        13 -10.5674    121.2428    196.5087   9.6098955908e+01   1.6726496650e+01    0.4423128    0.2433949 -71.64 0.0009646065    2.650    0.623
        14 -10.3495    110.8880    197.7002   9.8705518896e+01   1.8211907612e+01    0.3379743    0.1961856  21.47  0.001418154    2.390    0.582
        15  -9.8931    114.6562    194.6754   9.7348939840e+01   1.8245532712e+01    0.2867962    0.1843299  -7.85  0.001082326    3.331    0.700
        16 -10.3141    207.5422    197.0125   7.7539341508e+01   1.5638527903e+00    0.2229771    0.1667246  30.32  0.001257574    1.294    0.227
        17 -16.0353      5.8855    209.2520   1.2323062423e+02   2.9210847267e+01     5.764314    0.6710191 -67.68   0.01980185    5.123    0.805
        18  -9.0843    158.6588    213.6661   9.0550099734e+01   6.8514924013e+00    0.1413287    0.1023548   0.08 0.0007051091    1.754    0.430
        19  -8.5978     82.0159    194.5462   1.0506803915e+02   2.3471494731e+01    0.2095243    0.1275288  38.38  0.001028356    1.590    0.371
        20  -9.1091     69.9505    184.0179   1.0657380663e+02   2.7666200688e+01    0.2079851    0.1802937  80.20 0.0003690563    1.046    0.044
        21 -17.4802     12.0676    244.0137   1.2392929162e+02   2.1558053410e+01     10.94134     5.305261 -81.64   0.02187333    1.865    0.464
        22 -13.0291     56.3940    185.8464   1.1009831806e+02   2.9045617177e+01    0.8748808     0.687771  65.29  0.005152932    1.175    0.149
        23 -10.6089     65.8481    179.4657   1.0698092801e+02   2.9318094731e+01    0.3999974     0.292846  65.12  0.001044721    1.348    0.258
        24  -9.9109    108.8557    189.7027   9.7936279370e+01   2.0328308736e+01    0.2285605    0.1835884  16.62  0.001192218    1.494    0.331
        25  -9.4830    147.6478    187.1205   8.8350501407e+01   1.4040308883e+01    0.3415369    0.1716636 -42.71  0.001147555    2.129    0.530
        26  -8.8900     72.0894    188.2794   1.0661517406e+02   2.6361232539e+01    0.1886556    0.1586215  72.87  0.000475757    1.094    0.086
        27  -8.9271    238.6676    185.3113   6.9571204204e+01  -1.4884397735e+00    0.1163853    0.1038589 -66.27 0.0007043596    1.675    0.403
        28  -8.8488     80.6095    184.0212   1.0395417215e+02   2.6127608712e+01    0.2213489    0.1598229  87.22  0.000850693    1.486    0.327
        29  -9.9051     99.4598    180.9347   9.8818540316e+01   2.3900873349e+01    0.2734535    0.2095985  39.00 0.0005985079    1.293    0.226
        30  -8.7174     90.3830    181.2586   1.0112457493e+02   2.5283840759e+01    0.2005518    0.1702005 -79.18 0.0003071278    1.158    0.137
        31  -8.7418     93.1712    179.2285   1.0011160544e+02   2.5320856768e+01    0.2316607    0.1829283  65.55 0.0005596412    1.286    0.222
        32 -10.0540    187.6006    175.9567   7.7391945349e+01   8.8653134848e+00    0.3487329     0.300213 -51.34  0.001241126    1.293    0.227
        33  -8.0697    224.2496    206.6541   7.6195374070e+01  -2.6398266407e+00    0.1122053    0.1003908 -53.16 0.0003319421    1.580    0.367
        34  -9.0713    148.4238    175.2356   8.5903773452e+01   1.6420946754e+01    0.2008146    0.1436441 -61.93 0.0006417717    1.623    0.384
        35 -12.2142     54.7344    146.9927   1.0520328140e+02   3.8778153871e+01     3.395221    0.3433224 -59.21  0.008695248    5.391    0.815
        36 -12.7319     51.8650    107.2981   9.8657744913e+01   4.9000276278e+01     1.867949    0.6411849 -67.17   0.00567359    4.104    0.756
        37 -12.0165     83.0223    159.3346   9.9446507038e+01   3.1732387012e+01    0.9386296    0.6596972  78.01 0.0005152928    1.704    0.413
        38 -14.2666     68.6046    144.0741   1.0076024287e+02   3.7669458241e+01     4.787159     2.049237  61.74  0.003120159    6.246    0.840
        39 -11.6600     70.6608    172.0656   1.0473016398e+02   3.0438929975e+01    0.5505059    0.3650219 -35.32   0.00260495    2.046    0.511
        40 -11.3147     74.9686    167.2351   1.0288421776e+02   3.1000392992e+01    0.3234914    0.2647777 -37.40  0.001745681    1.443    0.307
        41 -13.1154     71.6600    154.0098   1.0162888470e+02   3.4750055607e+01    0.6623721    0.5622942 -60.94  0.001133513    1.128    0.114
        42  -9.9297    118.7251    173.0030   9.2647838260e+01   2.2431241212e+01    0.2074433    0.2016012 -65.25  0.001141302    1.052    0.049
        43  -9.2369     48.1515    171.3172   1.1037800296e+02   3.3551800667e+01    0.2877526    0.2167946   0.74  0.001412595    1.953    0.488
        44  -8.5419    193.6151    170.8303   7.5097398016e+01   8.7264082998e+00    0.1993616    0.1314536 -49.93 0.0006900945    1.659    0.397
        45 -10.4204    241.3906    169.8963   6.6049051358e+01   5.6706904085e-01    0.3138851    0.1836955  62.21  0.001309823    3.603    0.722
        46  -9.1851    185.0240    168.4990   7.6384990284e+01   1.0797527254e+01    0.2698278    0.2047327 -57.07 0.0009729762    1.548    0.354
        47  -9.0600    110.8741    168.0815   9.3714546606e+01   2.4978752169e+01    0.2317544    0.1985657  80.02 0.0005482566    1.247    0.198
        48  -8.9821     36.7633    167.6041   1.1282050344e+02   3.5745034955e+01    0.2290514    0.1305024  51.22 0.0006822529    1.764    0.433
        49  -9.8925     32.8940    165.0986   1.1351868825e+02   3.6761995555e+01    0.2771032    0.2030709  52.39 0.0009009208    1.367    0.268
        50  -8.8399    135.7084    164.9880   8.6894717687e+01   2.1109766464e+01    0.2865403     0.183186  51.10  0.001255858    1.655    0.396
        51 -11.5835     90.1820    152.0050   9.6172075999e+01   3.2400108485e+01    0.7315273    0.4948515 -27.82     0.003213    2.054    0.513
        52 -10.4124    134.2769    147.5403   8.3541917583e+01   2.5375355267e+01    0.7983826    0.2657689 -53.43  0.002382592    3.412    0.707
        53  -9.8862    132.6751    140.1403   8.2271427989e+01   2.7401638556e+01    0.4884151    0.1958265 -53.63  0.001605943    2.742    0.635
        54  -9.0936    111.3293    149.4928   8.9936914178e+01   2.9331331454e+01    0.3762669    0.2331684  74.95  0.001373057    2.787    0.641
        55  -8.9223    174.9946    149.2755   7.4339798355e+01   1.6665686163e+01     0.210793    0.1969105  31.03 0.0004499644    1.087    0.080
        56  -8.3340    164.3156    149.3250   7.6728541874e+01   1.8849938617e+01    0.1572058    0.1207347  -3.54  0.000322187    1.668    0.401
        57 -10.1314     39.5847    146.8797   1.0944692558e+02   4.0559178978e+01    0.3407189    0.2002476  30.38  0.001271961    1.900    0.474
        58 -10.1575    103.3815    138.3256   8.9716502961e+01   3.3480401414e+01    0.5748435    0.3463658 -25.12  0.002120764    2.726    0.633
        59 -11.6873     90.8913    137.9167   9.3160247917e+01   3.5759802322e+01    0.2923557     0.261356 -45.37 0.0003728464    1.125    0.111
        60 -11.3969     44.2577    130.2677   1.0553123497e+02   4.4206722888e+01    0.4847603    0.3112223  89.04  0.001862614    1.822    0.451
        61 -11.1571     39.5427    124.1479   1.0593754610e+02   4.6240225803e+01      0.44245     0.243669 -79.30  0.001750913    1.998    0.500
        62 -10.2055    105.9718    130.8400   8.7301150634e+01   3.4813399256e+01     0.366764     0.328928 -70.86    0.0012856    1.138    0.122
        63  -9.8375    135.8886    129.3264   7.8873591427e+01   2.9211252406e+01    0.4933932    0.0974061 -48.46  0.001134609    5.297    0.811
        64  -9.9694    112.2882    129.3082   8.5173032707e+01   3.3982717356e+01    0.3259035    0.2611664   7.33 0.0008082542    1.570    0.363
        65 -10.4349     67.7269    126.9418   9.7740859028e+01   4.2078557157e+01    0.5428695    0.3947248 -73.27  0.002708955    1.420    0.296
        66  -8.9940    160.7028    127.6771   7.2437199172e+01   2.4241975772e+01    0.3241208    0.1845265 -61.90  0.001172202    2.509    0.601
        67 -10.3243     99.3351    125.2175   8.7884719222e+01   3.7384187256e+01    0.3013809      0.26225 -15.12 0.0007922878    1.311    0.237
        68  -8.6211     93.1784    125.7524   8.9812109947e+01   3.8348037011e+01    0.2204998    0.1959965  83.35 0.0005721293    1.229    0.186
        69 -10.8322    118.2305    123.8097   8.2195429346e+01   3.4107143864e+01      0.38565    0.3279328  20.07  0.001204721    1.315    0.240
        70  -8.8977    135.0000    119.9035   7.6739774260e+01   3.1517933496e+01    0.2583979   0.08848253 -45.67 0.0006249872    2.869    0.651
        71  -9.2202    108.1907    118.2683   8.3627053138e+01   3.7376456884e+01    0.2153648     0.203097  -8.26  0.000459099    1.123    0.110
        72 -10.0274    231.3371    113.7716   5.5656480667e+01   1.1933541752e+01     0.276198    0.2328324 -44.38 0.0007411685    1.059    0.056
        73 -11.7341     43.3367    109.3167   1.0194275014e+02   4.9493117965e+01    0.4787062    0.3471647 -70.95   0.00175407    1.338    0.253
        74  -9.5091     89.9457    212.0128   1.0549667038e+02   1.8412997905e+01    0.2490001    0.1840461 -78.46  0.000668097    1.422    0.297
        75  -9.7001    135.0000    112.0228   7.4681941599e+01   3.3256766177e+01      0.44021   0.08838806 -44.57  0.001047258    4.897    0.796
        76  -9.3818    205.6085    110.2352   5.9040358836e+01   1.7855867312e+01    0.2522471    0.2392303  37.65 0.0006437051    1.151    0.131
        77 -10.6866    115.3116    109.1527   7.9226246018e+01   3.8055575556e+01    0.4107142    0.3406193 -36.59  0.001828814    1.210    0.174
        78  -8.0643    140.3624    107.2806   7.2046548898e+01   3.3096335231e+01     0.159852    0.1245506   9.74 0.0005964802    1.675    0.403
        79 -10.6307     23.6756    111.8766   1.0891977293e+02   5.0743571734e+01    0.2120911    0.1779407 -26.15  0.001158581    1.335    0.251
        80 -10.0637    119.4988    103.5272   7.6520632013e+01   3.8436496122e+01    0.3330258    0.1511393 -45.87  0.001210268    2.166    0.538
        81  -8.5229     66.1901    100.1497   9.2128058630e+01   4.8803687198e+01    0.1876473    0.1654954  64.38 0.0004288425    1.324    0.245
        82  -8.8787    128.9616     95.9712   7.1828912860e+01   3.8005682419e+01    0.2337714    0.2256838  46.89 0.0006037019    1.049    0.046
        83 -10.5259     51.8376     92.3582   9.5145924219e+01   5.2546452147e+01    0.3531869    0.2246085 -30.67  0.001408042    1.720    0.419
        84  -9.2443    156.5215     88.5673   6.3043990957e+01   3.3140470470e+01    0.3328357    0.2207312 -74.92  0.001040843    2.297    0.565
        85  -8.3077    117.2879     86.0030   7.2067534922e+01   4.2596001383e+01    0.1841939    0.1347175 -40.95 0.0008575676    1.357    0.263
        86  -9.3975     75.0839     84.9805   8.4930169184e+01   5.0875652134e+01    0.2120194    0.1975905 -23.86 0.0004369941    1.013    0.013
        87  -8.8457    158.1854     82.6287   6.1005140011e+01   3.3849376193e+01    0.2100854    0.1383355  44.46 0.0004352418    1.581    0.367
        88  -8.6881    184.7851     77.1918   5.4342959835e+01   2.8459050075e+01    0.1985641     0.176227  21.49 0.0006180353    1.348    0.258
        89  -9.6583     59.0462     67.8386   8.5427596266e+01   5.6932746927e+01    0.2361185    0.1926068  37.06 0.0004891938    1.361    0.266
        90 -13.0832    187.2395     50.2028   4.6774929653e+01   3.2083118295e+01     1.036202    0.9455667  21.10  0.001005765    1.346    0.257
        91 -10.9728    111.6585    204.3646   9.9528360034e+01   1.6641662715e+01    0.3901801     0.270329  85.72 0.0007544893    1.885    0.469
        92 -10.3984    164.6226    213.2328   8.9210398697e+01   5.9229218803e+00    0.2478741    0.2126363  89.17  0.001418609    1.594    0.372
        93  -9.8198     31.9858     36.5199   8.5614608848e+01   6.6254971825e+01    0.1731691    0.1129402  23.11  0.001020084    1.556    0.357
        94 -10.5817    157.2639    219.7126   9.1827413632e+01   5.9762809198e+00    0.2198333    0.1732224 -49.54  0.000708065    1.440    0.305
        95  -8.5354     71.8278     53.6135   7.5728703534e+01   5.7607601140e+01    0.1884855    0.1259825  49.18 0.0009416781    1.754    0.430
        96 -10.3768     35.9736     17.4699   7.5376416434e+01   6.8694027347e+01    0.1776201    0.1058101  31.77  0.001039378    1.617    0.382
        97  -9.0506    189.5024     15.0015   3.7343540535e+01   3.5902385323e+01    0.1812914    0.1236142 -34.38 0.0006079871    1.558    0.358
        98  -9.4266    143.5107    211.5133   9.3477609159e+01   9.8317456465e+00    0.1374364     0.124722  38.52 0.0002860108    1.025    0.024
