#   1 NUMBER                 Running object number                                     
#   2 MAG_AUTO               Kron-like elliptical aperture magnitude                    [mag]
#   3 X_IMAGE                Object position along x                                    [pixel]
#   4 Y_IMAGE                Object position along y                                    [pixel]
#   5 X_WORLD                Barycenter position along world x axis                     [deg]
#   6 Y_WORLD                Barycenter position along world y axis                     [deg]
#   7 A_WORLD                Profile RMS along major axis (world units)                 [deg]
#   8 B_WORLD                Profile RMS along minor axis (world units)                 [deg]
#   9 THETA_WORLD            Position angle (CCW/world-x)                               [deg]
#  10 FWHM_WORLD             FWHM assuming a gaussian core                              [deg]
#  11 ELONGATION             A_IMAGE/B_IMAGE                                           
#  12 ELLIPTICITY            1 - B_IMAGE/A_IMAGE                                       
         1 -12.9248     42.8188     80.8896   7.4971002314e+01   5.5789355764e+01     1.100667    0.7217674 -19.37  0.005657995    1.606    0.377
         2 -10.8988     39.5316      8.2841   5.0025146256e+01   6.7733164554e+01    0.5391906    0.2207443 -28.71  0.002856121    2.468    0.595
         3 -11.6678     50.2558     37.2052   5.7661369311e+01   6.2647976286e+01    0.8652626    0.6663892  87.53  0.003970643    4.168    0.760
         4 -12.9553     45.1250     23.7705   5.4389390606e+01   6.5180030400e+01    0.8776684    0.7213796 -36.59  0.005965323    1.637    0.389
         5 -11.6506     78.1852     13.7028   3.8603777687e+01   6.0710290087e+01    0.4980639    0.2585234  -1.77  0.002397503    2.639    0.621
         6 -10.9648     75.9260     25.1852   4.3722924175e+01   5.9958478095e+01    0.4722129    0.2735062  -4.16  0.002389426    2.156    0.536
         7 -11.4485    173.4382     20.7452   2.1506663085e+01   3.8606467847e+01    0.5000349    0.3086772  73.02   0.00255663    1.394    0.283
         8 -11.0474    227.1667     16.1489   1.4677878639e+01   2.6873525390e+01    0.4727145    0.2792917 -87.39  0.002766876    1.492    0.330
         9 -10.1727    116.4888     17.0333   3.0112713380e+01   5.2366263589e+01    0.3441304    0.1973936 -45.72  0.001751206    2.248    0.555
        10 -12.6449    177.4407      3.4655   1.6854218532e+01   3.9393876761e+01     0.839363    0.4196183  75.94  0.004370954    1.680    0.405
        11 -12.4215    165.2979     12.9391   2.0646618123e+01   4.1345040116e+01    0.5370287    0.3260762 -68.10  0.002785689    1.898    0.473
        12 -12.5115    169.1830      9.6547   1.9320277430e+01   4.0745272833e+01    0.6463378      0.46197 -42.11   0.00396011    1.571    0.363
        13  -9.7602    129.8993     12.6706   2.6113401456e+01   4.9703648376e+01    0.2062449    0.1698877  26.73 0.0009625506    1.345    0.256
        14 -11.1688    232.1017      9.2678   1.2954150451e+01   2.6612844403e+01    0.4343596    0.2292675 -82.15  0.002441556    1.735    0.424
        15 -12.6238    160.6337      3.1696   1.8786269271e+01   4.3344454200e+01      1.24365    0.2150918  65.45   0.00418501    3.842    0.740
        16 -11.9026    145.7034      4.6855   2.1231871311e+01   4.6712776661e+01    0.4544855    0.2686698  63.57  0.002553257    1.347    0.258
        17 -10.3401    141.7700      1.6018   2.0964932329e+01   4.7880619776e+01    0.2681409    0.1516297  76.63  0.001431121    1.618    0.382
        18 -10.9991    131.2026      3.9388   2.3292202060e+01   5.0139952543e+01    0.6595593    0.1876303  52.99  0.002710831    2.604    0.616
        19 -10.8798    121.1277      4.4106   2.5198342415e+01   5.2402249465e+01    0.4562195    0.3029954  60.02  0.002724827    1.209    0.173
        20 -10.5382    106.4400      4.9697   2.8284652588e+01   5.5623374352e+01     0.412569    0.2334227 -86.46    0.0017259    3.679    0.728
        21 -10.7234    208.0314      4.4867   1.4030499618e+01   3.2328567208e+01    0.2717836    0.1543094  70.71  0.001114562    1.492    0.330
        22 -10.8300     71.0700      5.8025   3.7636528507e+01   6.2748708083e+01    0.3952735    0.1795107  51.09  0.002052704    1.891    0.471
        23 -11.4752     85.7239      3.5649   3.2650323023e+01   6.0083538123e+01    0.4936086    0.2781063  52.13    0.0017882    1.437    0.304
        24 -11.3401     79.7922      3.3940   3.4165686975e+01   6.1275261307e+01     0.343056    0.1993314  51.38   0.00171111    1.429    0.300
        25 -10.4094     61.4947      2.1366   3.9156264960e+01   6.4781291405e+01    0.3592376    0.1473591  38.01  0.001844394    1.963    0.490
        26 -12.3482    156.4023     12.0413   2.1649706096e+01   4.3538711800e+01    0.5578102    0.3580371  85.40  0.003068879    1.539    0.350
        27  -8.9245     17.5132      1.5258   5.6890857606e+01   7.1238672227e+01    0.1101449   0.07822008   2.64 0.0008099219    1.016    0.016
        28  -8.7540      1.6594      1.6757   6.5264060725e+01   7.2765817292e+01    0.1136602   0.05886425  -9.67 0.0004891033    1.727    0.421
        29  -9.5093     20.4111    155.6906   9.6321852920e+01   4.0252090416e+01    0.2439805    0.1356679 -62.22  0.001261231    1.489    0.328
        30 -10.2162    163.3362    152.0968   5.7025162913e+01   1.7623693874e+01    0.3201741    0.2848601   9.45  0.001579422    1.236    0.191
        31  -8.8615    173.6900    144.6709   5.2886302316e+01   1.7035789675e+01    0.1617376    0.1264142  -3.74 0.0007041096    1.665    0.399
        32  -9.9577     53.5060    143.4784   8.5291514006e+01   3.9817090493e+01    0.2683388    0.2281892 -64.08  0.001507958    1.052    0.049
        33 -12.0393     11.3708    140.5323   9.6848977628e+01   4.4695678397e+01    0.5211997    0.2970912  73.39  0.002589483    2.163    0.538
        34 -10.0260     39.7309    140.7255   8.8836856813e+01   4.2100381891e+01    0.2584789    0.2035266 -45.50  0.001460548    1.249    0.200
        35 -13.2925    240.8804    125.0968   3.5621617554e+01   7.0241888134e+00     1.340719     1.060196  71.56  0.007533174    1.513    0.339
        36 -13.5730    244.7856    109.9869   3.1860219878e+01   9.0113382325e+00     1.853299     1.023289 -51.57  0.008932343    1.653    0.395
        37  -9.0187    165.2677    134.6401   5.2431999743e+01   2.1119413040e+01    0.1626521    0.1258469 -77.47 0.0006992167    1.642    0.391
        38 -10.6058     17.9348    127.3270   9.3132284289e+01   4.7403090510e+01    0.1934974     0.154136  55.57  0.001179527    1.468    0.319
        39  -8.9688     24.3125    125.3453   9.0898152959e+01   4.7367168309e+01    0.1423721    0.0823177 -41.28 0.0007046541    1.710    0.415
        40 -10.5993      4.5408    124.7045   9.6703204315e+01   4.8960608176e+01    0.2440378    0.1656237  61.72  0.001420269    1.781    0.439
        41 -11.3958     10.2529    121.7126   9.4587645719e+01   4.9304456562e+01    0.3038142    0.2202136  42.91  0.001845702    1.659    0.397
        42  -9.7737    154.4894    120.5259   5.1480131359e+01   2.6673939017e+01    0.1581518    0.1568033 -79.43  5.61912e-05    1.003    0.003
        43 -11.0790    189.2818    115.8816   4.2631188919e+01   1.9649163693e+01    0.7561768    0.4557149 -14.85  0.002553511    3.391    0.705
        44 -10.8014    213.0001    112.9918   3.7525629806e+01   1.4949971975e+01    0.5475553    0.2690841 -40.75  0.002255273    1.912    0.477
        45  -9.9685    224.4235    111.2187   3.5215283834e+01   1.2863325271e+01    0.3713534    0.1516013 -46.39  0.001436025    2.237    0.553
        46 -11.4231    222.7996    107.0967   3.4559299878e+01   1.3966476326e+01    0.5228467    0.2805637  45.64  0.002293349    2.174    0.540
        47 -10.4893     16.9958    104.2218   8.9543380111e+01   5.2946636169e+01    0.3381653    0.1754823  29.18  0.001742379    2.236    0.553
        48 -10.1030     46.3455    100.9869   7.8833885007e+01   5.0988170552e+01    0.3830289    0.1987267 -50.32  0.001784303    1.656    0.396
        49  -9.9912     30.6640    101.9852   8.4466375304e+01   5.2356387641e+01    0.2513676    0.1622695 -27.53  0.001331184    1.630    0.386
        50  -9.4759    209.0056     94.2947   3.3885805308e+01   1.9312968960e+01    0.2008731    0.1844688  87.38 0.0006166763    1.076    0.071
        51  -9.5260    179.0297     93.0247   3.8992053512e+01   2.6502246090e+01    0.2510163    0.1837447 -79.27  0.001140625    1.677    0.404
        52 -10.4107     12.8370     89.8809   8.8184358761e+01   5.6471242770e+01    0.2030887    0.1398784 -41.06    0.0010574    1.211    0.174
        53 -11.2714      2.5984     86.3892   9.1150472009e+01   5.7834699880e+01    0.7461728    0.2198833 -65.51  0.003042287    2.916    0.657
        54 -12.3574      4.5738     75.4555   8.8183396964e+01   6.0065342372e+01    0.6876249    0.4747474  81.53  0.003927862    2.306    0.566
        55 -12.9259     14.8113     73.1814   8.3699276786e+01   5.9908464139e+01    0.7326486     0.623669  15.98  0.005055231    1.379    0.275
        56  -9.7188     20.2931     88.3403   8.5168547042e+01   5.6285359476e+01    0.1376871   0.07545564 -36.49 0.0003450768    1.652    0.395
        57 -10.2544    192.4550     87.0023   3.4973864854e+01   2.4429914394e+01    0.5307702    0.2084112  57.65  0.001922467    2.599    0.615
        58  -9.7477    100.5296     83.9374   5.5998918357e+01   4.6137738181e+01    0.2281348    0.1444096 -40.66 0.0008138602    1.593    0.372
        59  -9.0400    145.4989     81.4847   4.3120756618e+01   3.6662450418e+01    0.1514123    0.1450931  56.75 0.0008104952    1.003    0.003
        60  -9.6971    215.0717     80.0180   2.9658268184e+01   2.0452572189e+01     0.234595     0.156353 -73.49 0.0008851178    1.686    0.407
        61  -9.6966    221.1602     78.0944   2.8348373574e+01   1.9426600272e+01    0.2745845    0.1677397 -83.93  0.001238628    2.123    0.529
        62  -9.9919    169.5913     76.3522   3.6530448436e+01   3.1770286626e+01    0.2843943    0.2625974  45.61  0.001221042    1.150    0.131
        63  -9.7640    227.3802     72.2230   2.6220912902e+01   1.9033979755e+01    0.2576987    0.1571085 -52.02   0.00131388    1.480    0.324
        64 -11.7219    214.7416     67.5429   2.6891766439e+01   2.2572158949e+01    0.4378616    0.2541089 -48.53  0.002147848    1.604    0.377
        65 -10.6568     75.8364     68.8765   5.9318536996e+01   5.3523511989e+01    0.5073686    0.3177639  11.65  0.002325848    2.018    0.504
        66 -10.1357     83.5425     68.7770   5.6675881217e+01   5.2198795478e+01     0.282344    0.2525903   9.52   0.00146634    1.023    0.022
        67 -10.9275     25.5192     65.2759   7.7328413494e+01   6.0661889630e+01    0.3969873    0.2124307 -48.36  0.001646103    1.591    0.372
        68  -9.3837    179.2076     66.4067   3.2158565621e+01   3.1091573231e+01     0.210752    0.1319193  73.04 0.0009528595    1.701    0.412
        69 -11.0017    233.5201     64.2043   2.3751444430e+01   1.8985189588e+01    0.2466696    0.1767418  72.38  0.001416964    1.390    0.280
        70 -10.0089    218.7170     61.7943   2.5082175878e+01   2.2579527266e+01     0.197029    0.1755235 -28.77  0.001187244    1.415    0.293
        71 -10.7580    210.2349     61.2337   2.6089893959e+01   2.4580546319e+01     0.312132    0.1512138 -43.86  0.001406802    1.952    0.488
        72 -10.0222    148.6556    110.9416   5.0416600171e+01   3.0083179232e+01     0.390063    0.1888021 -48.78  0.001373006    2.158    0.537
        73  -8.9958    132.3130     63.6743   4.1078048768e+01   4.2815100388e+01    0.1462765    0.1147025 -81.20 0.0005872408    1.664    0.399
        74 -11.4098    163.3118    228.9961   7.2372347452e+01   1.1528952167e+00       0.4689    0.2515579 -26.28  0.001849983    2.920    0.658
        75 -10.6335    198.3307     53.0383   2.5857806135e+01   2.8568004374e+01    0.4988464    0.3192536 -13.29   0.00220432    2.806    0.644
        76 -11.3205    215.2952     51.4930   2.3256035239e+01   2.4885792075e+01    0.3809742    0.3245364 -22.43  0.002284703    1.577    0.366
        77  -9.7897    220.2952     53.5723   2.3092869641e+01   2.3463579202e+01    0.2510785     0.121255  72.44   0.00113429    2.139    0.533
        78  -9.7279     35.1320     52.7083   6.9464057032e+01   6.2057401525e+01    0.2064539      0.16234 -42.14  0.001200011    1.347    0.258
        79 -11.0519     85.2015     48.0217   4.9114803085e+01   5.5272822322e+01    0.5077707     0.348072  41.87  0.002745267    1.369    0.270
        80 -11.7117     81.8216     40.0978   4.7377204153e+01   5.7021239042e+01     0.700417    0.3931322 -37.72  0.003523434    1.978    0.495
        81  -9.6520    164.8653     53.6787   3.1384986644e+01   3.6518317084e+01       0.2335    0.2042479 -16.29  0.001312726    1.390    0.281
        82  -9.4253     96.7936     47.1889   4.5261169811e+01   5.3109801204e+01    0.1987227    0.1485158  18.88  0.001072773    1.366    0.268
        83  -9.2958    138.1440     55.9999   3.7432939123e+01   4.2626076498e+01    0.2262826    0.1448965  39.34  0.001020071    1.618    0.382
        84 -11.4226      3.2090     41.1304   7.9762730845e+01   6.6762533861e+01    0.4111325    0.3644116 -40.05  0.002559437    1.368    0.269
        85 -10.5044      6.0734     35.2632   7.6508365094e+01   6.7580989381e+01    0.2670116    0.2137127  31.88  0.001718912    1.771    0.435
        86 -11.7746    241.1158    228.7332   5.6385409079e+01  -1.1211685569e+01     0.562632    0.3072146  32.54  0.003028973    1.809    0.447
        87 -11.6437    248.7395    224.5086   5.4211453163e+01  -1.1609799925e+01    0.5262479    0.3231714 -32.11  0.003040833    1.460    0.315
        88 -11.6485     40.2247     29.4931   5.8762026110e+01   6.5093973749e+01    0.4547639    0.2572848 -31.50  0.002572625    1.670    0.401
        89 -10.9829      3.5903    230.1136   1.0648842098e+02   2.4548523914e+01    0.2502319    0.1413045  44.87  0.001564077    1.665    0.399
        90  -9.7811     97.2911     36.6530   4.1478733791e+01   5.4407589903e+01    0.1237125    0.1060379 -76.44 0.0004812643    1.663    0.399
        91 -11.4852     85.9815     31.0393   4.2778003782e+01   5.7367975709e+01    0.3790891    0.2617312 -24.82  0.002173557    1.558    0.358
        92  -9.9166     90.3552     28.1123   4.0423883403e+01   5.6837066739e+01    0.2744151    0.2228636  -2.92  0.001703651    1.272    0.214
        93  -9.7235    144.4243     27.2056   2.7746603910e+01   4.4840463133e+01    0.2190893    0.1523794 -78.78  0.001137582    1.775    0.437
        94  -9.2891    111.3386    229.3094   8.4037166713e+01   1.0128495852e+01    0.1345984    0.1101551  -3.16 0.0007043986    1.686    0.407
        95  -9.7847     31.9439    227.4790   1.0087668913e+02   2.2059107998e+01    0.1755544    0.1109637  41.10  0.001027029    1.576    0.366
        96  -9.4358    102.8475     25.8598   3.6243481453e+01   5.4483790411e+01    0.2098445    0.1537572  32.69   0.00121602    1.253    0.202
        97 -12.7653    206.0794    218.6215   6.1372617512e+01  -4.2555309047e+00     1.216822    0.7058591   1.95  0.005034371    2.699    0.629
        98 -10.8114    177.3330     24.6779   2.1951874411e+01   3.7243147740e+01    0.2834399    0.1993084 -76.67  0.001569437    1.446    0.309
        99 -10.6594    180.0000     22.9762   2.1184774460e+01   3.6801549683e+01    0.2683849    0.1778079 -44.90  0.001140606    1.600    0.375
       100  -9.5976     12.3101     24.6696   6.9616958121e+01   6.8775756082e+01   0.09243643   0.08807241   3.11 0.0005693235    1.668    0.400
       101  -9.6840    224.1611     22.8961   1.6282272173e+01   2.6720141984e+01    0.2040915    0.1380152 -72.37  0.001243928    1.272    0.214
       102  -9.8260    187.2512     19.4422   1.9444145460e+01   3.5485858835e+01     0.248252    0.1018598  64.99  0.001124073    2.033    0.508
       103 -10.1840    128.4464     18.3876   2.8115672280e+01   4.9507435361e+01    0.3024672    0.1904512  52.01  0.001563811    1.328    0.247
       104 -13.3087    183.5287    217.4559   6.5916225743e+01  -2.0592438374e-01    0.9168499    0.6667575 -14.55  0.004683275    1.561    0.360
       105 -11.1586     50.6674    218.0914   9.6122029824e+01   2.1831492175e+01     0.339835    0.2973851  51.30  0.002111695    1.225    0.183
       106  -9.9190     94.0080     16.9934   3.5409937598e+01   5.7241965446e+01    0.2687251    0.1713035  78.50  0.001304118    2.551    0.608
       107 -10.0320    247.6773     16.3377   1.3052547285e+01   2.2594158210e+01    0.1960768    0.1006839 -67.92   0.00110464    1.723    0.420
       108 -10.0111     20.1047     15.2630   6.1916835579e+01   6.9338537847e+01    0.2914445    0.1440289   0.40  0.001505111    2.463    0.594
       109 -11.1593    158.7505    225.2627   7.2750380217e+01   2.6745651635e+00    0.2803169    0.1951285 -36.80  0.001261502    1.595    0.373
       110 -10.6765     67.3528    217.3632   9.2375216505e+01   1.9706382479e+01    0.2845156    0.1622568 -78.37  0.001068925    1.833    0.455
       111 -10.3529     77.0928    220.1586   9.0528733827e+01   1.7635306257e+01    0.3497492    0.1919358  25.90   0.00153473    2.392    0.582
       112 -12.3635    247.7395    184.4660   4.6724272392e+01  -4.9369174033e+00      1.26553     0.462391 -45.09  0.005010615    2.689    0.628
       113 -12.3421    244.3140    200.7576   5.0531276487e+01  -7.1952843505e+00    0.8506947    0.6432048 -33.49  0.004127525    1.219    0.179
       114 -11.2244    246.7247    192.5777   4.8503839802e+01  -6.1755931995e+00    0.4362769    0.4310693 -46.96  0.002554042    1.374    0.272
       115  -9.9722    141.2975    206.1187   7.3426366926e+01   9.8187596790e+00    0.2388301    0.1894439 -29.50  0.001195342    1.451    0.311
       116  -9.8955     79.9908    199.2476   8.7100457885e+01   2.2080903873e+01    0.2670023    0.1373595  76.84 0.0008963689    3.535    0.717
       117  -9.1565     86.0000    197.9816   8.5455455407e+01   2.1441322608e+01    0.2368212   0.07988726 -60.97 0.0008047269    2.958    0.662
       118 -10.1235     23.8081    198.5997   1.0007462727e+02   2.9531958569e+01    0.1757949    0.1005207  48.84 0.0009196231    1.684    0.406
       119  -9.9937    202.6063    196.8226   5.7880070882e+01   3.4731923714e-01    0.2884109    0.1761162 -42.91  0.001124487    1.635    0.388
       120 -10.6212    204.8040    192.6577   5.6586205774e+01   7.5489711212e-01    0.4542714    0.2315039  27.26  0.001820986    2.375    0.579
       121 -10.1234     37.4700    185.5306   9.5599302501e+01   3.1171004594e+01    0.2286011    0.1696389 -40.35  0.001208406    1.704    0.413
       122 -11.1926    195.9055    184.9907   5.6885838338e+01   3.9015827266e+00     0.438556    0.3125644 -56.07  0.002088405    1.659    0.397
       123 -10.2874     26.4033    180.2206   9.7649904839e+01   3.3661360408e+01    0.1933413    0.1074327 -84.82 0.0009541497    1.691    0.409
       124  -9.1491    172.3370    163.6597   5.7534177846e+01   1.3119189266e+01    0.1613257    0.1268978  88.60 0.0007050736    1.760    0.432
       125  -9.9803    173.3192    158.6843   5.6195909470e+01   1.4015383607e+01    0.1580695    0.1270089  89.63 0.0005212431    1.655    0.396
       126 -10.6347    220.2051    156.1529   4.5850750110e+01   5.0427720114e+00    0.4031582    0.2878363  79.71  0.001800928    2.345    0.573
