#   1 NUMBER                 Running object number                                     
#   2 MAG_AUTO               Kron-like elliptical aperture magnitude                    [mag]
#   3 X_IMAGE                Object position along x                                    [pixel]
#   4 Y_IMAGE                Object position along y                                    [pixel]
#   5 X_WORLD                Barycenter position along world x axis                     [deg]
#   6 Y_WORLD                Barycenter position along world y axis                     [deg]
#   7 A_WORLD                Profile RMS along major axis (world units)                 [deg]
#   8 B_WORLD                Profile RMS along minor axis (world units)                 [deg]
#   9 THETA_WORLD            Position angle (CCW/world-x)                               [deg]
#  10 FWHM_WORLD             FWHM assuming a gaussian core                              [deg]
#  11 ELONGATION             A_IMAGE/B_IMAGE                                           
#  12 ELLIPTICITY            1 - B_IMAGE/A_IMAGE                                       
         1 -15.1942     12.7076    145.9492   1.4137916454e+02   4.3559492832e+01      9.70693     3.365673 -84.99   0.03421384    4.212    0.763
         2 -13.4614    198.7732     28.4663   6.6782970364e+01   3.2321884289e+01     1.493982     1.282915  34.85  0.007630043    1.466    0.318
         3 -13.4391    213.7769     10.0251   6.0724759484e+01   3.0876804907e+01    0.9708519    0.8275141  63.16  0.004060813    1.292    0.226
         4 -11.3915      2.6037      4.1938   1.1202049101e+02   7.1940511168e+01    0.5290297    0.1510344 -38.55  0.002760181    2.704    0.630
         5 -10.6106     28.7475    249.1088   1.4706099251e+02   1.9879808618e+01    0.2593201    0.2006163 -63.04  0.001394866    1.766    0.434
         6 -12.8674    246.7051    244.5151   1.0644196058e+02  -1.3305301391e+01     1.089474    0.4127061  34.10   0.00519477    2.395    0.582
         7 -11.3090     35.8618    244.2558   1.4556145518e+02   1.9949716599e+01    0.5669549    0.3094133 -45.54  0.002721283    4.247    0.765
         8 -10.8650     17.0282    249.8214   1.4897513011e+02   2.1082301298e+01    0.3307182    0.1220947  40.92  0.001836043    2.561    0.609
         9 -11.2008      3.7647    250.0991   1.5103766904e+02   2.2445730273e+01    0.4653069    0.1585006  41.80  0.001148313    2.637    0.621
        10  -9.7262     81.5011    248.9546   1.3799251598e+02   1.2884595562e+01    0.1688901    0.1089969 -75.57 0.0007866275    1.582    0.368
        11 -10.8345     98.4292    248.2800   1.3483186294e+02   1.0426360936e+01    0.3147574    0.1390476  46.91  0.001563067    1.857    0.461
        12  -9.9593    105.4257    246.2241   1.3330339732e+02   9.6951750497e+00    0.1621751    0.1099345 -86.08 0.0005827541    1.626    0.385
        13 -10.9600      5.0703    241.0414   1.5036603898e+02   2.4001423075e+01    0.3064274    0.1948304  22.18  0.001592242    3.122    0.680
        14 -10.1480     17.8473    241.1607   1.4833221648e+02   2.2625443871e+01    0.1742108    0.1051902  71.98 0.0005223675    1.233    0.189
        15 -11.7920    183.9995    238.9690   1.1714581548e+02  -2.4736395815e+00    0.3366143    0.2567713  66.10  0.001317181    1.690    0.408
        16 -11.0579    230.5815    231.8210   1.0714220177e+02  -9.1714217255e+00    0.2445947    0.2215961 -72.97  0.001591355    1.729    0.422
        17 -10.7939     50.2896    235.5255   1.4239273910e+02   1.9837236277e+01    0.2917958    0.1919374  89.60  0.001012652    1.302    0.232
        18 -12.7933    177.0009    249.6604   1.2011897238e+02  -2.9461143900e+00     1.112802    0.3311368  38.24  0.004203489    3.054    0.673
        19 -11.8385    124.4461    232.3810   1.2792630831e+02   9.1246037589e+00     0.910806    0.1690889  39.86  0.002501301    5.455    0.817
        20 -12.1140    109.3390    230.6788   1.3070509382e+02   1.2007852802e+01    0.8878706    0.1679757  47.25  0.002659046    4.633    0.784
        21 -12.2735     92.3310    227.1533   1.3363927238e+02   1.5465929497e+01     1.506716    0.1719047  48.00  0.003496098    8.142    0.877
        22 -10.1926    122.7129    250.1617   1.3050899694e+02   6.1680899679e+00    0.2462381    0.1356634  35.81  0.001258901    1.867    0.464
        23 -12.3946     46.5478    214.3819   1.4122230944e+02   2.4661804283e+01    0.6825805    0.5110994 -75.25  0.003250868    1.275    0.216
        24  -9.4424      4.6596    229.2863   1.4977804732e+02   2.6308446342e+01    0.1157319   0.05677388  67.99 0.0002630416    1.638    0.389
        25 -10.5968     78.7949    218.6344   1.3534234044e+02   1.9307081616e+01    0.2597816    0.1791412  79.13  0.001088102    1.357    0.263
        26  -8.5250    152.4847    212.9494   1.1928853493e+02   7.8285608866e+00    0.1815374    0.1391425 -56.64 0.0003811191    1.440    0.306
        27 -12.4921      9.8744    206.8798   1.4745240625e+02   3.0339681049e+01    0.6141108    0.4130125  35.78  0.002972004    1.860    0.462
        28 -11.6313     58.7097    198.0904   1.3710799422e+02   2.6632980702e+01    0.3343914    0.2297626 -69.34 0.0005729455    1.346    0.257
        29  -9.9865    193.1392    195.4224   1.0767146370e+02   3.3885767725e+00    0.8717509    0.4086709 -63.35  0.001931141    9.410    0.894
        30 -10.8423     10.7000    194.4978   1.4638463907e+02   3.2890528439e+01    0.2543538     0.165765  61.26  0.001694151    1.393    0.282
        31 -11.9228     65.2199    189.6618   1.3470889550e+02   2.7648328799e+01    0.2870977    0.2407965 -59.74 0.0004133723    1.332    0.249
        32 -10.8375     75.7223    176.9013   1.3060715607e+02   2.9096767743e+01    0.2516884    0.2139811 -75.83 0.0003603099    1.090    0.082
        33 -13.2481     62.3244    174.8274   1.3340756511e+02   3.1481535248e+01    0.5308927    0.2795705 -46.73  0.002016551    2.318    0.569
        34  -9.7845     95.6797    172.3894   1.2520139184e+02   2.7008736276e+01    0.3016939    0.2152819  60.73 0.0007247453    1.419    0.295
        35 -11.8201     83.5383    167.7223   1.2733495226e+02   3.0076915989e+01    0.6417967    0.6132972 -71.98  0.003890158    1.167    0.143
        36 -12.7482     31.2379    231.7133   1.4545118398e+02   2.2952487463e+01     0.282488    0.2438976 -80.31 0.0007466861    1.417    0.294
        37  -9.9637     96.4266    152.1963   1.2137735946e+02   3.1685518918e+01    0.3000045    0.2657601 -62.86 0.0008401396    1.084    0.078
        38 -12.0587     84.9758    151.0513   1.2407960330e+02   3.3839870904e+01    0.3076873    0.2493257 -48.03 0.0005385888    1.284    0.221
        39  -9.0782     99.7522    147.8741   1.1967750841e+02   3.2146069835e+01     0.213918    0.1933839 -39.96 0.0005021867    1.218    0.179
        40 -12.2734     67.3696    143.6285   1.2728735703e+02   3.8226994001e+01    0.7056957    0.4602562  66.52  0.003024539    1.848    0.459
        41 -13.7708     36.5031    224.6832   1.4398109537e+02   2.3748281015e+01     0.694623    0.5336363  75.02   0.00236117    1.064    0.060
        42  -9.7056    108.7589    137.0491   1.1505500007e+02   3.3097396736e+01    0.4526008    0.2843498 -23.98  0.001731356    2.690    0.628
        43 -10.5377     95.7545    134.3188   1.1790365100e+02   3.6068213284e+01    0.2565813    0.2242956 -39.44 0.0003706962    1.210    0.173
        44 -10.7474     11.4040    232.3923   1.4885366204e+02   2.5013105514e+01     0.192353    0.1703646  47.42  0.001083788    1.621    0.383
        45  -9.4212     76.3222    129.4403   1.2215912725e+02   4.0336354791e+01    0.2889369    0.1999019  72.08 0.0006518998    1.875    0.467
        46 -11.7543     25.8323    128.4373   1.3577812601e+02   4.6489072266e+01    0.4394734    0.2281387  54.52  0.001405409    2.442    0.591
        47 -11.7502     20.4342    125.6187   1.3679811018e+02   4.7593736792e+01    0.3827653    0.2283492  56.31  0.001416366    2.042    0.510
        48  -8.9655    106.0603    123.7245   1.1271770403e+02   3.6715220889e+01    0.1907334    0.1861641  53.71 0.0002327304    1.076    0.071
        49  -8.4490     68.4908    123.4208   1.2309791966e+02   4.2879013961e+01    0.1382034    0.1244383 -61.76 0.0008052015    1.013    0.012
        50 -10.3455     82.0340    124.8414   1.1959703012e+02   4.0554822989e+01     0.322724    0.2176526  60.47 0.0009367552    1.820    0.450
        51 -10.4374    167.8716    112.9574   9.4552418224e+01   2.5805983299e+01    0.3214051     0.271219 -80.68 0.0005171751    1.328    0.247
        52  -9.2262    203.4450    111.5187   8.6903352411e+01   1.7712300621e+01     0.151623    0.1451155 -55.53 9.761655e-05    1.025    0.024
        53 -10.5713     42.1970     96.7981   1.2520510892e+02   5.2120088246e+01    0.4367957    0.2266175  50.23  0.002016384    2.779    0.640
        54 -10.4342    241.6920     94.4257   7.6525629763e+01   1.2206364370e+01    0.2649982     0.139584  64.67  0.001152437    2.189    0.543
        55  -8.4284     65.3046     81.6471   1.1396137226e+02   5.2573377136e+01    0.1289492    0.1057903 -86.79  0.000505477    1.709    0.415
        56  -9.1121    158.3241     77.3076   8.6990063966e+01   3.5003547400e+01    0.1536689    0.1190539  19.79 0.0004149472    1.648    0.393
        57  -8.6510     57.2338     75.4493   1.1488075357e+02   5.4886514134e+01    0.1611118    0.1221201  44.49 0.0005412351    1.610    0.379
        58  -9.8685     47.5972     69.8958   1.1659110835e+02   5.7136786752e+01    0.2178328    0.1862623  49.57 0.0007406993    1.532    0.347
        59 -12.5007      6.3505     51.4147   1.2665949220e+02   6.4180190808e+01    0.5790522    0.4214284  73.28  0.001157281    2.560    0.609
        60 -11.3365      3.2207     39.1899   1.2446994571e+02   6.6548677861e+01    0.2578346    0.1999336 -72.70   0.00165617    1.837    0.456
        61  -9.2311     66.1518    249.8282   1.4079989273e+02   1.4931887881e+01    0.1442727    0.1258818  69.43 0.0004195995    1.278    0.217
        62 -10.4831     46.5615    248.9313   1.4409911950e+02   1.7725617284e+01    0.2617397    0.1457693  68.22  0.001422316    1.480    0.324
