#   1 NUMBER                 Running object number                                     
#   2 MAG_AUTO               Kron-like elliptical aperture magnitude                    [mag]
#   3 X_IMAGE                Object position along x                                    [pixel]
#   4 Y_IMAGE                Object position along y                                    [pixel]
#   5 X_WORLD                Barycenter position along world x axis                     [deg]
#   6 Y_WORLD                Barycenter position along world y axis                     [deg]
#   7 A_WORLD                Profile RMS along major axis (world units)                 [deg]
#   8 B_WORLD                Profile RMS along minor axis (world units)                 [deg]
#   9 THETA_WORLD            Position angle (CCW/world-x)                               [deg]
#  10 FWHM_WORLD             FWHM assuming a gaussian core                              [deg]
#  11 ELONGATION             A_IMAGE/B_IMAGE                                           
#  12 ELLIPTICITY            1 - B_IMAGE/A_IMAGE                                       
         1 -13.1550    194.9851     32.4855   6.5468050212e+01   3.2941828769e+01     1.095754    0.9380165  65.38  0.005664958    1.188    0.158
         2 -13.9628    208.2792     16.1022   6.0095872755e+01   3.1783588233e+01      1.54819     1.126431  37.46  0.008911978    1.978    0.494
         3 -11.7720      2.4166     14.3705   1.1283827260e+02   7.0893938917e+01     0.662937    0.1916364 -49.29   0.00293451    4.060    0.754
         4 -10.8016    189.6634     15.3084   6.1961104034e+01   3.6214072746e+01    0.2297922    0.1718824 -76.15   0.00074511    1.255    0.203
         5 -11.1107    190.5088    250.0037   1.1441604226e+02  -5.8803321716e+00    0.3758437    0.1310802  39.43  0.001573942    2.485    0.598
         6 -12.0174    139.8260    248.8681   1.2418012633e+02   2.7624692499e+00    0.4890038    0.3390861  53.64  0.002806642    1.318    0.241
         7 -12.2356    126.4700    246.8878   1.2655875838e+02   5.3595290624e+00    0.5756232    0.3969478 -66.60  0.003293135    1.670    0.401
         8 -10.9755    100.8980    249.4891   1.3186862382e+02   9.0302660298e+00    0.4607278    0.2533004  33.31  0.001932809    2.074    0.518
         9 -12.8390    106.7015    245.2097   1.3024806223e+02   8.9222138975e+00    0.9579951    0.3930041  52.87  0.004166771    2.328    0.570
        10 -11.1551     96.4997    244.5086   1.3216149185e+02   1.0681855505e+01    0.2987754    0.2459051  83.05  0.001571348    1.146    0.127
        11 -11.0317     92.9599    249.7272   1.3341543214e+02   1.0223737097e+01     0.378981    0.2595005  46.55  0.001302245    1.292    0.226
        12 -11.5859     89.0128    244.5574   1.3361810135e+02   1.1834855446e+01     0.454178    0.2530379  77.34  0.001473402    2.195    0.544
        13 -12.4972      5.4458    246.3302   1.4867960554e+02   2.2283358633e+01     1.168043    0.6200298  65.56  0.007696103    1.439    0.305
        14 -15.1610      8.7519    209.0108   1.4577030629e+02   2.9628812757e+01     11.79514    0.9685937 -73.63   0.01307521    8.778    0.886
        15 -15.3898     45.9993    202.5387   1.3779731391e+02   2.6947112889e+01     10.91899     4.313041  71.39    0.0350663    4.886    0.795
        16 -11.0383     17.4869    231.5188   1.4575087856e+02   2.3966134378e+01    0.2979387    0.1396228  58.99  0.001698406    1.798    0.444
        17 -11.6638     20.7997    229.4182   1.4501872996e+02   2.4037296643e+01    0.4187371    0.1786861  48.87  0.001904048    2.012    0.503
        18 -13.9052     43.4070    217.3151   1.3978469349e+02   2.3964533220e+01     1.014199    0.6865066  66.46  0.003880432    1.265    0.209
        19  -9.3901    249.6539    229.3215   9.9890116397e+01  -1.1880088443e+01    0.1055582    0.1002321  88.33 0.0006014256    1.735    0.423
        20 -11.1673    149.7005    229.0801   1.1931567090e+02   4.6975381068e+00    0.3993208    0.1658024  46.77  0.001633249    2.238    0.553
        21 -11.5502     52.9913    237.7195   1.3979311463e+02   1.8393182094e+01    0.6422045    0.2044324  54.31 0.0005541879    2.952    0.661
        22 -10.3118     25.5088    226.5104   1.4395588256e+02   2.4118342241e+01    0.1784257   0.09107749 -89.65  0.000153658    1.724    0.420
        23 -14.3400     35.2993    246.5732   1.4368711300e+02   1.8863838427e+01     10.92404      3.06358  30.55   0.02456945   14.760    0.932
        24 -10.2196     51.5060    233.5185   1.3969942951e+02   1.9458567452e+01    0.2305423    0.1356634  49.38 0.0008382711    1.506    0.336
        25 -10.4391    228.2988    204.9754   9.9241800022e+01  -4.8206041893e+00    0.2709572    0.2144569 -49.89 0.0006356392    1.495    0.331
        26  -9.7176    191.9954    192.9948   1.0404082285e+02   3.8595559148e+00    0.4950577    0.2370366 -62.95  0.001371508    5.580    0.821
        27 -11.6151     62.8175    193.4315   1.3310097367e+02   2.6846121189e+01    0.3947438    0.2708143 -41.82  0.002043601    1.983    0.496
        28 -10.7466     53.1517    228.5374   1.3893094828e+02   2.0287654275e+01    0.3677731    0.1869043 -88.71   0.00183525    2.061    0.515
        29  -8.4602    181.5088    192.4331   1.0612468205e+02   5.9876561587e+00    0.1443308    0.1373055  17.07 8.299674e-05    1.028    0.028
        30 -11.7072     68.4436    186.1982   1.3086771156e+02   2.7769065658e+01    0.3032577    0.2528457 -49.64 0.0006037115    1.402    0.287
        31 -11.0332     78.1917    174.3109   1.2679563889e+02   2.9201257707e+01    0.2524241    0.2375643 -83.15 0.0004135192    1.121    0.108
        32 -13.2372     65.2444    171.7691   1.2956057891e+02   3.1707422755e+01    0.5379122    0.2830683 -45.66  0.001545038    2.262    0.558
        33  -9.6791    231.3181    169.3390   9.1509577330e+01   9.6099831582e-01    0.1451422    0.1054789  -5.43 0.0004307933    1.708    0.414
        34 -12.0297     85.6501    165.6322   1.2350575710e+02   3.0161769691e+01    0.9087599    0.5985719  61.20  0.004301569    1.670    0.401
        35 -12.8821     67.3285    144.1214   1.2443735345e+02   3.8214591431e+01     1.119474    0.6804812  88.60  0.002698636    2.299    0.565
        36 -12.0169     57.5131    131.6745   1.2482142263e+02   4.2562094907e+01     2.121791    0.6774679 -70.52  0.004554982    8.495    0.882
        37  -9.0410    101.4368    146.0620   1.1565165216e+02   3.2298662909e+01    0.2873514    0.2148979 -27.37 0.0004914218    1.722    0.419
        38 -12.0410     86.9812    149.0022   1.2008812170e+02   3.4042109665e+01    0.3069573     0.251786 -46.34   0.00048129    1.253    0.202
        39 -10.1380     39.0547    146.7214   1.3241908306e+02   4.1061310839e+01    0.1813547    0.1645357 -83.87  0.000597237    1.106    0.096
        40 -11.3532     99.1209    237.0117   1.3077625221e+02   1.1751786784e+01    0.3495547    0.2305262  86.82 0.0008535942    1.695    0.410
        41  -9.5751    109.8176    135.7006   1.1113875041e+02   3.3265215772e+01    0.3640846    0.2296281 -30.98  0.001476911    2.101    0.524
        42 -10.5334     97.1290    132.6544   1.1389233811e+02   3.6314372703e+01    0.2841042      0.23219 -27.90 0.0003892655    1.414    0.293
        43 -10.2766     28.1142    234.1281   1.4404963996e+02   2.2233805643e+01    0.1674096    0.1387693  85.42 0.0005331271    1.219    0.179
        44  -9.0097    106.8849    122.8913   1.0890186430e+02   3.6852513906e+01    0.2104692    0.1949934 -25.83 0.0003022765    1.149    0.129
        45 -12.5534     16.7285    241.7793   1.4654898120e+02   2.1972171640e+01     1.276212    0.3848126  57.79   0.00316343    2.936    0.659
        46 -10.7843    167.9962    112.9786   9.1073296088e+01   2.5863347518e+01    0.3723267     0.307595 -79.85 0.0006904189    1.360    0.265
        47  -9.5376    204.0971    111.2849   8.3405771423e+01   1.7840502598e+01    0.3788937    0.2198662  32.49  0.001447456    2.645    0.622
        48  -9.7823     98.4058    149.9310   1.1725267680e+02   3.1887850661e+01    0.3003872    0.2642156 -57.26 0.0007424433    1.096    0.088
        49 -11.4775     62.5747    216.6902   1.3586814721e+02   2.1570606700e+01    0.3330412    0.2704699 -61.72  0.000514749    1.406    0.289
        50 -10.9582    248.6676    248.8466   1.0346909682e+02  -1.4399821302e+01    0.3075579    0.1826985 -31.07  0.001876155    1.650    0.394
        51 -10.5512    163.0256    249.9128   1.1975431759e+02  -1.3238753257e+00    0.3660291    0.1362906  49.19  0.001443951    2.822    0.646
        52 -12.7479     36.3456    226.1302   1.4191774436e+02   2.2930640822e+01    0.3462698    0.3017091 -83.50 0.0007941209    1.310    0.237
