#   1 NUMBER                 Running object number                                     
#   2 MAG_AUTO               Kron-like elliptical aperture magnitude                    [mag]
#   3 X_IMAGE                Object position along x                                    [pixel]
#   4 Y_IMAGE                Object position along y                                    [pixel]
#   5 X_WORLD                Barycenter position along world x axis                     [deg]
#   6 Y_WORLD                Barycenter position along world y axis                     [deg]
#   7 A_WORLD                Profile RMS along major axis (world units)                 [deg]
#   8 B_WORLD                Profile RMS along minor axis (world units)                 [deg]
#   9 THETA_WORLD            Position angle (CCW/world-x)                               [deg]
#  10 FWHM_WORLD             FWHM assuming a gaussian core                              [deg]
#  11 ELONGATION             A_IMAGE/B_IMAGE                                           
#  12 ELLIPTICITY            1 - B_IMAGE/A_IMAGE                                       
         1 -11.1153     84.3554    232.7442   1.2160192203e+02   1.7732752560e+01    0.2442089    0.1117903 -61.17  0.001316272    2.494    0.599
         2 -21.2665    142.6370    164.9026   1.0160964746e+02   2.0567948454e+01     10.59721     8.143375  53.98   0.04914197    1.219    0.180
         3 -10.5845     87.9722    230.6604   1.2081212851e+02   1.7571434062e+01    0.1497037    0.1102256  73.48  0.001074848    1.148    0.129
         4 -11.0954    213.9505    227.0387   9.8418429288e+01  -2.1898310348e+00    0.1703562    0.1355428  31.73  0.001175539    1.053    0.051
         5 -10.0394     64.3795    227.1303   1.2448920311e+02   2.1337864841e+01    0.1275327    0.1026677  70.37  0.000986869    1.162    0.140
         6 -10.4747     56.9968    221.3359   1.2529091529e+02   2.3271463873e+01    0.2052328    0.1147045 -72.21 0.0009795458    1.778    0.438
         7 -11.7985     47.2039    214.1970   1.2642842680e+02   2.5726631702e+01    0.3276596      0.21049 -64.48  0.002143668    1.786    0.440
         8  -9.4243    217.9423    216.3258   9.6035824255e+01  -1.5681075692e+00    0.1645415    0.1196005  34.43 0.0003885555    1.120    0.107
         9  -8.9357     61.3460    216.3995   1.2417124962e+02   2.3599404150e+01    0.1085728   0.08029061  73.00 0.0001284373    1.031    0.030
        10 -12.2600    180.5903    246.1529   1.0675354392e+02   9.5385602928e-01     0.220924    0.1707722  50.28   0.00158598    1.209    0.173
        11 -10.2809     54.1594    209.6232   1.2488577626e+02   2.5722706380e+01    0.2036367    0.1333539  72.87 0.0009128333    1.217    0.178
        12 -11.7357     46.1932    207.8372   1.2614064531e+02   2.7005757898e+01    0.1715126    0.1324655  77.26 0.0002934715    1.087    0.080
        13 -10.6949     39.3894    204.9759   1.2711733989e+02   2.8317276580e+01     0.210505    0.1333261  82.33  0.001244482    1.263    0.208
        14  -9.8632     43.7741    200.7548   1.2603589047e+02   2.8610252460e+01    0.1645165    0.1178734 -84.17 0.0003068426    1.243    0.195
        15 -11.9054     42.8941    195.2496   1.2576907175e+02   2.9762108415e+01     0.302247    0.1806812  83.01  0.000649752    1.421    0.296
        16 -10.8308    110.3623    244.8124   1.1834908685e+02   1.2110651041e+01    0.1511863    0.1350836 -25.77  0.001144208    1.860    0.462
        17 -11.7351    151.4424    247.3135   1.1177086615e+02   5.4533736717e+00    0.1308969    0.1046859  52.26 0.0005946918    1.084    0.078
        18 -10.0999     21.8823    158.6300   1.2684371431e+02   3.9340856289e+01    0.1818095    0.1223775 -75.13  0.000447372    1.256    0.204
        19 -11.3230    124.8276    246.6953   1.1613793788e+02   9.6690363921e+00    0.1961636    0.1273436  34.69  0.001265735    1.672    0.402
        20  -9.4059     18.0149    154.6761   1.2730865404e+02   4.0520014023e+01    0.1467577    0.1154721  83.70 0.0003956655    1.082    0.075
        21 -11.5349     20.8903    149.1657   1.2622432079e+02   4.1433312859e+01    0.2182698    0.1501289 -81.97 0.0003574603    1.132    0.116
        22 -10.7395    127.1238    242.5598   1.1533504146e+02   9.9163963930e+00    0.1578389    0.1369497  70.37 0.0008037947    1.195    0.163
        23 -12.0676     27.0266    137.7608   1.2373995447e+02   4.3347085794e+01    0.3563428    0.1774123 -73.45   0.00108964    1.610    0.379
        24 -10.5086    130.8749    245.5769   1.1501884060e+02   8.9041526518e+00   0.08682691   0.07227435 -44.51  0.000626404    1.697    0.411
        25 -10.1241     24.2537    130.9366   1.2364044654e+02   4.5094678139e+01    0.2024939    0.1487524  82.78  0.000356555    1.191    0.160
        26 -10.7883     33.9504    129.4024   1.2114140280e+02   4.4545786841e+01    0.2365554     0.164468 -65.74  0.000488086    1.245    0.197
        27  -9.6459     19.7931    128.1185   1.2438718265e+02   4.6093593218e+01    0.1652868    0.1219628  87.86 0.0003422166    1.131    0.116
        28  -9.7309    208.1103    244.5699   1.0196493116e+02  -3.2454017656e+00    0.0871648   0.06990714 -44.03 0.0006107663    1.754    0.430
        29 -11.4099    170.6563    243.3936   1.0807536698e+02   2.8951350195e+00    0.2708689    0.1572467  60.84  0.001527259    2.098    0.523
        30 -10.9958     84.5904    244.4827   1.2252301525e+02   1.5822967386e+01    0.1081061   0.07810227  63.71 0.0001677105    1.019    0.019
        31 -12.2474    240.5199    113.5559   7.0963457380e+01   8.8135895960e+00    0.4316215    0.3289171   2.81   0.00221732    1.447    0.309
        32 -10.7192     57.7222    244.9250   1.2679487964e+02   1.9240905500e+01    0.0847282   0.04381239  43.22 0.0005343282    1.756    0.430
        33 -11.6469     43.5051    111.8501   1.1621033355e+02   4.7551832795e+01    0.3074931    0.2324138   7.76  0.001861615    1.919    0.479
        34 -10.3789    187.8853    242.7947   1.0509437266e+02   1.8714955955e-01     0.395729    0.1343282  47.18   0.00182507    2.469    0.595
        35 -11.2814    248.9891    107.2462   6.8104910339e+01   7.9679944768e+00    0.3378268    0.2612553  15.27 0.0008612449    1.429    0.300
        36 -10.5680     28.9771    105.8324   1.1920577690e+02   5.0289296830e+01    0.2105046    0.1652109  52.69   0.00109559    1.448    0.309
        37 -11.0842     33.8403    103.4040   1.1749164399e+02   5.0405144780e+01    0.3273791    0.1897956 -47.37  0.000888579    1.727    0.421
        38 -10.1779    213.0757     99.1448   7.2000107970e+01   1.7361952676e+01    0.2678799    0.2308314 -67.53            0    1.347    0.258
        39  -9.8012    223.2372     93.6237   6.8805117571e+01   1.5868945743e+01    0.2907542    0.1959271  41.15  0.001301705    1.575    0.365
        40  -9.7720    219.4944     92.4715   6.9133904537e+01   1.6941429029e+01    0.2602298    0.2162413  53.06 0.0005362137    1.252    0.201
        41 -11.2249    189.5852    238.5184   1.0423225532e+02   4.2991844645e-01    0.2115067    0.1588413  -2.73  0.001367984    1.708    0.415
        42 -10.3124    155.5090    243.4116   1.1063797925e+02   5.3289723816e+00    0.1167117   0.09932674  24.45 0.0006214739    1.361    0.265
        43 -11.0592     59.8277     91.4574   1.0767869241e+02   5.0342358838e+01    0.2989279    0.1602337 -51.40   0.00106326    1.604    0.377
        44 -10.2156     45.0876     92.8451   1.1236920390e+02   5.1696933332e+01    0.1845118    0.1520613 -81.03 0.0003695461    1.180    0.153
        45 -11.3623    185.9441     91.5356   7.5080298298e+01   2.5266497421e+01    0.5063539     0.269299  49.46  0.001433951    1.874    0.466
        46 -10.2798    116.5374    243.0555   1.1715765363e+02   1.1453767043e+01    0.1131983    0.1068367 -74.85 0.0009015952    1.423    0.297
        47 -11.8020     95.5609    240.5781   1.2041140103e+02   1.4903570300e+01    0.2047744     0.134197 -73.28  0.001426848    1.706    0.414
        48 -10.5631    143.6105    241.6285   1.1244851555e+02   7.4708604739e+00    0.1177347   0.08111754  60.57 0.0004246418    1.352    0.260
        49 -10.8073    200.5560     88.9991   7.1560864962e+01   2.2111639202e+01    0.4093692    0.2610394  44.24  0.001782173    1.619    0.382
        50 -11.1500     70.8848     88.5994   1.0369563477e+02   4.9538363826e+01    0.3068422    0.2429377 -10.65  0.001074615    1.633    0.388
        51 -11.3270     46.7297     87.9054   1.1086635214e+02   5.2635341434e+01    0.2352313     0.208295 -53.58 0.0003343296    1.102    0.092
        52 -11.1951    137.9790    249.1283   1.1420834129e+02   7.3116200521e+00    0.1112694   0.09904671  77.01  0.000749417    1.272    0.214
        53 -10.6051    122.7673    240.3903   1.1584600161e+02   1.0905211014e+01    0.1314401   0.08748005  44.33  0.000438814    1.271    0.213
        54 -10.9437    176.4707     83.2397   7.4660124841e+01   2.9098952969e+01    0.3494221    0.2894841 -55.39 0.0008337579    1.294    0.227
        55 -11.0527    184.7152     82.8361   7.2872237311e+01   2.7114608341e+01    0.3638231     0.252341  49.31 0.0004601324    1.445    0.308
        56 -11.7911     62.4709     78.4880   1.0375725530e+02   5.2889250866e+01    0.5141189    0.2066053 -43.51  0.002112423    2.410    0.585
        57 -10.3372    168.0510     75.0442   7.4011354515e+01   3.2658895490e+01    0.3297338    0.2317889  63.63 0.0008618025    1.553    0.356
        58 -10.3024    170.5117     71.9155   7.2547283873e+01   3.2590761338e+01    0.2883883    0.2843877  44.75 0.0005170419    1.021    0.021
        59  -9.4925    199.6693    246.1250   1.0357391594e+02  -2.0850075099e+00    0.1069057   0.05788812  46.95 0.0003232514    1.566    0.362
        60 -10.7457    157.3943     73.5873   7.5902903020e+01   3.5555122712e+01    0.3765952     0.272585  83.00  0.001022281    1.899    0.473
        61 -11.2132     76.4250    239.2010   1.2343072856e+02   1.7760196162e+01    0.1303925   0.09569913  70.79 0.0004365785    1.081    0.075
        62  -9.7375    174.2375     77.8214   7.3539053309e+01   3.0620837501e+01    0.2324433    0.2124387 -58.68  0.000744625    1.149    0.129
        63 -16.6425     12.5890    221.2859   1.3246660128e+02   2.8193695410e+01     3.850963     1.283696 -75.01   0.02265834    2.580    0.612
        64 -12.2818    214.5246    234.7379   9.9484848893e+01  -3.1707217420e+00    0.2920252      0.24233  76.77  0.001529687    2.016    0.504
        65 -11.9281     86.6635     66.9683   9.2802819532e+01   5.1764106906e+01    0.3498498    0.2706551  -7.13  0.000887773    1.554    0.356
        66 -11.3827    113.4646    246.6639   1.1801070710e+02   1.1377797176e+01    0.1584903     0.104862 -71.40  0.001092484    1.809    0.447
        67  -9.6989    169.1806     65.7931   7.0949517671e+01   3.3974363305e+01    0.2359684    0.2139232 -77.78 0.0007621968    1.212    0.175
        68 -10.6288     79.3270     65.0397   9.4519266326e+01   5.3342367420e+01    0.2218052    0.2009823  44.44 0.0002653337    1.263    0.209
        69 -11.4500    137.5633     63.7790   7.7466853970e+01   4.2071110766e+01    0.2811692     0.215075  50.71 0.0005460409    1.331    0.249
        70 -12.2416    129.8464     61.4026   7.8624815702e+01   4.4270765719e+01    0.3479209    0.2897326  58.01  0.001067395    1.295    0.228
        71 -12.1760    108.2700     60.5882   8.4222211961e+01   4.9035838175e+01    0.3571417    0.2591438 -24.13 0.0009718394    1.435    0.303
        72 -10.2089    202.6365    236.7840   1.0178137632e+02  -1.4865433971e+00    0.1456467    0.1295078 -48.92 0.0006229395    1.572    0.364
        73 -11.3923    174.9660    236.5253   1.0646163347e+02   3.0789964541e+00    0.1557985    0.1204098  41.44  0.001072985    1.007    0.007
        74 -10.4779    115.1723    237.1253   1.1680189420e+02   1.2556703020e+01    0.1396681    0.1145689  63.96 0.0007419047    1.100    0.091
        75 -10.5720     56.9734    237.3970   1.2642186036e+02   2.0548856069e+01    0.1326221   0.08818604  57.71 0.0002320859    1.156    0.135
        76 -11.8764    118.7665     49.3311   7.7368221028e+01   4.8834261997e+01    0.2982262    0.2339384 -10.05 0.0009455981    1.361    0.265
        77 -10.0958    140.7392     49.4029   7.1860400790e+01   4.3751242961e+01     0.203044    0.1897912 -30.33 0.0007390279    1.078    0.073
        78 -11.0983    107.1909     47.9009   8.0077141272e+01   5.1526618050e+01     0.240139    0.2065429  39.95 0.0004870544    1.205    0.170
        79 -10.3730    194.9731    235.6843   1.0292418148e+02  -1.0570183496e-01    0.1170492   0.08503374  36.20 0.0003745635    1.070    0.065
        80  -9.4222     74.2244    235.2142   1.2348192312e+02   1.8700237786e+01   0.08384735   0.07182436  59.09 0.0006473965    1.335    0.251
