#   1 NUMBER                 Running object number                                     
#   2 MAG_AUTO               Kron-like elliptical aperture magnitude                    [mag]
#   3 X_IMAGE                Object position along x                                    [pixel]
#   4 Y_IMAGE                Object position along y                                    [pixel]
#   5 X_WORLD                Barycenter position along world x axis                     [deg]
#   6 Y_WORLD                Barycenter position along world y axis                     [deg]
#   7 A_WORLD                Profile RMS along major axis (world units)                 [deg]
#   8 B_WORLD                Profile RMS along minor axis (world units)                 [deg]
#   9 THETA_WORLD            Position angle (CCW/world-x)                               [deg]
#  10 FWHM_WORLD             FWHM assuming a gaussian core                              [deg]
#  11 ELONGATION             A_IMAGE/B_IMAGE                                           
#  12 ELLIPTICITY            1 - B_IMAGE/A_IMAGE                                       
         1 -14.5495     36.5740     83.6881   1.0158590411e+02   5.5523105466e+01     1.936665    0.8437052 -45.56  0.008762069    1.896    0.473
         2 -15.7090     56.9319     70.4599   9.0377624135e+01   5.6150267030e+01     2.676569     1.874614  61.70   0.01288211    2.445    0.591
         3 -14.7243     83.3826     64.5947   7.9075523715e+01   5.3284760472e+01     1.564208      1.06456  -8.93  0.007453986    1.755    0.430
         4 -14.1048     42.4026     42.4740   8.6288208817e+01   6.3430677161e+01     1.043988    0.5718595   5.35  0.003923821    2.480    0.597
         5 -14.4140     35.6276     56.1375   9.4054680137e+01   6.1581434966e+01    0.8399519    0.7549619 -22.30  0.005597082    1.164    0.141
         6 -12.0100     31.7633      3.8297   7.3105856052e+01   7.0526802465e+01    0.5526929    0.2560574  32.13  0.002832954    2.047    0.512
         7 -12.0933     28.4966     10.6293   7.8294140484e+01   7.0096179753e+01    0.4446182    0.2356621 -32.25  0.002034052    1.667    0.400
         8 -14.9403      7.6847     21.7349   9.4271205036e+01   7.0431794874e+01     1.907742     0.635069 -40.84  0.009299272    2.206    0.547
         9 -15.0575     70.8238     58.2169   8.1148388353e+01   5.6574788640e+01     3.646259     2.241719 -64.55   0.01447091    3.309    0.698
        10 -11.8151    217.6988     38.6214   4.2599995156e+01   2.6950306325e+01    0.3238333     0.265406  30.34  0.001730102    1.553    0.356
        11 -14.0602     24.7154     50.2712   9.6736914451e+01   6.3787139999e+01     3.325854     1.112489 -30.36   0.01100237    4.636    0.784
        12 -12.7164     83.0071     22.6846   6.2735489081e+01   5.9853404064e+01    0.5874156    0.3967819  50.80  0.002607135    1.559    0.359
        13 -11.8751     64.5911     18.1657   6.6841737885e+01   6.3786613952e+01    0.4001167    0.2905676  34.83  0.001206436    1.310    0.237
        14 -12.4875    104.4279      4.5426   4.9524012615e+01   5.7133708757e+01    0.6000272    0.5241627  -5.48  0.002746885    1.205    0.170
        15 -11.9996    111.7752      3.6144   4.7629499324e+01   5.5565205765e+01    0.5271248    0.3519353  41.80  0.001783668    1.316    0.240
        16 -12.5430     95.3549      3.6691   5.1228513556e+01   5.9176239554e+01    0.5637354    0.4406277  47.09  0.002904806    1.144    0.126
        17 -12.4638     75.7854     13.4033   6.0879604185e+01   6.2273659142e+01    0.3766567    0.3010187  -4.80 0.0008697585    1.162    0.140
        18 -13.6527     85.1606     12.0128   5.7459747760e+01   6.0569464748e+01     1.250888    0.5445285  52.21  0.005097728    2.113    0.527
        19 -11.7467    115.4297     11.2866   4.9807239270e+01   5.4101957674e+01    0.5015334     0.228117 -22.22  0.002284233    2.317    0.568
        20 -12.5817    123.9256     10.4457   4.7812907340e+01   5.2223402036e+01    0.3174214    0.2363457  50.21   0.00036396    1.188    0.158
        21 -10.0095    242.2285     10.0209   3.3771981723e+01   2.4965458429e+01    0.1472064   0.08843462 -34.57 0.0001971048    1.576    0.365
        22 -10.3855    150.8260      9.0731   4.2883395879e+01   4.5975146028e+01    0.1982035    0.1718725 -66.76 0.0008422778    1.242    0.195
        23 -11.2726    193.0027      6.4512   3.7073337967e+01   3.6182096259e+01    0.3595177    0.1650672 -32.83  0.001444688    2.121    0.528
        24 -13.5499     86.2874      3.6572   5.3484648588e+01   6.1082875096e+01     1.107781    0.4835538  55.53  0.005257517    2.077    0.518
        25 -11.2662    188.1998      5.4069   3.7280918210e+01   3.7398687387e+01    0.2035707     0.173608 -30.36 0.0003616017    1.275    0.216
        26 -11.8745    138.7322      4.7814   4.3302900721e+01   4.9217552027e+01     0.661016    0.2082168  56.00  0.002667942    2.497    0.599
        27 -10.4216    128.8310      5.8251   4.5278067229e+01   5.1466677404e+01    0.1933126    0.1555009  39.62 0.0004004402    1.153    0.132
        28 -11.3956     73.4133      1.5922   5.6133916214e+01   6.3826853216e+01    0.2165683    0.1399264  47.22  0.000663942    1.402    0.287
        29 -13.8781     22.9023     20.2122   8.5765064299e+01   6.9336962820e+01     1.360178    0.6796688  -4.33  0.006425361    2.779    0.640
        30 -11.8407    203.0126    171.8443   7.7596172942e+01   7.5599432470e+00    0.3873516    0.2000283 -36.04  0.001701938    1.837    0.456
        31 -11.9745    121.8275     80.9776   7.2948972968e+01   4.2651793838e+01    0.2945006    0.2472105 -12.63  0.001026286    1.222    0.181
        32 -12.9058    143.9796     75.5716   6.5634946409e+01   3.8751124712e+01    0.5661143    0.4115712 -32.15  0.001379613    1.345    0.257
        33 -12.9011      2.1586     67.2160   1.1070147576e+02   6.1689046296e+01    0.4048389    0.2365646 -75.72  0.002264484    1.776    0.437
        34 -13.2178     41.9780     47.7988   8.8493084315e+01   6.2507758502e+01    0.4926715    0.3368194  12.58  0.001224623    1.544    0.352
        35  -9.9269    182.6047     71.8150   5.6544794236e+01   3.0319763262e+01    0.2028876    0.1301767 -43.93 0.0002711226    1.518    0.341
        36 -10.5581    160.1202     72.2109   6.1021138841e+01   3.5571885682e+01    0.2198185    0.1970251  17.54 0.0003005237    1.179    0.152
        37 -11.4180    124.5122     72.0084   6.9347651961e+01   4.3762797325e+01    0.2353939    0.1442168 -36.32  0.001029176    1.580    0.367
        38 -13.5510    118.5547     66.9063   6.9249521094e+01   4.5969022365e+01    0.8079921    0.4350377 -25.95  0.003252632    2.087    0.521
        39 -10.6943    185.7551    167.5795   8.0199745316e+01   1.1528032636e+01     0.198265    0.1389157  49.50 0.0009482477    1.636    0.389
        40 -12.0041    125.1391     57.4285   6.4305605761e+01   4.6123661562e+01    0.5495523    0.2461266  44.20  0.001871996    2.232    0.552
        41 -12.3390    125.8004     64.3859   6.6491788009e+01   4.4823109130e+01    0.2929676    0.2603649  64.62 0.0009448018    1.288    0.224
        42 -12.7460    129.8998     62.5023   6.4827645664e+01   4.4222334112e+01    0.4750947     0.413476 -66.65  0.001661278    1.389    0.280
        43 -10.8775    169.0367     63.0210   5.6492265882e+01   3.4948906881e+01    0.4711159    0.1896353  54.34  0.001744918    2.450    0.592
        44  -9.9409    214.3695     61.1222   4.8675729289e+01   2.4622891773e+01     0.273321     0.131697 -23.74  0.001084521    2.495    0.599
        45 -10.8383    174.8341     56.7113   5.3574987852e+01   3.4519826338e+01    0.2270704    0.2203534  48.54 0.0004650879    1.052    0.050
        46 -11.9587    134.0035     54.0916   6.1019698694e+01   4.4627871087e+01     0.544863    0.3575081  74.64  0.002365908    2.160    0.537
        47 -10.2150    209.8956     54.9104   4.7686953183e+01   2.6530982434e+01    0.2290143    0.1451421  36.41 0.0008186994    2.081    0.520
        48 -11.7587    153.2956     53.1740   5.6536543504e+01   4.0216739112e+01    0.4756285    0.2645355  35.48  0.001662258    2.171    0.539
        49 -13.7160    238.3344    152.6457   6.6909619853e+01   4.6338652170e+00     2.606372     1.235381 -19.13  0.009626876    3.084    0.676
        50 -12.5511    249.5544    149.0633   6.4278537691e+01   3.3154180718e+00    0.9056787    0.2292666 -36.56  0.003058071    3.328    0.700
        51 -11.8695    199.6419    154.8656   7.4545495619e+01   1.1314660987e+01    0.3621392    0.2960888 -44.22  0.001919848    1.281    0.219
        52 -13.9947      3.1246     46.6818   1.0521147822e+02   6.6011463462e+01    0.8450869    0.7264114  61.44  0.004413753    1.737    0.424
        53 -11.6515     18.4484    154.0203   1.1861055323e+02   4.0138893966e+01    0.2206569     0.143657  60.81  0.001286018    1.594    0.373
        54 -11.5792    145.3496     50.7324   5.7387395697e+01   4.2468362089e+01    0.3135746    0.2776232 -40.18  0.000824491    1.163    0.140
        55 -10.4596    123.2744     50.2565   6.2289045092e+01   4.7657567216e+01    0.1857239    0.1709004 -63.96  0.001031533    1.286    0.222
        56 -11.5851     99.3951     50.2224   6.8788897413e+01   5.2778293623e+01    0.3798221    0.1741187  31.89  0.001414649    2.759    0.638
        57 -10.8828    137.8837     48.8196   5.8365878681e+01   4.4507397189e+01    0.3095585    0.2153777 -76.85  0.001159494    2.234    0.552
        58 -10.6117    138.8133    152.1975   8.7466054629e+01   2.3721627604e+01    0.2158669    0.1801198 -14.81  0.001075451    1.332    0.249
        59 -12.6949     66.5534     45.0905   7.7736545359e+01   5.9581344067e+01    0.4677697    0.3489882  21.36   0.00176704    1.325    0.245
        60 -11.7319    157.4340     43.6646   5.2740053776e+01   4.0557421754e+01    0.3132655    0.2618512  54.30 0.0008696928    1.166    0.143
        61 -10.5994    140.8511     43.8600   5.6065365461e+01   4.4503253377e+01    0.1897833    0.1687852 -64.42 0.0003571693    1.278    0.218
        62  -9.9074    181.7462     43.6196   4.8652138479e+01   3.4692523938e+01    0.1393317    0.1065492  16.22 0.0006962587    1.659    0.397
        63 -12.5527     58.9153    144.5217   1.0686176319e+02   3.8368578091e+01    0.6409303    0.3846091  50.62  0.003115557    1.879    0.468
        64 -10.2150    225.8684     39.5024   4.1917493230e+01   2.5026238106e+01    0.1759561     0.124567  74.03 0.0004733986    1.460    0.315
        65 -13.4354     47.2905    142.1787   1.0964194331e+02   4.0283197973e+01    0.5883641    0.5324076 -15.68  0.003664585    1.349    0.259
        66 -12.0396    121.8121     43.7580   6.0350264066e+01   4.8931501485e+01    0.3194197    0.2781157  27.47 0.0006072416    1.093    0.085
        67 -11.1194    140.4771     35.0581   5.3188762947e+01   4.5734564287e+01    0.2528577    0.1941575  54.61 0.0003059409    1.243    0.195
        68 -11.7179     82.6644     33.8825   6.7571766330e+01   5.8484354121e+01    0.3778053    0.2630902  23.86  0.001314469    1.398    0.285
        69 -12.3945     78.9661     31.2662   6.7688775994e+01   5.9535804257e+01    0.4008876    0.3796354 -18.79  0.001655654    1.277    0.217
        70 -10.0668    176.1059     33.5017   4.6583349238e+01   3.7328857380e+01    0.2051258    0.1300023  64.94 0.0009695601    1.530    0.347
        71 -11.0720     27.2284     30.4160   8.8174732059e+01   6.7229190432e+01    0.3030885    0.1663884 -14.75  0.001578897    1.995    0.499
        72 -13.5782      5.1919     83.5989   1.1281494740e+02   5.7837333813e+01    0.8161163     0.339452 -48.61  0.004105054    1.844    0.458
        73 -10.6959    132.8511     40.6455   5.6693395326e+01   4.6818375878e+01    0.2370608     0.190174 -10.01 0.0006528125    1.307    0.235
        74 -12.1295    213.1389    142.3213   6.9059515424e+01   1.1041491404e+01     0.662925    0.4084266  53.05  0.003037123    1.998    0.500
        75 -11.2822    241.9985     22.6866   3.6532376361e+01   2.3616458514e+01    0.3052123     0.195301 -62.39  0.000989407    1.435    0.303
        76 -11.9198    193.6796    136.2397   7.1394915512e+01   1.6047680267e+01    0.5689771    0.3129995 -24.73  0.002237937    2.157    0.536
        77 -12.5918    199.0770    129.5486   6.8699415091e+01   1.6221051602e+01    0.9959431    0.3244092 -34.43  0.003106315    3.189    0.686
        78 -13.3129    204.5305    124.4697   6.6409959057e+01   1.6048522993e+01    0.9870514    0.6267895 -43.21  0.004552048    1.498    0.332
        79 -11.7226     76.5730    136.7567   1.0058715845e+02   3.7958890545e+01     0.299904    0.1210466 -53.72   0.00115014    2.172    0.540
        80 -11.2675     33.5128    135.8437   1.1246412731e+02   4.3229017628e+01    0.2146623    0.1675487  72.09  0.001272562    1.366    0.268
        81 -10.6743    121.9987    127.0141   8.5871958201e+01   3.2675569704e+01    0.2463341    0.2343774 -27.78  0.001177347    1.025    0.024
        82 -13.3917    219.5144    121.7774   6.3047998477e+01   1.3486046944e+01     0.839266    0.7102079 -83.58  0.004492277    1.587    0.370
        83 -10.3754    183.6594     12.6761   3.9720208953e+01   3.7783253232e+01    0.1344018   0.09080644  39.06 0.0007050982    1.726    0.421
        84 -11.6739    140.5263     98.4939   7.3365621445e+01   3.5114993180e+01    0.2725968    0.2045518 -29.77 0.0008619899    1.326    0.246
        85 -10.7187    142.3113     95.3476   7.2009178644e+01   3.5361447621e+01    0.2665556    0.1935147 -20.07  0.001191917    1.543    0.352
        86 -12.1582    134.7101     92.7676   7.3161222092e+01   3.7544801919e+01    0.4483668    0.2324326 -40.33    0.0010584    1.845    0.458
        87 -11.1044    113.9311     97.0455   8.0035383749e+01   4.0968848062e+01    0.3412221    0.2368173 -53.86 0.0007544652    1.542    0.352
        88 -12.0673    188.5461     94.4822   6.1711449965e+01   2.5045564068e+01    0.3033967    0.2895331 -73.29 4.930339e-05    1.131    0.116
        89 -14.5017     96.2456     71.5739   7.7321919250e+01   4.9616022028e+01     1.240927    0.9902999   6.99  0.002102245    1.339    0.253
        90 -10.8813    246.7795    183.6486   7.1996056046e+01  -1.6824663478e+00    0.2294668     0.151532 -27.53 0.0001912907    1.297    0.229
        91 -14.3384     78.8379     75.3300   8.4206689203e+01   5.1919485698e+01     1.074485    0.8295164  31.40  0.005736816    1.388    0.279
        92 -10.9358     33.9881    177.1975   1.1734038371e+02   3.3269253479e+01    0.1910843    0.1379173 -31.07  0.001094633    2.007    0.502
