#   1 NUMBER                 Running object number                                     
#   2 MAG_AUTO               Kron-like elliptical aperture magnitude                    [mag]
#   3 X_IMAGE                Object position along x                                    [pixel]
#   4 Y_IMAGE                Object position along y                                    [pixel]
#   5 X_WORLD                Barycenter position along world x axis                     [deg]
#   6 Y_WORLD                Barycenter position along world y axis                     [deg]
#   7 A_WORLD                Profile RMS along major axis (world units)                 [deg]
#   8 B_WORLD                Profile RMS along minor axis (world units)                 [deg]
#   9 THETA_WORLD            Position angle (CCW/world-x)                               [deg]
#  10 FWHM_WORLD             FWHM assuming a gaussian core                              [deg]
#  11 ELONGATION             A_IMAGE/B_IMAGE                                           
#  12 ELLIPTICITY            1 - B_IMAGE/A_IMAGE                                       
         1 -13.0711    167.8985     56.4400   7.8144015053e+01   3.5959022907e+01     2.307468     1.434132  74.61  0.009052061    2.311    0.567
         2 -13.1378    139.8883     40.8221   7.9132095440e+01   4.5376580551e+01     6.575873     2.335248  55.72   0.02165177    2.830    0.647
         3 -12.3119     80.7694     47.4752   9.9872628802e+01   5.6818335412e+01     1.620687    0.9659029   4.34  0.006410627    2.836    0.647
         4 -13.4290    178.7584     70.9248   8.0391745522e+01   3.0990943290e+01     2.899341     2.575839   0.14   0.01506726    1.099    0.090
         5 -11.0005    216.4125     29.9359   6.1943893964e+01   2.6991287336e+01     1.561488    0.5205074 -51.76  0.004107772    5.705    0.825
         6 -10.9150    173.2694     24.5627   6.6505386038e+01   3.8812498404e+01    0.4104345    0.3388245 -73.00  0.002083107    1.417    0.294
         7 -10.3226    158.2240     21.8489   6.8222088121e+01   4.3126278659e+01    0.5253298    0.1748288 -28.75  0.001779063    2.871    0.652
         8 -10.3396    128.4769     15.5188   7.2013890402e+01   5.1578009096e+01    0.3139693    0.2744454  -1.16 0.0006120732    1.127    0.113
         9 -11.5146    129.9108     10.9182   6.9779976704e+01   5.1719676210e+01    0.3850902    0.2695273 -14.64 0.0006847712    1.471    0.320
        10  -9.5241    141.8670     12.8299   6.8010167490e+01   4.8429510768e+01    0.2673677    0.2327103 -13.55 0.0004429964    1.186    0.157
        11 -10.4979    159.1597      8.5380   6.3233888413e+01   4.4264679768e+01    0.3629709    0.3229059 -30.29  0.001995453    1.203    0.169
        12  -9.5026    178.3218      2.8044   5.8446797771e+01   3.9630977594e+01    0.2639977    0.2078498  64.85  0.001152308    1.187    0.158
        13  -8.8943    184.1611      1.6400   5.7337365991e+01   3.8169713872e+01    0.3615364    0.1723715  88.42  0.001347853    2.721    0.632
        14  -9.1457    143.5176      2.6091   6.3685725942e+01   4.8978975950e+01    0.3290436    0.2303384   2.36  0.001608521    1.542    0.352
        15  -9.1182    248.6690    211.8699   9.8843913368e+01  -2.2239454022e+00    0.2489221   0.08486205 -37.11  0.001095172    4.249    0.765
        16 -11.9837    112.6820    246.4111   1.2717668836e+02   1.3538736884e+01    0.7493398    0.4867652  49.55  0.003294778    1.194    0.162
        17  -9.7410     10.8068    206.8204   1.4251886430e+02   3.0938391083e+01     0.390631      0.18799  23.04  0.002429537    2.840    0.648
        18  -9.7416    249.8339    193.9723   9.5585037287e+01  -6.0165935696e-01    0.3089268    0.2326201  34.66  0.002073131    1.448    0.310
        19 -10.9856    249.8057    186.7793   9.4292135589e+01   1.6095517851e-01     0.666729    0.4555741  25.30  0.004285342    1.185    0.156
        20  -9.0440    250.0921    175.2186   9.2080118589e+01   1.3794093194e+00      0.30119    0.1419479 -27.06  0.001548813    2.092    0.522
        21 -10.1649    101.0025    175.9933   1.2212792797e+02   2.6454213981e+01    0.1742133    0.1516959  52.29  -0.01509786    1.009    0.009
        22 -10.4736    193.0754    170.5387   1.0158088131e+02   1.1804804987e+01    0.3140477    0.2245454  19.45  0.001468616    1.298    0.230
        23 -11.0293    192.8844    164.2887   1.0042420099e+02   1.2759777030e+01    0.3874227    0.3063452 -11.82  0.002258935    1.295    0.228
        24  -7.9495    235.9290    145.8621   8.8540476171e+01   7.3462453342e+00    0.2129823    0.1522351  10.22 0.0007731127    1.265    0.209
        25  -9.5287     68.1594    144.5097   1.2578116091e+02   3.7230934152e+01    0.4262875    0.1856466  57.30  0.001785977    2.907    0.656
        26  -7.7231    234.2276    132.5577   8.5911687165e+01   9.4188494017e+00    0.1816067    0.1142185  29.59 0.0003328814    1.499    0.333
        27  -7.3006    249.3325    128.3102   8.2438539384e+01   7.1311799839e+00    0.1428512   0.08920809  12.56  0.000342695    1.673    0.402
        28  -8.8195    203.4854    111.7781   8.6623135908e+01   1.8728362219e+01    0.3176569    0.2154277  28.53 0.0008269578    1.471    0.320
        29  -8.7915    239.3812     96.8317   7.6596472343e+01   1.3196206026e+01    0.1899668    0.1215406 -12.56 0.0009159168    1.551    0.355
        30 -12.9349    133.6190     80.5872   9.4104515352e+01   3.9949672992e+01     4.759925    0.9675481  47.93   0.01158146    5.213    0.808
        31 -10.1040    171.0836    247.1445   1.1713101554e+02   5.3883766350e+00    0.2765057    0.1981795  61.88  0.001895188    2.021    0.505
        32  -8.0159    198.0017    245.1971   1.1228695711e+02   1.7611561831e+00    0.1500673    0.1023139  30.38  0.001081439    1.035    0.033
        33  -9.5851    101.9465     69.6911   1.0008690010e+02   4.8586447071e+01    0.2758522    0.2092717 -49.21 0.0004067625    1.355    0.262
        34 -11.3303     55.9620     54.1264   1.1172137772e+02   5.9003122859e+01     1.174359    0.5306032 -35.46   0.00484288    2.501    0.600
        35 -12.0957     65.2473     63.3041   1.1086242473e+02   5.5832670215e+01    0.8364701    0.7108902  -3.48  0.003382605    1.260    0.206
        36 -11.0330     59.4925     58.7872   1.1172741243e+02   5.7558439197e+01    0.6461062    0.3491355 -29.21  0.002842733    2.291    0.564
        37  -9.4928    134.9002     67.1997   8.9579175166e+01   4.2180129901e+01    0.2261653    0.2199701 -81.41 0.0007640271    1.196    0.164
        38  -9.8232     95.4939     66.4964   1.0117825513e+02   5.0426736933e+01    0.4131374    0.1441802  36.72  0.001392174    3.146    0.682
        39  -9.8330    135.8806     61.3802   8.7395390239e+01   4.2996155327e+01    0.3871186    0.2978913 -38.65  0.001331159    1.336    0.251
        40  -8.1727     38.4661     63.5194   1.2111607658e+02   5.8722293111e+01    0.1286757    0.1084214 -53.16 0.0003770581    1.002    0.002
        41  -8.1575    206.9992     82.5042   7.8286212713e+01   2.2397387250e+01    0.2211431    0.1941847 -11.47 0.0004449921    1.078    0.073
        42 -10.8847     94.6286     52.5928   9.6790776036e+01   5.3366638873e+01    0.4574517    0.3529441 -51.91  0.001104803    1.457    0.314
        43 -10.0246     97.5308     38.6376   9.0523260926e+01   5.5358251795e+01    0.4129552    0.1875492  42.00  0.001643962    2.213    0.548
        44 -10.5509    162.1535    243.2352   1.1823589447e+02   7.1145642540e+00    0.2681906    0.2181068  68.30  0.002012891    1.725    0.420
        45  -8.8891    131.8852     90.8335   9.7537905901e+01   3.8307698387e+01    0.2033317    0.1849102 -74.39 0.0005074515    1.312    0.238
        46  -9.8190     15.7302     41.2707   1.2539354179e+02   6.5319556446e+01    0.1919785    0.1759831 -55.55  0.001394777    1.165    0.142
        47 -10.5855    128.0079     48.0073   8.4844140805e+01   4.7118154098e+01    0.4242485     0.318813  13.42 0.0009347338    1.467    0.318
        48 -10.3738    124.2316     67.8176   9.2737879585e+01   4.4441523060e+01     0.462521    0.3328964 -52.00 0.0009140758    1.605    0.377
        49  -8.2709    180.6635    242.9296   1.1497723308e+02   4.4874508431e+00    0.1426157    0.1124313  28.45 0.0003173685    1.122    0.109
        50  -9.5882     87.2818    243.4157   1.3130549775e+02   1.7169221566e+01    0.2036159   0.08154631  34.96  0.001143941    2.170    0.539
        51 -10.1409    107.9867     36.1894   8.6156431621e+01   5.3576218262e+01    0.8507302     0.172556  46.50  0.002297441    4.574    0.781
        52  -8.6127    139.5621     28.9385   7.4758006605e+01   4.7122328477e+01    0.2687628    0.1891935  38.87 0.0003828746    1.355    0.262
        53  -9.6458    188.5833    233.0741   1.1234270311e+02   4.4331989067e+00    0.2250325    0.1654021  52.48  0.001049101    1.713    0.416
        54  -8.9330     79.8744     22.1330   8.9781482096e+01   6.1496132668e+01    0.2219254    0.1799539 -24.89  0.000473868    1.168    0.144
        55  -8.2991     84.8813     21.3455   8.7549084848e+01   6.0669594207e+01    0.2189516    0.1790121 -30.84 0.0004101046    1.255    0.203
        56 -11.1951    113.6939    238.1891   1.2628141679e+02   1.4527489866e+01    0.4174885    0.3063048  43.76  0.002163381    1.029    0.028
        57  -9.0106    189.9336     36.7586   6.7743524068e+01   3.2967139871e+01    0.2587711    0.2015868   1.22 0.0006437384    1.386    0.279
        58  -9.4742    164.8123    230.8265   1.1629995803e+02   8.2366824049e+00    0.2665245   0.06651691  35.81  0.001009268    3.523    0.716
        59  -9.2106    249.5128    229.0150   1.0143423476e+02  -3.9301510389e+00    0.1462944   0.09412229 -14.14 0.0008531396    1.576    0.366
        60  -8.3636     35.6349     16.6878   1.0736189592e+02   6.8883018359e+01    0.3424153    0.1454012 -21.75  0.001160792    4.563    0.781
        61  -8.7727    190.0133     15.3567   6.0971100224e+01   3.5342426308e+01    0.2618992    0.2098531 -29.08 0.0006742536    1.272    0.214
        62 -10.4290     73.6180    249.4151   1.3399701923e+02   1.7940034845e+01    0.6525689    0.1226192  38.96  0.002981113    3.407    0.707
        63  -9.9525     74.8925     17.3333   8.9463755021e+01   6.3153199004e+01    0.2358397    0.1966995 -24.94 0.0003190874    1.183    0.155
        64  -9.4697     96.4828    233.5069   1.2893846714e+02   1.7451781518e+01    0.1557053   0.09482965 -49.84   0.00103444    2.296    0.564
        65 -10.5946    118.4278    222.2485   1.2388450707e+02   1.6173835210e+01    0.3251704     0.206165 -40.63  0.002048441    2.257    0.557
        66 -10.6392    115.7971    219.4043   1.2408659568e+02   1.6970103240e+01    0.3750546    0.2337666  20.92  0.002181286    2.098    0.523
