#   1 NUMBER                 Running object number                                     
#   2 MAG_AUTO               Kron-like elliptical aperture magnitude                    [mag]
#   3 X_IMAGE                Object position along x                                    [pixel]
#   4 Y_IMAGE                Object position along y                                    [pixel]
#   5 X_WORLD                Barycenter position along world x axis                     [deg]
#   6 Y_WORLD                Barycenter position along world y axis                     [deg]
#   7 A_WORLD                Profile RMS along major axis (world units)                 [deg]
#   8 B_WORLD                Profile RMS along minor axis (world units)                 [deg]
#   9 THETA_WORLD            Position angle (CCW/world-x)                               [deg]
#  10 FWHM_WORLD             FWHM assuming a gaussian core                              [deg]
#  11 ELONGATION             A_IMAGE/B_IMAGE                                           
#  12 ELLIPTICITY            1 - B_IMAGE/A_IMAGE                                       
         1 -11.5609      7.2802     17.4045   1.1070226277e+02   6.9830623820e+01    0.3872314    0.1836645 -41.50  0.001308835    1.848    0.459
         2 -11.5335     36.8155     20.6949   9.8854126891e+01   6.6413679964e+01    0.4161318     0.276636  41.33  0.002658629    1.917    0.478
         3 -11.2336    131.7213     16.9564   6.9875955558e+01   4.9419893717e+01    0.5007073    0.1434824  47.47  0.001866206    3.134    0.681
         4 -12.1668    113.1147     15.2453   7.3106304154e+01   5.3683503569e+01    0.3986205    0.2555905  65.30  0.001752793    1.546    0.353
         5 -11.5387     80.6273     14.8428   8.1147611003e+01   6.0240133752e+01     0.262257    0.2085034 -22.01  0.001750769    1.386    0.278
         6 -11.4361     59.1713     15.3673   8.8170475521e+01   6.3876902185e+01    0.2607229    0.1875682 -33.30 0.0004750745    1.638    0.390
         7 -12.5753     26.0538     13.0458   1.0024314141e+02   6.8623773874e+01    0.2449306    0.1849523  15.47 0.0004828617    1.239    0.193
         8 -11.0388     65.1634     12.9423   8.5170889742e+01   6.3151252855e+01    0.3654591    0.2013499  18.17  0.001973566    2.002    0.500
         9 -11.8017     49.7137      9.0035   8.8915275459e+01   6.5987355133e+01    0.4633683      0.30805  30.53  0.003111074    1.276    0.217
        10 -11.7426    175.4371      9.1271   6.1027001702e+01   4.0076987859e+01    0.3469886    0.1715193 -41.78  0.001782629    2.141    0.533
        11 -10.4521      2.3286     10.8875   1.1048738109e+02   7.1105263788e+01    0.2021089    0.1191497  22.81 0.0008730791    1.783    0.439
        12 -10.8568      7.0973     10.2663   1.0787761109e+02   7.0812914829e+01    0.1557794    0.1200116  16.84 0.0003825453    1.474    0.321
        13 -12.5973    209.2183      5.5164   5.6572038075e+01   3.2734568933e+01    0.4036763    0.2140207 -60.65 0.0004569186    1.842    0.457
        14 -10.6309     74.8206      9.2583   8.0705088695e+01   6.1824877595e+01    0.1852367    0.1533046 -22.16  0.001010383    1.389    0.280
        15 -11.5356     39.5918      5.0985   9.1091959639e+01   6.7824326645e+01    0.3031925    0.1895346 -35.86    0.0018563    1.992    0.498
        16  -9.9483    108.4977      8.4341   7.1849354827e+01   5.5274408588e+01    0.1249451    0.1005652  44.49 0.0008066806    1.037    0.036
        17 -10.7362     87.6972      7.4712   7.6452039599e+01   5.9574033601e+01    0.1949681    0.1520297  -1.06 0.0004806551    1.339    0.253
        18 -11.5113     24.6437      6.8389   9.8159665836e+01   6.9509681436e+01    0.2135946    0.1517556 -27.83 0.0006214703    1.473    0.321
        19 -11.3058     19.3364      7.2892   1.0076337043e+02   7.0035793121e+01    0.2901139    0.1392649  22.27 0.0008453079    1.940    0.485
        20 -10.1893    236.3754      7.1612   5.4575461961e+01   2.6680693090e+01    0.1589185   0.08675194 -52.48 0.0003964608    1.611    0.379
        21 -11.7865    194.9866      3.5447   5.7529767568e+01   3.6131576551e+01    0.3067797    0.1689031  69.51  0.001165403    1.514    0.340
        22 -10.7815     62.2609      6.1414   8.3361397739e+01   6.4282040810e+01    0.2513081    0.1371572  45.87  0.001479641    1.651    0.394
        23 -11.4572    161.1116      3.3314   6.1397533732e+01   4.3929427406e+01    0.2883731    0.2011817 -80.64  0.001717861    1.490    0.329
        24 -11.7950     74.6484      2.9383   7.8286289670e+01   6.2399744634e+01     0.329934    0.2747405  46.26  0.002359726    1.241    0.194
        25 -10.8953     31.0190      3.3027   9.3801123587e+01   6.9130218531e+01    0.2393544    0.1358365 -19.17  0.001142023    1.610    0.379
        26 -10.6762    218.1840      2.9979   5.5252517680e+01   3.1021645731e+01    0.1693006    0.1345158  31.54  0.001083848    2.008    0.502
        27 -10.6333     91.4053      2.6975   7.3773569045e+01   5.9236893378e+01    0.1967655     0.152881  49.26 0.0002593494    1.128    0.113
        28 -10.9119     11.2902      2.6183   1.0247049189e+02   7.1383721435e+01    0.1937195      0.15227 -18.52 0.0009921985    1.350    0.259
        29 -11.8703    180.9162      2.8047   5.8860744784e+01   3.9414130127e+01    0.3978369    0.2032499  63.30  0.001726657    1.636    0.389
        30 -10.5021    191.2997    240.3288   1.1073004513e+02  -4.5850608315e+00    0.2326587     0.181266  10.92  0.001376546    1.282    0.220
        31  -9.9827    200.2406    249.7475   1.1050385677e+02  -7.5012782527e+00    0.1730072    0.1281106  10.47 0.0005374935    1.331    0.249
        32 -10.1482    149.3750    250.7586   1.2077746490e+02   5.8022474418e-01    0.2842752   0.09722623  38.25 0.0008749682    2.572    0.611
        33 -10.0657    118.3400    250.6801   1.2701294396e+02   5.6988252366e+00    0.2080391    0.1509748  72.68 0.0007319129    1.497    0.332
        34 -11.1222    115.2059    249.7957   1.2753142946e+02   6.3708803618e+00    0.3574194     0.279163  -1.54  0.001994087    2.051    0.513
        35 -12.0895    106.3181    248.4808   1.2915049879e+02   8.0431861907e+00    0.5531185     0.320437  44.57  0.002446371    1.475    0.322
        36 -12.4840    109.5611    244.7327   1.2804767011e+02   8.2498590718e+00    0.4042817    0.2791723  85.48  0.002220964    1.701    0.412
        37 -11.1954     91.9658    250.2760   1.3219001883e+02   9.9304290810e+00    0.1819041    0.1526963  60.34 0.0009548136    1.054    0.051
        38  99.0000     45.4432    244.5590   1.4050700734e+02   1.7612438655e+01    0.5950009    0.4409338  81.51  0.001295795    1.106    0.096
        39 -12.5704     19.5284    210.9441   1.4272060439e+02   2.7780739787e+01    0.3891709    0.3000234 -73.97 0.0005619983    1.267    0.211
        40 -13.4796      9.3715    214.6085   1.4494781304e+02   2.8006180726e+01     1.226437     0.760837  88.96  0.007832303    1.270    0.213
        41 -13.9173     40.6154    202.3553   1.3762358488e+02   2.7366107358e+01      1.32027     1.115804  88.29  0.004721992    1.076    0.071
        42 -12.7710     46.8430    218.9341   1.3797366838e+02   2.2861884760e+01    0.6211166    0.3153312 -53.57  0.001270289    2.316    0.568
        43 -14.6900     10.5753    232.9516   1.4595768673e+02   2.4012810195e+01     1.054698     0.824283 -58.20  0.007541983    1.708    0.415
        44  -8.1797     44.5552    236.3339   1.3999207519e+02   1.9414831732e+01    0.8395414    0.3563729  61.49  0.003743942    2.357    0.576
        45 -11.7480     47.4329    232.3797   1.3909941829e+02   1.9879658252e+01    0.6147554    0.2787047  75.77  0.002085324    2.756    0.637
        46 -12.5314     23.3391    220.1332   1.4270941233e+02   2.5365212471e+01    0.4720799    0.2767733  85.85  0.001663255    1.460    0.315
        47 -13.3427     29.7180    217.1786   1.4123341791e+02   2.5299734181e+01    0.7805399    0.3034637 -52.93  0.002527481    3.328    0.700
        48 -15.4832     14.3757    246.6944   1.4615359044e+02   2.0837248153e+01     1.252096     1.018057  25.36  0.008627646    1.924    0.480
        49 -13.3789     30.2343    247.9004   1.4349492124e+02   1.8805613052e+01    0.6185558    0.2760855 -89.86   0.00185544    2.244    0.554
        50 -14.0933     34.5827    243.1162   1.4237513316e+02   1.9248594420e+01    0.5548664    0.3430088 -76.92  0.001992688    1.478    0.323
        51 -13.3556     37.4945    225.3964   1.4041409875e+02   2.2604358139e+01    0.3772458    0.2790497 -80.50  0.001581322    1.218    0.179
        52 -13.3873     37.7441    218.9368   1.3980029998e+02   2.3979657157e+01    0.5766581    0.3740387  89.72  0.002618507    1.332    0.249
        53 -10.5642    183.6850    240.1056   1.1221952762e+02  -3.2977471013e+00    0.2108264    0.1646064  43.37 0.0004577719    1.256    0.204
        54 -10.0187    172.4815    239.4385   1.1438419602e+02  -1.3117993821e+00    0.2175263    0.1562058  42.61  0.000517511    1.279    0.218
        55 -10.7723    168.4510    238.8493   1.1511545729e+02  -5.2721368505e-01    0.2611597    0.2222551 -69.52  0.001095156    1.478    0.323
        56 -10.1249     98.6737    249.4965   1.3078579479e+02   9.0484412703e+00    0.2013441    0.1701155  29.69 0.0004949041    1.415    0.293
        57 -11.6788     83.7298    238.2106   1.3250784481e+02   1.3590793720e+01     0.240776     0.202816  71.67 0.0004833093    1.032    0.031
        58 -10.0052     87.4407    236.4460   1.3155910381e+02   1.3391845710e+01    0.2067381    0.1565132 -55.47 0.0006346327    1.542    0.352
        59 -10.5840    157.2910    237.7843   1.1725026573e+02   1.5664341405e+00    0.3051006    0.1845655  42.95  0.001552464    1.474    0.322
        60 -10.4286    161.9806    235.2068   1.1587625427e+02   1.2320561056e+00    0.2461845    0.1884531 -34.50 0.0008205497    1.490    0.329
        61 -11.8164    154.4351    232.6504   1.1705030810e+02   3.0104029840e+00    0.4571688    0.2389844  47.72 0.0007794595    1.837    0.456
        62 -10.8579    132.9534    232.9591   1.2162470575e+02   6.6654138146e+00    0.2213005    0.1869209  78.21 0.0004884294    1.271    0.213
        63 -11.1879    138.0563    236.8121   1.2111088713e+02   5.0436002032e+00    0.7302626    0.1417578  40.59  0.002146663    4.380    0.772
        64 -10.5876    119.7431    233.6351   1.2450624117e+02   8.7726251512e+00    0.2650122    0.1851713 -67.14 0.0009037169    1.589    0.371
        65 -10.9422    116.1606    237.8578   1.2582141153e+02   8.5253543047e+00    0.2421186    0.1797148  45.39  0.000621422    1.194    0.162
        66 -10.9940    187.7670    236.5952   1.1082061913e+02  -3.3817064175e+00    0.3122702    0.1530873  26.50   0.00133917    2.354    0.575
        67 -10.5136    124.4020    236.7185   1.2395205114e+02   7.3771088740e+00    0.1750258     0.124327 -44.27 0.0009411938    1.694    0.410
        68 -10.4723    173.7025    233.9687   1.1325301674e+02  -5.5585783949e-01    0.2916232    0.1822739  27.84 0.0009158112    1.611    0.379
        69 -10.7747    181.3882    235.3072   1.1189916707e+02  -2.0950547603e+00    0.2759023    0.2074758  27.49 0.0007394389    1.226    0.184
        70 -10.3064    178.7131    232.0622   1.1190844820e+02  -1.0731283766e+00    0.2382155    0.2050895  29.67 0.0004401228    1.042    0.041
        71 -10.9080    110.2312    235.0450   1.2668765362e+02   1.0065333206e+01    0.2312592    0.1767355  35.58 0.0006904858    1.343    0.255
        72 -10.7528    219.3066    232.1257   1.0384688579e+02  -7.7159166867e+00     0.332184    0.1831581 -39.38  0.001717836    1.866    0.464
        73 -11.3571    196.2399    232.9821   1.0851108407e+02  -4.1731452107e+00    0.4211574    0.2176224  46.60 0.0008603458    2.071    0.517
        74 -11.1900     81.2957    232.0012   1.3230982823e+02   1.5249797921e+01    0.2426813     0.190872 -71.97 0.0003924571    1.298    0.230
        75 -11.9020     59.8001    232.4236   1.3668575257e+02   1.8237358818e+01    0.4163987    0.2321385  76.85  0.001327705    1.899    0.473
        76 -10.7443     55.6137    228.5130   1.3713672607e+02   1.9635728160e+01    0.2056121    0.1494154 -56.72 0.0006999925    1.626    0.385
        77  -9.7352    231.2314    233.3805   1.0181740235e+02  -9.7051594813e+00     0.164349    0.1092248  40.38 0.0005540922    1.619    0.382
        78 -11.7948    144.3084    232.2480   1.1912051377e+02   4.8450667831e+00    0.4353334     0.201552  43.84 0.0007981263    1.934    0.483
        79 -11.5578     78.8765    223.2803   1.3180975573e+02   1.7482529460e+01    0.3966785    0.1990206 -66.18  0.001356755    1.994    0.498
        80 -11.4474     75.4419    228.4766   1.3311726352e+02   1.6867224170e+01    0.4556673    0.2531807 -49.26  0.002233184    2.294    0.564
        81 -11.3865     72.1694    226.1788   1.3353735336e+02   1.7838438830e+01    0.3754192    0.2762178  76.64  0.002217973    1.234    0.190
        82 -11.3833     94.8382    228.5242   1.2908378313e+02   1.3898842510e+01    0.3953248    0.2940292  69.61 0.0009822496    1.278    0.217
        83 -10.6338     88.0967    231.2901   1.3082673510e+02   1.4366611220e+01    0.3254417    0.1569867  47.60  0.001538175    1.831    0.454
        84 -10.8953     90.1193    228.1448   1.3002846157e+02   1.4719578616e+01     0.208677    0.1733133 -82.89 0.0002664599    1.181    0.153
        85 -11.0307    235.8983    229.0024   1.0017593552e+02  -9.7255484929e+00    0.2878118    0.2525539  76.09  0.001700593    1.954    0.488
        86 -11.3026    158.3436    225.7053   1.1511531599e+02   3.6458631667e+00    0.3899918    0.2200206 -61.52  0.001089013    2.360    0.576
        87 -11.7438    111.4204    227.2122   1.2539329822e+02   1.1480718172e+01    0.2890919    0.2217833 -57.07  0.001269157    1.422    0.297
        88  -9.7009    241.3038    227.6643   9.8947377607e+01  -1.0305756796e+01    0.1079738    0.1018091 -73.51 0.0005159792    1.666    0.400
        89 -11.0272    152.0209    226.8674   1.1664754785e+02   4.5375520377e+00    0.2001446    0.1938762 -35.27 0.0002864471    1.137    0.120
        90 -10.0848    133.9461    227.3326   1.2058371711e+02   7.6139564234e+00    0.1950325    0.1583004  41.56 0.0003214031    1.134    0.118
        91 -10.3214    164.3379    225.3814   1.1379216514e+02   2.6489065533e+00     0.239004    0.1660359 -33.02 0.0009726944    1.673    0.402
        92  -9.8157    143.4691    223.4245   1.1793327496e+02   6.7278600109e+00    0.1397407    0.1245066  51.77 3.693253e-06    1.047    0.045
        93 -10.1696    121.6040    225.0766   1.2290577759e+02   1.0205495474e+01    0.2636319    0.1577744  47.40 0.0009398262    1.517    0.341
        94  -9.9208    228.1556    223.8432   1.0068822883e+02  -7.7650578767e+00    0.1721115    0.1308982  -2.91 0.0002663046    1.259    0.206
        95  -9.6070    178.4816    224.5156   1.1068026392e+02   3.2615257940e-01    0.1364156    0.1241832  25.52 0.0001364582    1.011    0.011
        96 -10.4224    106.6446    223.4369   1.2590338303e+02   1.3070053199e+01    0.2739483    0.2274164  79.44  0.001595763    1.172    0.147
        97 -10.2215    249.4328    221.8384   9.6433511055e+01  -1.0583642707e+01    0.2904988   0.09939248 -31.18  0.001134787    3.216    0.689
        98 -10.3259    188.2409    220.9887   1.0804622197e+02  -7.3035698463e-01    0.4409032    0.1393349 -39.14  0.001479639    3.693    0.729
        99  -9.6812    137.6290    222.1186   1.1899142878e+02   8.0249411477e+00    0.1891477    0.1277618 -41.47 0.0009378126    1.726    0.420
       100 -10.5093     85.0201    221.3841   1.3028016144e+02   1.6966971129e+01    0.1978271    0.1784559 -76.22 0.0006458217    1.191    0.161
       101 -11.1231    196.5062    220.4060   1.0625496471e+02  -2.0489016265e+00    0.3144827    0.2167752 -57.23  0.001603983    1.899    0.474
       102 -10.7882    194.2839    216.4071   1.0598522391e+02  -9.5020898057e-01    0.2182966    0.1803886  83.60 0.0009254708    1.798    0.444
       103 -10.0553    125.4485    220.9266   1.2145979159e+02   1.0407658618e+01    0.1913189    0.1190812 -88.06 0.0008074011    2.492    0.599
       104 -11.2229     62.9744    219.9399   1.3476245277e+02   2.0504554792e+01     0.252432    0.1716416  71.52    0.0005516    1.359    0.264
       105 -10.1884     52.5492    220.9353   1.3701062722e+02   2.1687447292e+01    0.3602931    0.1426187  40.97  0.001655684    2.330    0.571
       106 -10.9100    133.3733    219.1800   1.1945979678e+02   9.3824213815e+00    0.3446833    0.2123759  29.85 0.0004436312    1.798    0.444
       107  -9.7811    117.8127    220.5191   1.2306654480e+02   1.1811240307e+01    0.1909395    0.1165119  53.24 0.0005040717    1.581    0.368
       108 -10.1959     94.6635    220.1754   1.2805520104e+02   1.5721752132e+01    0.1849789    0.1182758 -55.58 0.0009409707    1.677    0.404
       109 -10.3108    222.1170    218.7093   1.0089681151e+02  -5.9901733738e+00    0.2190096    0.1693264 -39.90 0.0008875538    1.373    0.271
       110  -9.1112    203.6649    219.2988   1.0461465226e+02  -3.0679225968e+00    0.1264058    0.1079669  71.48 0.0007032679    1.653    0.395
       111 -11.0998    217.6961    217.6761   1.0155747819e+02  -5.1082713568e+00    0.2287348    0.2080941  20.73 0.0006588752    1.144    0.126
       112 -12.3939    107.5002    215.5376   1.2461156346e+02   1.4634990678e+01    0.5703232    0.4318433 -26.40  0.002220135    1.956    0.489
       113 -10.4923    107.0565    210.0000   1.2390419833e+02   1.5934433363e+01    0.5631961     0.150738  44.09  0.001829199    3.389    0.705
       114 -10.4711    100.5378    217.5323   1.2642309543e+02   1.5351069335e+01    0.2486091    0.2276505  51.51 0.0007090301    1.140    0.123
       115 -11.4301    102.9561    214.1089   1.2541366671e+02   1.5707001075e+01    0.3614964    0.2957098 -60.30 0.0002922356    1.292    0.226
       116 -11.6603     84.9660    215.2332   1.2952075953e+02   1.8335243520e+01    0.4294858    0.2923768  53.27  0.002273452    1.347    0.257
       117 -10.5602     85.8143    211.5834   1.2886210793e+02   1.9023898452e+01    0.2274885    0.1737563  84.33 0.0003457539    1.273    0.214
       118 -10.4860    236.1689    216.7693   9.7900062885e+01  -7.8577019199e+00     0.181668    0.1661122  -9.06  0.000637613    1.165    0.142
       119  -9.8511    162.7389    217.2886   1.1276620260e+02   4.4958535820e+00    0.3065902    0.1353565  33.79  0.001190891    2.379    0.580
       120 -10.4300    141.7575    217.2167   1.1731073531e+02   8.2950685269e+00    0.2023952    0.1812475  60.64  0.000643536    1.093    0.085
       121 -11.9173     67.5038    207.3461   1.3235887499e+02   2.2709086407e+01    0.7828906    0.4177555  87.67  0.002442165    2.372    0.578
       122  -9.8760     70.4966    203.5126   1.3122427677e+02   2.3166413811e+01    0.4845433    0.2697068 -81.05  0.002257452    1.947    0.486
       123 -10.5882     73.2526    217.3689   1.3230783801e+02   1.9615247851e+01    0.1901477     0.178349  88.20 0.0004821218    1.202    0.168
       124 -11.2560     76.6647    216.0763   1.3142301800e+02   1.9402002560e+01    0.3709726    0.2277992  71.57  0.001307225    1.743    0.426
       125 -10.4493    146.5889    215.4256   1.1595772610e+02   7.7930431679e+00     0.264243    0.1737755 -47.49 0.0007474453    1.640    0.390
       126 -11.0051    132.6702    214.7522   1.1891544273e+02   1.0436299508e+01    0.3147138    0.2599418  35.10  0.001284409    1.210    0.173
       127 -11.8804    125.9362    215.5108   1.2052586781e+02   1.1468022556e+01    0.2798522    0.2272425  55.31 0.0004036835    1.151    0.131
       128 -10.2702    121.9312    212.3137   1.2092036474e+02   1.2860539329e+01    0.1970371    0.1665157  48.38 0.0003519418    1.105    0.095
       129 -11.0827    117.7657    212.0061   1.2180433399e+02   1.3655058365e+01    0.3175517    0.2204729  38.79 0.0004583091    1.405    0.288
       130 -10.7516    117.9675    207.9772   1.2113485450e+02   1.4507303159e+01    0.3197487    0.2265794  79.79 0.0007728769    1.708    0.414
       131 -10.9439    121.4945    199.1355   1.1889700829e+02   1.5863463020e+01     0.418639    0.2877218  76.07  0.001812875    1.847    0.459
       132 -10.8160    117.3481    204.0494   1.2065408695e+02   1.5492405602e+01     0.287004    0.2515662   5.24  0.001566248    1.451    0.311
       133 -11.1972    121.2087    203.2012   1.1963343962e+02   1.4999050070e+01    0.2847868    0.2414123  69.51 0.0004906303    1.169    0.144
       134 -10.5795     59.4039    215.5775   1.3503806279e+02   2.1964222397e+01    0.3382185    0.1910671 -50.30  0.001081966    2.175    0.540
       135 -10.8399     57.7443    211.5305   1.3494831053e+02   2.3099511217e+01    0.3461562    0.2469022 -40.85  0.001887017    2.006    0.501
       136 -13.4024     28.2396    231.2674   1.4264402887e+02   2.2441319283e+01    0.5912364    0.4093203  88.87  0.001140555    1.175    0.149
       137 -11.1508    172.3183    215.0069   1.1031906452e+02   3.2106545423e+00    0.2353616    0.1897278  43.11 0.0003431634    1.191    0.160
       138  -9.9056    199.5587    214.4248   1.0455004832e+02  -1.5058238111e+00    0.2130744    0.1314491 -42.05 0.0001636693    1.670    0.401
       139 -10.7236    199.9727    211.0177   1.0383555603e+02  -9.6170289842e-01    0.1903991    0.1735408  -1.89 0.0003515853    1.029    0.028
       140 -10.5525    217.4990    212.5050   1.0063619932e+02  -4.1969781847e+00    0.2490852    0.1799712  22.19 0.0006938335    1.369    0.269
       141 -10.5850    161.6274    213.0682   1.1227520658e+02   5.5345783829e+00    0.4669274    0.1694193  42.08  0.001708606    2.567    0.610
       142 -10.4266     94.8349    210.4403   1.2670527407e+02   1.7854477649e+01    0.4169189    0.1873856 -45.63  0.001625037    2.931    0.659
       143  -9.7858    143.7899    211.1783   1.1586421709e+02   9.1831424207e+00     0.195945    0.1651686  17.42   0.00105211    1.342    0.255
       144 -11.7981     80.5089    208.4000   1.2962073470e+02   2.0560723114e+01    0.4604803    0.2723651 -80.21   0.00187424    1.837    0.456
       145  -9.8308    214.2998    210.3044   1.0084673930e+02  -3.2841597005e+00    0.1370817   0.09821681  -2.01 0.0002307135    1.589    0.371
       146 -10.2541    184.4116    198.9984   1.0478882639e+02   4.1270764488e+00    0.2044061    0.1772909 -36.02 0.0005023823    1.168    0.144
       147 -10.4613    184.0124    210.0285   1.0694664995e+02   2.0555162542e+00    0.2033968    0.1878677  12.01 0.0003337306    1.027    0.026
       148 -12.6862    183.3710    204.5833   1.0606984275e+02   3.2226348144e+00    0.3954959    0.3018355 -35.35 0.0009201462    1.352    0.260
       149 -11.8854     22.8567    228.1845   1.4341133837e+02   2.3696603645e+01    0.2925453    0.1784623 -79.78 0.0003136005    1.395    0.283
       150 -12.0084    239.5306    206.2414   9.5310250526e+01  -6.6628944527e+00    0.6344715    0.3158878 -19.91  0.002594147    2.904    0.656
       151 -10.6334    249.0294    202.3182   9.2865231531e+01  -7.4668857129e+00    0.1761639    0.1527743  -6.19 0.0005406301    1.058    0.055
       152 -11.6754    245.1001    199.9853   9.3113522367e+01  -6.4879726122e+00    0.2696591    0.1843596  32.27 0.0006829559    1.526    0.345
       153 -12.1936    239.2599    198.6212   9.3898861288e+01  -5.3486606398e+00    0.2842671    0.2615658 -48.28 0.0001946033    1.333    0.250
       154 -11.6463    128.5413    208.0883   1.1876342525e+02   1.2607189877e+01    0.3793094      0.32121 -29.64  0.001494355    1.433    0.302
       155 -10.6081      2.5090    206.1810   1.4565618875e+02   3.0483825502e+01    0.2869491    0.2070701  86.09  0.001573493    1.030    0.029
       156 -11.2675    199.5707    205.3384   1.0284898704e+02   1.5278229774e-01    0.2922184    0.2566542  82.32   0.00108309    1.540    0.351
       157 -10.6952    144.7563    205.0873   1.1460557176e+02   1.0295179578e+01    0.2650409    0.2399197 -36.94  0.001481655    1.204    0.169
       158 -10.7844    133.8046    206.5502   1.1732167143e+02   1.1990912218e+01    0.2309009    0.2026704  88.77 0.0004123528    1.205    0.170
       159  -9.0763    141.3048    208.6205   1.1598543456e+02   1.0177338932e+01    0.1504841    0.1099589  78.31 0.0007025555    1.779    0.438
       160 -10.0907     91.3209    200.2490   1.2605480336e+02   2.0754635274e+01    0.3101218    0.1049443  44.57  0.001119843    2.775    0.640
       161 -11.3563     98.7061    205.3307   1.2510540099e+02   1.8382311598e+01    0.2458461    0.2207813  67.59 0.0002809379    1.032    0.031
       162 -11.5723     95.8984    200.4336   1.2502721077e+02   1.9969961452e+01    0.3192928    0.2207257 -58.85 0.0005266552    1.454    0.312
       163 -11.6540    129.1657    241.0587   1.2355721123e+02   5.7350205062e+00    0.3574226    0.1692634  42.87  0.001641616    1.830    0.453
       164 -10.8859     59.4560    204.0806   1.3373640573e+02   2.4574555694e+01    0.2245978    0.1655606  59.32 0.0003713621    1.256    0.204
       165 -10.2051    137.7250    202.5561   1.1575441375e+02   1.2142325650e+01    0.2594644    0.1978386  23.63  0.001290123    1.511    0.338
       166 -11.4555     52.4466    202.1056   1.3504397547e+02   2.5956681079e+01    0.2550896    0.2129177 -60.23 0.0003822579    1.335    0.251
       167 -11.1615    166.9478    202.0530   1.0913249162e+02   6.7820500232e+00     0.209133    0.1993762  15.26 0.0002908171    1.041    0.039
       168 -11.1244    190.5913    200.7705   1.0382860385e+02   2.6384790412e+00    0.2511635    0.2245769 -50.12 0.0006067706    1.220    0.180
       169 -12.4036    188.5459    196.0621   1.0334715960e+02   3.9367476711e+00    0.4171119    0.2749194  31.80 0.0003728922    1.552    0.356
       170  -9.9062    171.6936    201.3263   1.0796204779e+02   6.0394168680e+00    0.2084101    0.1345707 -73.54 0.0004353553    2.613    0.617
       171 -11.0130    149.9912    200.5765   1.1262898667e+02   1.0283464967e+01    0.2627383    0.2098739 -51.18 0.0005704679    1.309    0.236
       172 -10.0003     86.8807    201.3403   1.2722966503e+02   2.1205404321e+01     0.187117    0.1714789  71.14 0.0006119785    1.078    0.072
       173 -11.3353    207.1195    199.0556   1.0011601136e+02  -1.9117516851e-02    0.3122377    0.2653882 -64.51 0.0009336504    1.494    0.331
       174  -9.8627    177.5251    199.0318   1.0626697042e+02   5.4086355895e+00    0.2228271    0.1772759  38.54 0.0001871475    1.217    0.178
       175 -10.5019    161.7252    198.3879   1.0960220174e+02   8.5291337002e+00    0.2448401    0.1718931 -28.17 0.0009010279    1.729    0.422
       176 -10.7224    102.8718    198.7839   1.2316279260e+02   1.9192856382e+01    0.2241332    0.1858234 -54.90 0.0003658192    1.277    0.217
       177 -12.3771    109.6713    197.7229   1.2141294454e+02   1.8274527518e+01    0.2858146    0.2523918  67.73 0.0002965298    1.062    0.059
       178 -11.5146    105.9685    194.4828   1.2175884353e+02   1.9665506591e+01    0.3151287    0.2736675 -20.45 0.0004208619    1.498    0.333
       179 -12.3870    228.6041    195.1001   9.5176364365e+01  -3.0068624270e+00    0.5483951    0.3329503 -24.90  0.001783978    1.755    0.430
       180 -12.6143    216.5481    193.0193   9.7068685930e+01  -5.6707604480e-01    0.5070598    0.4688679 -72.22  0.000769724    1.367    0.268
       181 -11.3823    210.6756    191.6357   9.7947370162e+01   7.3185066274e-01    0.2849538    0.2329504 -71.61 0.0009652021    1.681    0.405
       182 -10.7111     82.3572    195.9786   1.2751353526e+02   2.3164272780e+01    0.2146868    0.1741144  70.41 0.0003535155    1.157    0.136
       183 -12.6457     53.0891    192.9038   1.3383264050e+02   2.8029004852e+01    0.3486116    0.3222429 -51.27 0.0004522143    1.339    0.253
       184 -10.9987     60.6555    187.7148   1.3144038062e+02   2.8269848806e+01    0.2468073    0.2111404  62.53  0.000746666    1.147    0.128
       185 -11.1249     70.1728    195.8456   1.3030798977e+02   2.5008266880e+01    0.3154645     0.248644 -23.28  0.001128396    1.930    0.482
       186 -12.7218     66.3424    191.2107   1.3057751346e+02   2.6652226373e+01    0.5353462    0.3056948  40.02  0.000948639    1.780    0.438
       187 -13.3470     19.3531    200.5568   1.4189464789e+02   3.0119432399e+01     1.115232    0.8970636 -59.80  0.007529062    1.437    0.304
       188 -11.5211      4.4752    195.5653   1.4449764827e+02   3.2654306533e+01    0.1985286    0.1528709 -87.25 7.993414e-05    1.065    0.061
       189 -12.1231      1.8517    192.7838   1.4481154844e+02   3.3504878784e+01    0.3147887    0.1460842 -68.07 0.0004332121    1.760    0.432
       190 -10.3437    199.4496    195.2623   1.0092678891e+02   2.0776600752e+00    0.2322937    0.1761177  62.06 0.0007221798    1.721    0.419
       191 -10.7122    140.0177    194.6761   1.1383503218e+02   1.3450824851e+01    0.2400871    0.2077853 -63.41 0.0007785994    1.199    0.166
       192 -10.3509     95.5554    194.9981   1.2428745946e+02   2.1295170712e+01    0.2269514     0.194944  25.80 0.0003984215    1.386    0.278
       193 -11.0276    250.1487    193.9806   9.1067970672e+01  -6.2665710310e+00    0.2243561    0.1820506 -15.60 0.0006645506    1.091    0.083
       194 -12.6486    245.8981    190.7950   9.1190976769e+01  -5.0710909544e+00    0.6088817     0.404647   6.42  0.001571919    1.884    0.469
       195  -9.9642    114.0493    194.0000   1.1977730669e+02   1.8368065465e+01     0.255064    0.1453209  40.46 0.0006024342    1.716    0.417
       196 -11.9117    120.1775    190.2781   1.1769382342e+02   1.8131722440e+01    0.5560015    0.4058586  10.60    0.0023225    2.028    0.507
       197 -10.8308    163.5489    191.6317   1.0791380815e+02   9.6091856896e+00    0.5249453    0.2287978 -42.33  0.001338414    2.459    0.593
       198 -10.0689    148.2207    192.5694   1.1156196455e+02   1.2357905398e+01    0.2116996    0.1405933  28.89 0.0008280725    1.690    0.408
       199 -10.0136     86.2620    191.9918   1.2601994236e+02   2.3501141339e+01    0.2199682    0.1783891  67.22 0.0004667412    1.176    0.150
       200  -9.9774     80.5033    189.4233   1.2700231528e+02   2.5006585019e+01    0.1965891    0.1227775  48.39 0.0002805528    1.569    0.363
       201 -10.3726     83.8335    188.3684   1.2605382371e+02   2.4746154686e+01    0.3160789    0.2201507 -55.35  0.001610776    1.446    0.308
       202 -11.4388    188.3001    190.6916   1.0234262007e+02   5.0512056327e+00    0.2604527    0.2471682   0.66 0.0006809128    1.014    0.014
       203 -11.7558    192.8942    188.2564   1.0089109857e+02   4.6675475157e+00    0.5342146     0.327959  34.62  0.002451041    1.679    0.404
       204 -10.3939    177.9615    189.4112   1.0430318285e+02   7.2897699332e+00    0.2722646    0.2071001 -63.64 0.0009744908    1.571    0.363
       205 -10.8489     91.5602    189.2285   1.2434188702e+02   2.3313562787e+01    0.3086618    0.2308143 -66.79 0.0007462762    1.290    0.225
       206 -10.2801     62.8906    196.0003   1.3199057383e+02   2.5994727675e+01    0.2082719    0.1679008  79.50 0.0005720276    1.109    0.098
       207 -11.9769    130.2433    188.1918   1.1493843567e+02   1.6754872504e+01    0.3742484    0.3553513   6.05  0.001674499    1.190    0.160
       208 -12.8829      6.8752    182.0409   1.4290220379e+02   3.5509608107e+01    0.7116402     0.387181 -88.24  0.001854924    1.567    0.362
       209  -9.9188     17.1367    187.8528   1.4122989499e+02   3.3240599311e+01    0.1699446    0.1382143  83.64 0.0005232422    1.073    0.068
       210 -12.0380     15.8887    183.1127   1.4105865094e+02   3.4455486753e+01    0.4390291     0.279923 -55.50  0.001641468    1.632    0.387
       211 -10.3910    221.4826    186.5817   9.4832149614e+01  -2.4872921944e-01    0.3084019     0.191495  52.74 0.0009166482    2.016    0.504
       212 -10.7769    104.7417    187.0324   1.2082621515e+02   2.1631181090e+01    0.2716259    0.1908919  64.02 0.0007695137    1.531    0.347
       213  -9.9242     42.5594    187.4976   1.3558386922e+02   3.0608210590e+01    0.1318721    0.1092366 -86.75 5.154777e-05    1.021    0.021
       214 -11.6844    225.7761    184.1200   9.3522895205e+01  -5.4891253273e-01    0.3307875    0.2834815 -44.61 0.0003100819    1.216    0.177
       215 -11.0555    136.8879    185.8546   1.1293764491e+02   1.6032118544e+01    0.2320811    0.2074876  -2.05  0.001213489    1.328    0.247
       216 -10.1370     67.8457    185.5018   1.2944625130e+02   2.7810055053e+01    0.2930077    0.1710374 -88.62 0.0009537666    2.017    0.504
       217 -10.7911     27.3422    179.8934   1.3819177782e+02   3.4088693125e+01    0.3033224    0.2263688  65.17  0.001367093    1.293    0.227
       218 -11.4462     33.1516    185.4715   1.3748126175e+02   3.2156221889e+01    0.3360003    0.2966141  10.84   0.00160852    1.585    0.369
       219 -10.1391     29.5465    183.5076   1.3807990722e+02   3.3006186202e+01    0.2005882    0.1528339 -64.67 0.0006109475    1.264    0.209
       220 -11.4796    230.1861    181.1161   9.2094892244e+01  -7.6739490279e-01    0.4553124    0.2498643 -57.47  0.001861271    2.735    0.634
       221 -10.8982    177.3137    183.0411   1.0316785920e+02   8.7435779184e+00    0.4118601    0.3115073  24.90  0.001422102    1.450    0.311
       222 -10.2428    172.9219    183.2425   1.0417328826e+02   9.5648839766e+00    0.2281197    0.2171257   8.91 0.0005299964    1.060    0.056
       223 -10.5525    156.7331    184.6543   1.0809516206e+02   1.2448140633e+01    0.3960592    0.2805305  16.34  0.001757256    1.878    0.468
       224 -11.0490    122.2414    182.7777   1.1585926167e+02   1.9503686663e+01    0.4680076    0.2663947  59.95  0.001685981    2.193    0.544
       225 -11.1786    103.6209    183.1156   1.2043484757e+02   2.2758542270e+01    0.2719054    0.1874045  53.81 0.0008032672    1.459    0.315
       226 -10.6697     44.3540    182.8273   1.3462173574e+02   3.1508859079e+01     0.281947    0.1639678 -88.96   0.00139037    1.760    0.432
       227 -10.4633     47.8530    181.8069   1.3368051331e+02   3.1332493025e+01    0.2580796      0.19937 -28.96 0.0004447269    1.856    0.461
       228 -10.0102     61.6622    179.3307   1.3006513390e+02   3.0158416909e+01    0.2851783    0.1694733  82.09  0.001290516    2.039    0.510
       229 -11.3733     58.0009    180.8668   1.3115592455e+02   3.0273514318e+01    0.3308437    0.2669117 -70.64  0.001030488    1.131    0.116
       230 -11.1040     54.2326    180.3989   1.3199233789e+02   3.0875402868e+01    0.3974405    0.2369577  59.99  0.001396905    1.780    0.438
       231 -10.9865     91.9439    180.0490   1.2277672546e+02   2.5459737647e+01    0.3212995    0.1982803 -62.16 0.0007205037    1.563    0.360
       232  -9.5241    153.6796    180.2886   1.0793224927e+02   1.4017694177e+01    0.1525267    0.1191047  77.56 0.0004106545    1.600    0.375
       233 -10.6003    132.0780    180.5052   1.1306857370e+02   1.8183175485e+01    0.2244853    0.1463998  42.67 0.0004216798    1.508    0.337
       234  -9.7873    126.9872    180.4438   1.1428130333e+02   1.9164032386e+01    0.2273555    0.1443319  43.54 0.0004275421    1.547    0.354
       235 -10.2887     83.1128    179.8891   1.2492016795e+02   2.6906399964e+01    0.2351064    0.1848418  76.94  0.001240817    1.286    0.223
       236 -12.0444     72.6346    178.2046   1.2723029106e+02   2.8894112663e+01    0.4321153    0.3474464  18.46  0.002338951    1.614    0.380
       237 -12.0482     78.8093    174.1024   1.2506289746e+02   2.8980622425e+01    0.5102768    0.3187071  47.51  0.002451704    1.623    0.384
       238 -10.6092     39.4965    179.0354   1.3529735906e+02   3.2981488553e+01    0.3383669    0.1663949 -49.45  0.001140879    2.273    0.560
       239 -10.6818    107.2275    172.7761   1.1771010496e+02   2.4618831712e+01    0.3251467    0.2211227 -40.39  0.001483268    1.688    0.408
       240 -12.2269    104.2089    178.2322   1.1944348696e+02   2.3830270309e+01     0.958585    0.5249085  73.94     0.003186    3.552    0.718
       241 -10.8000    237.3362    178.1176   9.0189107761e+01  -1.4527512613e+00     0.210356    0.1767521  14.21  0.000383579    1.247    0.198
       242 -10.8947    118.6018    177.8509   1.1583419111e+02   2.1340560112e+01    0.3386327    0.2142152  34.10 0.0004856722    1.707    0.414
       243 -12.1163    136.7650    173.5637   1.1058620233e+02   1.8891176287e+01    0.6641074    0.3569936 -60.98 0.0009047009    2.150    0.535
       244 -11.2018     31.7677    176.2267   1.3677027324e+02   3.4499670812e+01    0.2528588    0.1981913 -88.97  0.000688543    1.078    0.073
       245 -10.9861    189.1187    174.0716   9.8772668337e+01   8.2841096158e+00    0.4792692     0.308724  64.93  0.001992668    2.264    0.558
       246 -10.5899    131.9458    174.2494   1.1188856346e+02   1.9668920160e+01    0.2863148    0.2275771  -9.66 0.0009186706    1.719    0.418
       247 -11.5333    172.1759    173.6417   1.0236515725e+02   1.1772635406e+01    0.2663628    0.2324574 -29.61 0.0002051331    1.187    0.158
       248 -11.2765    157.7040    173.4376   1.0560889805e+02   1.4744223917e+01    0.4121625    0.2504716  42.39  0.001252889    1.637    0.389
       249 -10.2316     94.0179    173.9557   1.2123078183e+02   2.6600989340e+01    0.2212692    0.2011134 -83.60 0.0004218035    1.022    0.022
       250 -11.4640     86.7290    170.6509   1.2249801288e+02   2.8596607145e+01    0.4826592    0.2217823 -69.33  0.001780656    2.578    0.612
       251 -10.4770    233.1505    171.1656   8.9523182371e+01   5.3765667906e-01    0.2742416    0.1990969 -79.23  0.001275428    2.399    0.583
       252 -11.3800     13.0619    170.1494   1.4042819976e+02   3.7735664954e+01    0.2312636    0.1960619 -52.27            0    1.370    0.270
       253  -9.8350    178.5804    171.4720   1.0049403892e+02   1.0943887051e+01    0.1490245    0.1450636 -26.51 3.377427e-05    1.012    0.012
       254 -11.6139     64.3549    170.4839   1.2811494764e+02   3.1955162614e+01    0.4085076    0.2856646  30.36  0.002122777    1.666    0.400
       255 -10.0974    109.0640    169.4239   1.1662336435e+02   2.5103442007e+01    0.2543854    0.2011908 -87.18 0.0009079565    1.388    0.280
       256 -10.8517    101.0110    176.0058   1.1984329621e+02   2.4921303424e+01    0.2971746    0.2145256  60.47  0.001436753    1.458    0.314
       257 -11.3470     31.3299    169.5294   1.3609083782e+02   3.6149173303e+01    0.2434952    0.1830954  87.10 0.0002006346    1.197    0.164
       258 -10.9671    114.8120    168.7742   1.1505261660e+02   2.4214494560e+01    0.2585271    0.2337887  55.47 0.0004295461    1.100    0.091
       259 -10.5246     73.5497    166.0191   1.2507855838e+02   3.1753921993e+01    0.3966373    0.1222961 -58.24 0.0009285983    2.855    0.650
       260  -9.7402      5.7372    169.0165   1.4197631942e+02   3.8610713061e+01    0.1602284    0.1257027 -83.61 0.0004251792    1.022    0.022
       261  -9.8952      1.8030    169.1261   1.4286505306e+02   3.8893969557e+01    0.1566165    0.1104701 -64.47 0.0003243033    1.284    0.221
       262 -10.4393    195.2485    168.0636   9.6214296383e+01   8.3047749992e+00    0.2062775    0.1895454 -33.00 0.0004508649    1.050    0.048
       263 -11.4314     49.5330    165.2977   1.3107220189e+02   3.5138673856e+01    0.4799607    0.2620012 -50.64  0.002290947    1.839    0.456
       264 -10.5833     47.5109    159.0121   1.3067742210e+02   3.6920071935e+01     0.266955     0.121655 -70.07 0.0005518001    2.047    0.511
       265 -10.8663     81.9549    166.2382   1.2295860746e+02   3.0433900810e+01    0.3664009    0.2018629  24.75  0.001500576    2.467    0.595
       266 -10.0180     40.7284    166.5285   1.3343204556e+02   3.5862897749e+01    0.1676391    0.1172924  52.62 0.0009292068    1.496    0.332
       267 -10.8700    159.2254    164.4551   1.0336233073e+02   1.6449993491e+01    0.2787895    0.2078966 -47.90 0.0002718845    1.335    0.251
       268 -10.4937    123.7165    165.3189   1.1213612090e+02   2.3370870914e+01    0.2780586    0.2147698  25.67  0.001312933    1.508    0.337
       269  -9.6980     25.7077    171.6811   1.3766912569e+02   3.6202235285e+01    0.1250524   0.08504387 -49.83 0.0003070052    1.604    0.377
       270 -10.3779    203.3573    162.2134   9.3302452682e+01   7.8819112693e+00     0.297476     0.219673 -57.28  0.001440294    1.491    0.329
       271 -10.9261    143.8318    162.8357   1.0666514427e+02   1.9977430602e+01    0.2140894    0.1808607  81.86  0.001039722    1.341    0.254
       272 -10.5486    101.4749    163.0439   1.1734618357e+02   2.8003542317e+01    0.3113317    0.2010408  16.32  0.001266259    2.391    0.582
       273 -10.4175     10.3334    162.7150   1.4029970285e+02   3.9710534533e+01    0.3059663    0.1395619  52.56  0.001507606    2.436    0.589
       274 -10.7523    162.5346    158.3703   1.0127131869e+02   1.7128377439e+01    0.4789859    0.1504128 -51.35  0.001377798    3.555    0.719
       275 -11.0943    190.7370    157.2888   9.4815109181e+01   1.1461798641e+01    0.3399637    0.2725817  79.72  0.001638031    1.600    0.375
       276 -11.9938    107.3777    158.1260   1.1485430144e+02   2.8158702929e+01    0.2842892    0.2569772 -72.83 0.0003020096    1.067    0.063
       277  -9.9290     91.8326    159.3872   1.1916033420e+02   3.0542527266e+01    0.1931908     0.144987  21.06 0.0002781606    1.666    0.400
       278 -12.1373     33.8632    157.8485   1.3399274193e+02   3.8707989027e+01    0.5078084    0.2321586  52.33 0.0004758239    2.575    0.612
       279 -10.0272    223.2329    158.4044   8.8658434495e+01   4.7617618915e+00    0.1897464     0.138879  58.07 0.0009457442    1.644    0.392
       280 -10.4657    145.5054    158.0442   1.0522875656e+02   2.0746961344e+01    0.2415309    0.2063255  45.25 0.0006599232    1.178    0.151
       281 -10.1725     52.6655    157.8022   1.2916338832e+02   3.6597153935e+01    0.1967999    0.1155995 -74.51 0.0006132413    1.642    0.391
       282 -11.7318     24.3069    158.0285   1.3640510156e+02   3.9601831024e+01    0.2009464    0.1802533  47.62 0.0002014704    1.305    0.234
       283  -9.4667     11.2881    158.2943   1.3960547164e+02   4.0672730661e+01    0.1849598   0.07016102 -53.27 0.0003018047    2.436    0.589
       284 -10.4462     12.1311    154.4926   1.3898204341e+02   4.1501460956e+01     0.246297    0.1549173  67.25  0.001401377    1.709    0.415
       285  -9.5592      5.4445    158.3931   1.4100314597e+02   4.1108153684e+01    0.1207392    0.0950213 -77.92 0.0002127574    1.032    0.031
       286 -10.4752    136.6640    151.5687   1.0597821885e+02   2.4073197305e+01    0.4143829      0.19252  36.44  0.001467947    2.411    0.585
       287 -10.7700    140.0021    156.9917   1.0634219890e+02   2.2119603194e+01    0.2328331     0.219848  86.34   0.00121252    1.071    0.067
       288 -10.7357    137.5125    154.5312   1.0641999541e+02   2.3203889265e+01    0.3702913    0.2260534 -42.89  0.001544732    1.689    0.408
       289 -10.7441    183.9860    156.0847   9.5981114766e+01   1.3122002980e+01    0.2241967    0.2191412 -56.11 0.0003626865    1.028    0.028
       290 -10.8757    113.2770    154.0847   1.1249201462e+02   2.8058330220e+01    0.3447333    0.2582528 -73.37  0.001210422    1.472    0.321
       291  -9.7422     85.6843    154.7185   1.1990567031e+02   3.2695241597e+01    0.1429005    0.1142304 -25.14 0.0002343811    1.577    0.366
       292 -10.5372     36.0350    153.2407   1.3280645484e+02   3.9601680624e+01    0.3016204    0.1661407 -80.06  0.001008654    1.812    0.448
       293 -10.9622    225.1905    151.2471   8.6768513112e+01   5.7658481649e+00    0.3474838    0.2744442 -81.92  0.001769181    1.707    0.414
       294 -10.7714    249.0719    150.9825   8.2627309307e+01   1.4224150716e+00    0.2080411    0.1799954 -40.97 0.0004013046    1.044    0.042
       295  -9.3088    123.4990    150.4885   1.0907691048e+02   2.6967581512e+01    0.1557222    0.1491828 -82.26  0.000409463    1.020    0.020
       296 -10.0933    124.2095    155.8890   1.1005760208e+02   2.5534872344e+01    0.2319168    0.2041254  79.75 0.0007601112    1.203    0.169
       297 -10.4464     98.7374    149.0120   1.1528370156e+02   3.1923257142e+01     0.208143    0.1883055 -62.28 0.0002292763    1.050    0.047
       298 -10.2873      3.3215    149.6672   1.4060116604e+02   4.3300755012e+01    0.1253368   0.07738388  73.88 0.0007049758    1.701    0.412
       299 -10.7297     20.4771    151.2935   1.3652858972e+02   4.1560488251e+01    0.4509321    0.1779212 -54.04  0.002052746    2.212    0.548
       300 -10.6023     14.5361    143.4955   1.3706872570e+02   4.3910926038e+01      0.24215    0.1697083 -53.71  0.001003939    1.325    0.245
       301 -10.4744    237.0741    144.9345   8.3343896314e+01   4.7073396925e+00    0.2076389    0.1860575 -33.56 0.0003426885    1.047    0.045
       302  -9.9990     52.7548    143.9841   1.2690410058e+02   3.9983479958e+01    0.1957438    0.1557375 -66.64 0.0004111211    1.100    0.091
       303 -10.1534     25.2777    144.3521   1.3437711762e+02   4.2795698049e+01    0.1336122   0.08097548 -47.32 0.0004091642    1.646    0.392
       304  -9.4974    101.4852    143.5241   1.1338854247e+02   3.2780340816e+01    0.1521305     0.143685 -74.15 7.178688e-05    1.020    0.020
       305 -11.7714     23.4320    139.4837   1.3418889574e+02   4.4125126028e+01    0.6131198    0.1984344 -54.26  0.002554763    2.483    0.597
       306 -10.8029    165.7749    144.9591   9.7495796002e+01   1.9432499454e+01     0.480896    0.2101989  33.51  0.001490591    3.325    0.699
       307 -12.7684    132.4364    140.5671   1.0454972457e+02   2.7523815160e+01    0.3102347    0.2923158 -68.35 0.0004983829    1.048    0.046
       308 -10.3792     92.7924    142.2298   1.1548822681e+02   3.4602826292e+01     0.303664     0.221167  22.21  0.001432517    1.678    0.404
       309 -10.2277    224.0345    139.5105   8.4427236830e+01   8.2564755431e+00    0.2109551     0.181929 -43.11 0.0003829731    1.057    0.054
       310  -9.3280     62.8226    140.1729   1.2342869635e+02   3.9637959487e+01    0.1846325    0.1559374 -34.26 0.0003550642    1.303    0.232
       311  -9.6285    242.2980    138.3066   8.1076743581e+01   4.9621243432e+00    0.1345067    0.1055602  -9.49 0.0002813411    1.590    0.371
       312 -10.9498     49.5836    136.6365   1.2651394236e+02   4.2155467633e+01    0.3733726    0.1669721 -48.85  0.001597205    2.081    0.519
       313 -10.7011     35.6698    137.7683   1.3059458897e+02   4.3390092286e+01    0.2766539    0.1978231  67.68  0.001348658    1.618    0.382
       314  -9.6158     97.7777    137.5764   1.1311224842e+02   3.4878673729e+01    0.2067218    0.1420382  49.96 0.0005357011    1.562    0.360
       315 -10.0001      6.9843    137.5026   1.3828405233e+02   4.5884179261e+01    0.1455003    0.1249967  19.03 0.0004908957    1.501    0.334
       316 -10.3790     44.8926    135.6763   1.2767091581e+02   4.2922287209e+01     0.177219    0.1639784 -78.66 0.0004410982    1.089    0.082
       317 -11.1423     41.4612    134.4894   1.2843727296e+02   4.3582543334e+01    0.2251276    0.1793474 -88.23 0.0006758607    1.289    0.224
       318 -10.7948     41.3420    131.2956   1.2792266445e+02   4.4364954914e+01    0.2656233    0.1666292 -43.02 0.0009697328    1.600    0.375
       319 -12.0812    195.9632    133.5162   8.8354178768e+01   1.5306810830e+01    0.2796956    0.2411345 -45.52  0.001447886    1.105    0.095
       320  -9.9930     76.7897    134.9968   1.1845919374e+02   3.8924558470e+01    0.2104768    0.1832621 -63.41 0.0005173523    1.066    0.062
       321 -12.1613    122.9695    129.1236   1.0430181495e+02   3.2127171487e+01    0.3259143    0.3052523  77.05 0.0003253997    1.111    0.100
       322 -11.3623     62.0930    129.5528   1.2158658914e+02   4.2320416412e+01    0.4535309    0.2012192 -56.39  0.001299966    1.967    0.492
       323 -11.0252     49.2217    130.0208   1.2542187898e+02   4.3799341917e+01    0.4582967    0.2272798 -32.31  0.001637926    3.063    0.674
       324 -13.2340    156.5679    128.7224   9.5772948139e+01   2.5049055261e+01    0.3495452    0.3363531 -74.01 0.0005743487    1.029    0.028
       325 -12.6743     26.2067    130.0739   1.3202697975e+02   4.6123757863e+01    0.2917784    0.2618541  28.57 0.0005380921    1.345    0.257
       326 -10.7961     67.2606    128.8809   1.1994216447e+02   4.1783946483e+01    0.2730619    0.1872622  -9.85  0.001250276    2.170    0.539
       327 -10.1621      1.4444    128.9412   1.3868955565e+02   4.8236431838e+01    0.1705258   0.08612946  84.08 0.0008070211    2.456    0.593
       328 -10.2067     36.4816    128.4463   1.2882770449e+02   4.5547728847e+01    0.1327984    0.1128661 -63.56 8.230661e-05    1.008    0.008
       329 -10.7299     91.8910    126.4931   1.1227290305e+02   3.8555210697e+01    0.2615746    0.1991901 -51.69 0.0004068635    1.236    0.191
       330 -10.3563     20.1358    125.8366   1.3309003816e+02   4.7635061587e+01     0.174337    0.1260326 -47.10 0.0005758491    1.298    0.230
       331 -10.9264     55.5945    124.7014   1.2252621933e+02   4.4315595742e+01    0.2300777    0.1743584  10.60 0.0008856994    1.633    0.388
       332  -9.8833    108.4983    123.5159   1.0687003888e+02   3.6268259413e+01    0.1522724    0.1467169 -46.49 3.164336e-06    1.016    0.016
       333  -9.5426     38.4986    123.4290   1.2735264308e+02   4.6539087163e+01     0.133752    0.1125209 -54.25 0.0002464725    1.052    0.050
       334 -11.4365     69.8672    119.1495   1.1707502011e+02   4.3739511953e+01      0.53412    0.3889243 -22.77  0.002674632    1.660    0.398
       335 -11.2217     63.2601    122.1225   1.1970788853e+02   4.3946608136e+01    0.2604613    0.2077271  42.56  0.001234116    1.391    0.281
       336 -10.7279     14.5924    121.2651   1.3397697982e+02   4.9127156389e+01    0.2548508    0.1146238 -47.87 0.0008761178    1.966    0.491
       337 -11.6511     19.9781    118.7134   1.3200779804e+02   4.9311048109e+01    0.3335954    0.2036346  19.62  0.001497637    2.028    0.507
       338 -11.8068     24.1328    115.9352   1.3030527569e+02   4.9620126465e+01    0.3155142    0.2328222 -83.78   0.00187458    1.428    0.300
       339 -11.5935     20.0566    109.7800   1.3046798303e+02   5.1361478701e+01     0.354329    0.2389475 -65.58 0.0008366914    1.261    0.207
       340  -9.4430    139.2675    121.3793   9.8164500207e+01   3.0473205880e+01    0.1599019    0.1242272 -13.45  0.000699005    1.685    0.407
       341 -11.5089     93.1494    118.7015   1.1006467323e+02   4.0171852389e+01     0.453296    0.2617812 -55.91  0.001952569    1.723    0.420
       342 -10.5598     83.5190    120.0656   1.1321312379e+02   4.1457148612e+01    0.3741805     0.257725  83.51  0.001610726    2.274    0.560
       343  -9.4307    101.2515    119.6820   1.0797131622e+02   3.8505730393e+01    0.1463007    0.1176372 -85.06 0.0001377247    1.530    0.346
       344 -10.0120     55.0029    117.6698   1.2125932843e+02   4.6056165053e+01    0.1802967    0.1705101 -39.91 0.0004587209    1.087    0.080
       345 -11.2241      2.0243    116.7928   1.3692689965e+02   5.0982523340e+01    0.3479173    0.1938713  74.16  0.001780169    2.463    0.594
       346 -11.9648      3.2326    112.2020   1.3591884011e+02   5.1951433362e+01    0.3681903    0.2052082 -63.70 0.0005473933    1.367    0.268
       347 -11.7037     88.4587    115.0359   1.1054686383e+02   4.1818122474e+01    0.3911805    0.2511927 -56.85  0.001079248    1.551    0.355
       348 -10.8926     33.5497    113.8119   1.2705908994e+02   4.9279244230e+01    0.3173125    0.1913713 -77.97  0.001581961    1.889    0.471
       349  -9.7000     60.5446    114.4790   1.1887110815e+02   4.6104013410e+01    0.1393878    0.1246807 -52.17  0.000119139    1.019    0.018
       350 -10.4492     50.5799    113.8975   1.2182101054e+02   4.7467431835e+01    0.3246006    0.2067634  65.41  0.001332873    2.380    0.580
       351  -9.9460    111.9832    113.3053   1.0333705799e+02   3.7929503577e+01     0.205061     0.195222  37.16 0.0003320073    1.079    0.074
       352 -10.4335     74.8873    111.6925   1.1382017393e+02   4.4742303085e+01     0.251661    0.2026759 -10.39 0.0006631755    1.447    0.309
       353  -9.4733    138.6447    115.7355   9.6884361437e+01   3.1852555123e+01    0.1560488    0.1244188   9.68 0.0002416099    1.626    0.385
       354 -10.6730     37.1418    108.5371   1.2490561029e+02   5.0149388597e+01    0.2300351    0.1860395 -85.96 0.0006056969    1.414    0.293
       355 -10.1396    152.8245    106.9290   9.1140932404e+01   3.0561980394e+01    0.4140209    0.1106045 -45.54  0.001146536    3.771    0.735
       356 -10.3733     44.4791    106.8084   1.2221916618e+02   4.9786716590e+01    0.2283644    0.1816789  24.73   0.00135037    1.432    0.302
       357  -9.5075     63.7742    106.0048   1.1590868441e+02   4.7623792045e+01    0.1785168    0.1053632 -53.27 0.0008415119    1.535    0.349
       358 -10.7733     29.1156    103.5592   1.2645090047e+02   5.2027341190e+01     0.229425    0.1509929 -52.29 0.0003611883    1.243    0.196
       359 -10.1827     19.3792    103.6010   1.2956118783e+02   5.2811779016e+01    0.1775758    0.1393671  78.34  0.001096239    1.578    0.366
       360 -11.4111     74.7002    101.5895   1.1136832451e+02   4.7048431917e+01    0.4046817    0.2410837 -55.21   0.00114216    1.657    0.396
       361  -9.8704     55.1658    102.8782   1.1790872016e+02   4.9440725641e+01    0.1896025    0.1584193 -44.45 0.0002546562    1.054    0.051
       362 -12.5927     55.3320     96.7776   1.1638113451e+02   5.0773904196e+01    0.3820815    0.2567834 -57.20 0.0004378106    1.428    0.300
       363  -9.6062    233.6332    102.4926   7.4714578894e+01   1.3227078082e+01     0.140376    0.1202086 -53.67 -0.0001460292    1.039    0.038
       364 -10.7208    135.4653    101.5245   9.3939192468e+01   3.5572813667e+01    0.2605115    0.2539628  83.95 0.0007143661    1.041    0.040
       365 -11.6727     84.3195    100.2994   1.0803870740e+02   4.5812351110e+01    0.4270146    0.3128757  -6.55  0.002067181    1.749    0.428
       366 -10.9661      4.4072     99.0160   1.3348210538e+02   5.4824177830e+01    0.4388267    0.1250702 -48.65  0.001920121    2.594    0.615
       367 -10.3721      9.2776     99.7919   1.3207543058e+02   5.4359816901e+01    0.2125449    0.1538043  38.09 0.0006808146    1.727    0.421
       368 -12.8054    106.4442     97.8151   1.0076848084e+02   4.2374554397e+01    0.3276917     0.298518  32.53 0.0004665729    1.115    0.103
       369 -10.1752    124.9221     97.6781   9.5623223939e+01   3.8645652312e+01    0.2570435    0.1999643 -32.05 0.0006953459    1.349    0.258
       370 -10.2199     43.9433    100.4990   1.2099575252e+02   5.1268616329e+01    0.1816245    0.1306376  26.82  0.001023298    1.572    0.364
       371  -9.3984     93.7017     97.7671   1.0450068331e+02   4.4751260892e+01    0.1380967    0.1102845  -1.63 0.0006812281    1.469    0.319
       372 -10.8884     24.3406     96.8027   1.2663153749e+02   5.3937093623e+01    0.2218277    0.1572398 -85.11 0.0006657107    1.759    0.431
       373 -10.7085     62.8286     96.0899   1.1375525175e+02   4.9952934347e+01    0.2086921     0.192617  11.59 0.0003825694    1.153    0.133
       374  -9.7461     39.8889     96.6012   1.2144268723e+02   5.2558350960e+01    0.1623838    0.1181618  41.40 0.0008352582    1.651    0.394
       375 -10.9149     33.9036     94.1790   1.2288923933e+02   5.3676642376e+01    0.4260738    0.1779029 -38.89   0.00140083    2.423    0.587
       376 -11.1338    172.0011     90.0637   8.2516336035e+01   2.9417012898e+01    0.2274555    0.2086406 -54.02            0    1.082    0.076
       377  -9.7766    118.2529     93.9525   9.6381661128e+01   4.0805375765e+01    0.1952892    0.1271264 -44.40 0.0005017261    1.532    0.347
       378 -11.6415    113.9384     91.1985   9.6792893350e+01   4.2246535051e+01    0.3848276    0.2475059  41.28 0.0006921709    1.565    0.361
       379 -11.7580     75.0280     90.8278   1.0840222702e+02   4.9316584001e+01    0.4599793    0.3322867  87.75  0.002099715    2.453    0.592
       380 -11.2383     77.8848     87.8981   1.0666907722e+02   4.9479033688e+01    0.3774574     0.223227 -30.13 0.0003560202    1.889    0.471
       381 -11.1443     24.9058     90.8463   1.2518466644e+02   5.5191695929e+01    0.2357155    0.1562405 -87.20  0.001238619    2.183    0.542
       382 -10.4641     10.2999     91.6635   1.3025395953e+02   5.6072954793e+01    0.1621631    0.1226597  21.32  0.000491865    1.606    0.377
       383 -10.7464      6.3803     89.2799   1.3110446887e+02   5.6824679639e+01    0.2296419    0.1372029  37.14 0.0006670774    2.138    0.532
       384 -11.3492     88.7790     88.1581   1.0331377758e+02   4.7617053821e+01    0.3741776    0.3261763 -14.40  0.001271632    1.146    0.127
       385  -9.7032     13.4464     89.4454   1.2876681850e+02   5.6345964247e+01    0.1219875   0.09672214 -49.94 4.509128e-05    1.005    0.005
       386 -12.4255     63.0776     87.0848   1.1129039848e+02   5.1835487442e+01    0.2806118    0.2721515   6.73 0.0003772152    1.150    0.130
       387 -10.8115    154.2884     86.3087   8.5294634744e+01   3.4280812217e+01    0.2619885    0.2335414   9.08  0.001075979    1.315    0.239
       388 -10.9515     27.0342     85.8108   1.2332607147e+02   5.6092039958e+01    0.3166103    0.2540572  82.68   0.00194927    1.725    0.420
       389 -10.0506     33.9247     86.9810   1.2121373883e+02   5.5226055248e+01    0.1871995    0.1425599 -35.72 0.0002789527    1.151    0.131
       390 -10.0429     31.1733     84.6117   1.2160226261e+02   5.5981769646e+01    0.2293369    0.1785884 -19.19  0.000638787    1.284    0.221
       391 -11.0470    128.1819     85.9070   9.1460121376e+01   4.0276675987e+01    0.3925526    0.2342154  31.73  0.001624774    2.038    0.509
       392 -10.6254    132.5902     82.6034   8.9393681369e+01   3.9928010610e+01    0.2601975    0.2408194  71.63 0.0005311005    1.135    0.119
       393  -9.8059     48.4374     85.4831   1.1582719441e+02   5.4018930602e+01    0.2610972    0.1671005 -49.01 0.0005382542    1.378    0.274
       394 -11.5302     52.2325     82.5313   1.1373200102e+02   5.4179817595e+01    0.3919417    0.2351975  28.57  0.001852576    1.805    0.446
       395 -12.2155      9.3266     85.6718   1.2940693914e+02   5.7416748690e+01    0.2269032    0.1896956 -24.61 0.0003600792    1.227    0.185
       396  -9.7509     98.6335     83.7042   9.9030167077e+01   4.6724796050e+01    0.1500025       0.1104   2.61 0.0007030347    1.721    0.419
       397 -10.9230     42.4245     79.6663   1.1638992379e+02   5.5891765032e+01    0.3642717    0.1793455 -55.64 0.0007681909    1.953    0.488
       398 -10.9082     20.2014     82.0666   1.2485762052e+02   5.7429216811e+01    0.2089528    0.1693983  14.63 0.0006612174    1.423    0.297
       399 -10.2567    149.1909     80.1165   8.4735009890e+01   3.6600334359e+01    0.3691954    0.1843893 -59.06   0.00114616    3.176    0.685
       400 -10.9952     77.2303     80.9776   1.0488960968e+02   5.0977285018e+01    0.2186054    0.1935821  13.99 0.0005248857    1.127    0.113
       401 -10.7700    154.0679     79.2522   8.3410196396e+01   3.5615624034e+01    0.2658779      0.21536 -53.25  0.000440668    1.279    0.218
       402  -9.4015     82.2707     80.2981   1.0306774060e+02   5.0289474791e+01    0.1380745     0.102716 -11.62            0    1.524    0.344
       403  -9.8625    101.4855     79.4334   9.6919754135e+01   4.7003486752e+01    0.1415578    0.1348986   4.06 7.213306e-05    1.015    0.015
       404 -10.5955     68.5233     78.7372   1.0710435908e+02   5.2752504798e+01     0.231698    0.1838383  25.68 0.0008125416    1.301    0.231
       405  -9.8547    108.1548     77.8272   9.4512943788e+01   4.5994723396e+01     0.199139    0.1631919  14.15 0.0004747257    1.326    0.246
       406 -10.3415     29.8109     77.8620   1.2042438305e+02   5.7504524426e+01    0.2112372    0.1837867 -78.69 0.0008298346    1.460    0.315
       407 -10.3224      3.6537     77.5275   1.2972045204e+02   5.9448436760e+01    0.1968741   0.08752858 -60.37 0.0006383704    1.781    0.438
       408 -10.4942    117.6396     77.0015   9.1642295527e+01   4.4196696836e+01    0.3697964    0.1726072  53.13 0.0009063979    2.340    0.573
       409 -10.4923     96.7900     76.9302   9.7559247514e+01   4.8363491039e+01    0.2675235    0.1937009  14.25  0.001317691    1.637    0.389
       410 -11.4601     58.9520     74.5299   1.0913577518e+02   5.4919610536e+01    0.4056623    0.3256842  80.20  0.001529042    2.044    0.511
       411  -9.8720     81.8054     75.7832   1.0186235815e+02   5.1234778762e+01    0.1747892    0.1625008 -79.08 0.0004240145    1.363    0.266
       412 -11.5997     52.8692     74.5511   1.1127298085e+02   5.5701772081e+01    0.2925062    0.2021026 -24.44  0.001625872    1.428    0.300
       413 -10.1197    131.0219     75.3266   8.7679452862e+01   4.1596122563e+01    0.2064779     0.175255  51.57 0.0003498638    1.152    0.132
       414 -10.0643     69.1368     73.1602   1.0523508308e+02   5.3738670089e+01    0.3310333    0.0883813 -48.40  0.001066672    3.866    0.741
       415 -10.1167    115.8414     72.8416   9.0879995835e+01   4.5319418523e+01    0.2185298    0.1864007  13.21 0.0006108446    1.250    0.200
       416 -11.3522     87.8870     69.6321   9.8036418565e+01   5.1320059991e+01     0.332407    0.2413422 -48.53  0.001587028    1.508    0.337
       417  -9.6610     84.4295     72.4341   9.9998635878e+01   5.1415057607e+01    0.1378536     0.123973  -6.34  0.000104351    1.033    0.032
       418 -10.8256     37.2630     72.1290   1.1620245034e+02   5.7942755462e+01    0.2901587    0.1835662  38.08  0.001564001    1.921    0.479
       419 -10.7231     42.0346     71.0602   1.1415918560e+02   5.7649142196e+01     0.188283    0.1536771 -28.60 0.0003127431    1.033    0.032
       420 -10.6446     79.5096     69.5679   1.0068734567e+02   5.2769021015e+01    0.2335435    0.2175295 -85.12 0.0008446316    1.416    0.294
       421 -10.7825     53.1512     69.3585   1.0964302892e+02   5.6666250399e+01    0.3419494    0.1611416 -47.43 0.0006557854    1.964    0.491
       422 -10.9906     52.7080     62.5077   1.0769607887e+02   5.7989533312e+01     0.360465    0.1567846 -40.24  0.001657989    2.088    0.521
       423 -10.2149    189.0721     68.2055   7.3757558683e+01   2.9170443665e+01    0.3251678    0.2209163  12.43  0.001330184    2.926    0.658
       424 -11.8762      3.6723     67.3296   1.2749369268e+02   6.1505464927e+01    0.3537222    0.2601207  22.36  0.002462109    1.661    0.398
       425  -9.8120    130.5242     68.4647   8.5780931406e+01   4.2888950126e+01    0.1427906    0.1373549  54.78 0.0002133555    1.039    0.037
       426 -10.2805     26.9399     67.6641   1.1881002778e+02   5.9791066048e+01    0.1619194    0.1350177 -17.38 0.0004550199    1.124    0.111
       427 -11.0681    212.7463     66.9696   6.9797834677e+01   2.3854694686e+01    0.2310688    0.2072331  61.61 0.0005223274    1.233    0.189
       428  -9.7469    127.2753     66.6704   8.6048177503e+01   4.3909985235e+01    0.1403036    0.1129064 -75.49 0.0002534646    1.593    0.372
       429  -9.3258    106.4719     66.4817   9.1514219539e+01   4.8345083653e+01    0.1410908    0.1302524  13.40 0.0008095423    1.031    0.030
       430  -9.7377     75.2240     66.5802   1.0115252866e+02   5.4005976125e+01    0.1782763     0.121503  22.32  0.000364101    1.540    0.351
       431 -11.6637     17.3217     64.2971   1.2156367074e+02   6.1218775443e+01    0.3568183    0.1712373  -0.85   0.00168938    2.841    0.648
       432 -11.9955     16.1409     60.8228   1.2109281759e+02   6.1969732832e+01    0.3664895    0.2730175  45.07  0.002135863    1.935    0.483
       433 -11.5052      9.8091     61.7248   1.2379424003e+02   6.2231974118e+01    0.3363344    0.2000083 -52.81  0.001819316    1.393    0.282
       434 -12.0692      6.5910     58.9911   1.2435093286e+02   6.2952857256e+01    0.4849162    0.2641733 -21.08  0.002481063    1.862    0.463
       435  -9.7804    131.8289     62.1655   8.3588130152e+01   4.3624938225e+01    0.1850843    0.1606249  16.12  0.000328194    1.258    0.205
       436 -10.0926    128.0225     62.0292   8.4466090391e+01   4.4498339578e+01    0.2053941     0.199243  33.23 0.0003610876    1.029    0.028
       437 -11.0055     77.4752     61.2977   9.8708398156e+01   5.4560492188e+01    0.2667708    0.1850047 -30.12  0.001447854    1.399    0.285
       438 -10.7889     70.4874     60.9977   1.0094669763e+02   5.5733420839e+01    0.2339451    0.1726521  18.43  0.001324759    1.356    0.263
       439 -10.6782     38.7836     59.1723   1.1184231677e+02   6.0233526246e+01    0.2578336    0.1932683 -66.43  0.001512527    1.932    0.482
       440 -11.1165     31.4801     59.0038   1.1459834936e+02   6.1009698601e+01    0.2149661    0.1931864 -46.75 0.0004062039    1.313    0.238
       441 -11.8933     28.0300     55.7084   1.1495059017e+02   6.1934225626e+01    0.3692812    0.2428361 -46.18  0.001909055    1.371    0.271
       442  -9.9978     58.2648     56.9172   1.0388128459e+02   5.8230788484e+01    0.1730447    0.1409235 -20.63            0    1.082    0.076
       443 -10.3682     21.4476     56.9560   1.1792282515e+02   6.2280367337e+01    0.2005042    0.1527574  30.66  0.001050531    1.616    0.381
       444 -11.8049     93.2908     54.2671   9.1412840458e+01   5.2897830710e+01    0.2639785    0.2223311  16.60 0.0002336513    1.125    0.111
       445 -11.2423     42.2234     52.6324   1.0843679329e+02   6.1001296216e+01    0.3538422    0.2770705 -75.01  0.001708217    2.299    0.565
       446 -10.1193    164.2751     54.0162   7.4422587359e+01   3.7285319024e+01     0.183663    0.1745156 -86.53 0.0002140196    1.057    0.054
       447 -11.0859    118.8436     53.9317   8.4254867562e+01   4.7758574674e+01    0.2581934    0.1796389  31.74 0.0005407734    1.508    0.337
       448 -10.3519     82.9522     51.5106   9.3673271522e+01   5.5210708273e+01    0.2984196    0.1621285 -42.44  0.001439952    1.989    0.497
       449 -11.3631     72.8213     52.1095   9.7188401941e+01   5.6831703634e+01    0.2788579    0.2391679 -72.57  0.000901991    1.797    0.443
       450  -9.5180    110.9816     57.0097   8.7280600396e+01   4.8958628672e+01     0.166794    0.1512713  32.38 0.0003965072    1.029    0.029
       451 -10.5482     18.9983     49.5435   1.1669739388e+02   6.3813400330e+01      0.20105    0.1385121 -39.61 0.0003218332    1.194    0.163
       452 -10.9764     12.2883     46.0316   1.1840395754e+02   6.4940113463e+01    0.2592026    0.1626287 -45.30 0.0006586291    1.338    0.253
       453 -11.8170     13.3720     50.2382   1.1921452419e+02   6.4119620716e+01    0.7286352     0.307163 -12.44  0.003035255    3.968    0.748
       454 -10.3835     16.5366     46.4931   1.1677126391e+02   6.4541549506e+01     0.238367    0.1548222   3.26  0.001547047    1.556    0.357
       455  -9.8752    107.9610     50.4425   8.5981984484e+01   5.0570962048e+01    0.2019003    0.1246825  47.18 4.267344e-05    1.512    0.339
       456  -9.6726     74.6405     48.6951   9.5405499334e+01   5.7063652020e+01    0.1371613   0.09174021   6.76 0.0007039335    1.726    0.421
       457 -10.1813     46.4072     48.1861   1.0533763884e+02   6.1243739585e+01    0.1615734    0.1093145 -47.22  0.000851396    1.646    0.393
       458  -9.7446     32.1278     48.3498   1.1098900605e+02   6.2824964574e+01    0.1520152    0.1019331  32.05 0.0009325988    1.715    0.417
       459  -9.8811     94.0059     46.6831   8.8656460925e+01   5.3891986262e+01    0.1838915    0.1583147  34.68 0.0004877893    1.100    0.091
       460 -11.0293     35.0735     45.1116   1.0872165080e+02   6.3056939496e+01    0.2330481    0.2044143 -68.56  0.001566417    1.808    0.447
       461 -12.1729    164.4019     42.9937   7.1417982304e+01   3.8797262501e+01    0.3272065    0.3053479 -89.53 0.0009903061    1.062    0.058
       462 -10.5181    166.0572     37.9902   6.9794750514e+01   3.9055234044e+01     0.200287     0.179567  76.97 0.0003412129    1.012    0.012
       463 -10.3787    122.6750     45.9369   8.0801421409e+01   4.8065513360e+01    0.2340713    0.1686236  41.34 0.0004872901    1.302    0.232
       464  -9.3593    184.9788     45.2088   6.8663938580e+01   3.3591139458e+01    0.1746394    0.1009275  65.56 0.0003599642    1.596    0.374
       465 -11.1250    141.3837     43.0200   7.5765881387e+01   4.4220410300e+01    0.3124489    0.2327171 -26.01  0.001361278    1.521    0.343
       466 -10.0303     80.4715     43.9866   9.1864128642e+01   5.6763687021e+01    0.1863675    0.1215589 -30.68 0.0006028044    1.545    0.353
       467  -9.6481     26.1404     44.3554   1.1209902755e+02   6.4080507175e+01    0.1416923    0.1002383  26.84 0.0005769403    1.587    0.370
       468  -9.5476    103.3128     43.6877   8.5015992638e+01   5.2474121123e+01    0.1253866    0.1066682 -82.28  0.000251367    1.633    0.388
       469 -10.6165     70.0824     41.6385   9.4446522151e+01   5.8853708445e+01     0.217598    0.1634116 -17.29 0.0003208584    1.268    0.212
       470 -10.1423    246.1612     41.1232   6.0293195154e+01   2.0391362187e+01    0.1722747    0.1504741 -78.04 0.0003421121    1.165    0.141
       471 -12.1873     61.7435     44.8073   9.8480633513e+01   5.9683491489e+01    0.2396842    0.2006288 -13.38 0.0002924274    1.081    0.075
       472  -9.9381     92.4658     41.4585   8.7319774952e+01   5.4914675162e+01    0.1311192    0.1152457  20.52 7.505939e-05    1.001    0.001
       473 -10.4476     57.0093     41.5074   9.9007858394e+01   6.0869141630e+01    0.1838558    0.1123894  33.89   0.00103527    1.603    0.376
       474 -10.5634     38.8199     40.3823   1.0556887008e+02   6.3394113073e+01    0.3173926    0.1645083  11.99  0.001499298    2.370    0.578
       475 -11.2062     14.9761     40.4436   1.1549922441e+02   6.5691425277e+01    0.2709576    0.1829153  48.15  0.001618972    2.660    0.624
       476 -11.1111      9.5717     39.5610   1.1754156978e+02   6.6239703726e+01    0.2589413    0.1430769 -32.65 0.0008339936    1.436    0.304
       477 -10.6625     24.2694     39.7682   1.1132560532e+02   6.5007910281e+01    0.2076225    0.1525965 -18.62 0.0003953256    1.091    0.083
       478 -10.3935     22.5090     36.5134   1.1093995206e+02   6.5690322896e+01      0.19217     0.151528 -20.46 0.0006515952    1.065    0.061
       479  -9.8278     31.6957     37.9620   1.0759566330e+02   6.4557572385e+01    0.1545208    0.1201851 -23.36 0.0003452736    1.101    0.092
       480 -10.5020    239.3627     36.4289   6.0026489973e+01   2.2454709244e+01    0.2054501    0.1715877 -64.30 0.0004982851    1.134    0.118
       481 -10.1862     41.3252     36.4583   1.0314539338e+02   6.3693261880e+01    0.1877917    0.1393619 -51.28   0.00116411    1.884    0.469
       482 -10.8795     60.1999     34.6911   9.5344740532e+01   6.1371468189e+01    0.3563194    0.2382535  19.18   0.00164878    1.417    0.295
       483  -9.9830     55.3439     33.7087   9.6740328968e+01   6.2222465949e+01    0.1789439    0.1136733 -34.46 0.0004718183    1.577    0.366
       484  -9.7657     97.5051     35.4746   8.3822075731e+01   5.4712508204e+01    0.1296568    0.1147263  28.37 0.0008099917    1.025    0.025
       485 -12.2033     80.1910     32.6029   8.7880267750e+01   5.8340919023e+01    0.7987052    0.3082952  38.84  0.003473468    2.445    0.591
       486  -9.8543     35.7300     34.7715   1.0477674741e+02   6.4601090678e+01    0.1372148    0.1207345   2.37 0.0003920306    1.257    0.204
       487 -11.3549    142.5218     31.8205   7.2252712123e+01   4.5353295070e+01    0.3448009    0.2978511  37.35  0.001737443    1.192    0.161
       488 -11.1803    120.4469     33.6880   7.7444937961e+01   5.0125631808e+01    0.2952412    0.2031386  59.09  0.001113434    1.379    0.275
       489 -10.5724     91.8776     33.7059   8.4787389365e+01   5.6032172254e+01    0.2048625    0.1631336  -1.48 0.0005484725    1.272    0.214
       490  -9.7368     29.1977     34.4512   1.0736571472e+02   6.5357517018e+01    0.1422525     0.100938  32.05 0.0009316926    1.662    0.398
       491 -11.4938    105.7385     31.9058   8.0418021693e+01   5.3476738356e+01    0.3584993    0.2085932  32.25  0.001792765    1.798    0.444
       492 -10.1033    232.8262     32.3632   5.9852303831e+01   2.4389382666e+01    0.1644921    0.1020502  64.47 0.0001507195    1.604    0.376
       493 -10.9860    206.4427     31.5718   6.2545914108e+01   3.0368693699e+01    0.2223283    0.1811445  86.45 0.0001548027    1.056    0.053
       494 -11.3592    159.0883     30.4929   6.8927946195e+01   4.1626723990e+01     0.232384    0.2066398 -30.55 0.0005100426    1.297    0.229
       495 -10.3555     24.2453     31.1648   1.0826446554e+02   6.6349387368e+01    0.1766688    0.1238517   1.09 0.0002568093    1.265    0.209
       496 -10.8638     36.2623     29.9853   1.0275599946e+02   6.5234101635e+01    0.1846608    0.1391972  12.25 0.0003603623    1.195    0.163
       497  -9.8243    220.2026     28.6306   6.0368133933e+01   2.7632497220e+01    0.1625775     0.103508  65.66 0.0001822174    1.496    0.331
       498 -11.0215    187.0808     27.0766   6.3910025965e+01   3.5416461203e+01    0.1924915    0.1658804  82.13 0.0003023914    1.036    0.035
       499 -11.0124    100.8444     27.0705   8.0027155631e+01   5.5037215435e+01    0.2881977    0.1569251  47.48 0.0009010779    1.592    0.372
       500  -9.7214     76.3041     27.6693   8.7279668001e+01   5.9632358745e+01    0.1095294    0.1002599 -75.07  0.000703624    1.655    0.396
       501  -9.4141     17.4609     27.5147   1.0988371495e+02   6.7523160159e+01    0.1141759   0.08294135 -16.39 7.730931e-05    1.049    0.047
       502 -11.6360    146.1098    244.5382   1.2055797485e+02   2.2350943945e+00    0.4088115    0.3674018  53.01  0.001542916    1.079    0.073
       503 -12.0369      2.0228     25.6857   1.1628125577e+02   6.8984462175e+01    0.1971043    0.1305647 -30.85 0.0003247157    1.127    0.112
       504 -11.5092      9.7501     23.4797   1.1187887601e+02   6.8763033347e+01    0.2138885    0.1439923 -23.48 0.0006841528    1.124    0.110
       505 -11.1602      6.0086     23.5016   1.1362955062e+02   6.9042233192e+01    0.1868742    0.1584927  -2.35 0.0003762267    1.326    0.246
       506 -10.0179    233.5096     24.4407   5.8188411454e+01   2.5252107915e+01    0.1249162   0.09761002 -78.54 5.682628e-05    1.017    0.016
       507 -10.1050     89.9405     24.2984   8.1985735158e+01   5.7502952305e+01    0.1793747    0.1410121  36.39 0.0004484969    1.096    0.088
       508 -11.8304     16.7449     22.6365   1.0834620651e+02   6.8295271407e+01     0.280118       0.1889  32.22 0.0005679044    1.851    0.460
       509 -11.3743    117.5834     22.2768   7.4421193168e+01   5.2023877798e+01    0.5163326    0.2721602  65.45  0.001941677    1.996    0.499
       510 -10.3362     78.6145     23.2401   8.4906456600e+01   5.9730901322e+01    0.2207564     0.126144  28.70  0.001179559    1.709    0.415
       511 -10.2641     50.4242     22.1489   9.4079140276e+01   6.4423068020e+01    0.2298423    0.1356421  -7.36  0.001139303    1.837    0.456
       512 -10.2348     66.3301     22.3051   8.8480357670e+01   6.1955538306e+01    0.1268343   0.07905252  15.40 0.0007037001    1.656    0.396
       513 -11.8012    141.5068    247.5151   1.2191745205e+02   2.4666780125e+00    0.2500423    0.2049784  33.86   3.7715e-05    1.154    0.133
       514 -10.1705     33.6695     16.6812   9.8505081583e+01   6.7297255049e+01     0.195237   0.09313263  23.25 0.0009525434    2.069    0.517
       515 -10.9749    190.2666     20.4761   6.1932854825e+01   3.5435837509e+01     0.215869    0.1879872  73.66 0.0002431256    1.132    0.117
       516 -10.7488    182.3908     18.6989   6.2488484737e+01   3.7468656186e+01      0.22831    0.1885642  65.79 0.0006504203    1.154    0.134
       517 -10.6118     92.7967     18.8213   7.9238252537e+01   5.7523490442e+01    0.2293291    0.1635026 -32.76 0.0009129132    1.609    0.378
       518 -11.2480    140.4801    244.4324   1.2169644225e+02   3.2013782405e+00    0.2296734    0.2128094  58.12   0.00058797    1.088    0.080
       519  -9.8503     99.7733     17.8039   7.7084068633e+01   5.6228523081e+01    0.1515745    0.1374796  67.35  0.000257891    1.280    0.219
       520 -10.5658    136.9902     17.2956   6.9006436248e+01   4.8191464628e+01    0.1781109    0.1457735  60.57 0.0004215318    1.047    0.045
       521 -11.3523    129.6299    247.4326   1.2432025935e+02   4.4560813310e+00    0.2823435    0.2074768  27.39 0.0006284186    1.483    0.326
       522 -11.5902    207.2321    246.2306   1.0857597630e+02  -8.0434094614e+00    0.4565515    0.2026025  42.91  0.001168644    2.245    0.554
       523  -9.3603    157.3146    247.2754   1.1867117295e+02  -1.3224903499e-01    0.1263758   0.09638182  11.17 0.0002275573    1.563    0.360
       524 -10.7433     43.4568     16.4612   9.4436670665e+01   6.6068479696e+01    0.2977264    0.2134656  62.25  0.001630105    3.244    0.692
       525 -10.1410     21.0587     17.4843   1.0433163748e+02   6.8589685141e+01    0.1551596     0.092686  20.78 0.0008065404    1.563    0.360
       526  -9.8723    153.5945     15.2449   6.5643589208e+01   4.4563729634e+01    0.1562139     0.125001  -0.18 0.0009425932    1.626    0.385
       527 -10.4419     95.5096    247.0209   1.3113385973e+02   1.0021142498e+01    0.1677494     0.121336 -70.97 0.0004067971    1.473    0.321
       528 -10.3629    173.4477     13.9726   6.2479824238e+01   4.0056800160e+01    0.1667392    0.1249833 -35.04 0.0003718189    1.535    0.349
       529 -10.5863     86.4949     14.0601   7.9204927128e+01   5.9212142699e+01    0.2612846    0.1319233  46.75  0.001388585    1.656    0.396
       530 -12.0151     78.1693    245.6105   1.3439372074e+02   1.2914427372e+01    0.3250681    0.2670107  16.30  0.001774974    1.814    0.449
       531  -9.8434     13.4713     14.4894   1.0658823163e+02   6.9707410845e+01    0.1083905   0.07974373 -11.05 0.0001218452    1.025    0.025
       532 -13.1693     75.5174    240.8423   1.3442491868e+02   1.4266473268e+01    0.4223606    0.2798077  61.32  0.000674075    1.315    0.239
       533 -10.7539    199.4407    245.3534   1.0994670460e+02  -6.6958197442e+00    0.3332208    0.2178495   3.34  0.001749974    1.901    0.474
       534 -11.6370    202.3072    240.5240   1.0858584378e+02  -6.3857540791e+00    0.5747252      0.20318  37.43  0.002370624    2.570    0.611
       535 -12.3163     85.4156    244.7458   1.3288213843e+02   1.2012005015e+01    0.2820615    0.2637891 -63.70 0.0006433206    1.355    0.262
       536 -11.1473     89.4312    244.5053   1.3206097439e+02   1.1452177256e+01    0.2874101    0.2420929   1.21  0.001727516    1.871    0.465
       537 -10.8690    216.1830    244.9785   1.0665049349e+02  -9.2133567233e+00     0.192091     0.156366  21.12 0.0003411082    1.086    0.079
       538 -10.8148    187.8078    245.1688   1.1221153642e+02  -4.8091050373e+00    0.2885388    0.1572138  33.23  0.001035149    1.653    0.395
       539 -11.3425    164.6279    244.2819   1.1673801351e+02  -8.3440248658e-01    0.2812736     0.228205  14.28 0.0005183253    1.309    0.236
       540 -11.0079    121.4724    243.3999   1.2545288576e+02   6.5658420596e+00    0.2275575     0.130354 -59.31 0.0001444393    1.969    0.492
       541  -9.9673    227.0608    243.4957   1.0434783205e+02  -1.0598443759e+01    0.1765728    0.1072399  30.48 0.0004158524    1.493    0.330
       542 -10.2257    115.8797    243.5540   1.2661597362e+02   7.4543328076e+00    0.2066409     0.114144  41.06  0.001028938    1.597    0.374
       543 -11.1970    100.1545    241.8718   1.2960831228e+02   1.0313538691e+01    0.2067377    0.1878051 -67.46 0.0003521991    1.273    0.215
       544 -10.4904    103.9764    228.2711   1.2712025284e+02   1.2485166641e+01    0.2166637    0.1939099  65.14 0.0002323734    1.045    0.043
       545 -11.8350    105.8640    233.4611   1.2739522330e+02   1.1100887370e+01    0.6096693    0.1956614 -54.92   0.00233085    3.292    0.696
       546 -10.6065    102.4584    234.0625   1.2818188673e+02   1.1527770078e+01    0.3095418    0.2249146 -58.91 0.0009363639    1.506    0.336
       547 -10.8625    100.0273    237.9767   1.2916721889e+02   1.1117034776e+01    0.2361073    0.2068486  80.95 0.0003158622    1.101    0.091
       548 -12.6927     94.4161    237.3601   1.3024255073e+02   1.2126297234e+01    0.4526401    0.3195316  68.93  0.001871581    1.365    0.267
       549 -11.7843     66.8404    239.4043   1.3598382299e+02   1.5802996184e+01    0.3883675    0.2588588 -38.57  0.001834903    2.587    0.613
       550  -9.7647     63.4458    238.4938   1.3655778130e+02   1.6464684349e+01    0.2058192    0.1386228  80.40  0.000678345    1.369    0.270
       551  -7.4921     55.4533    242.4715   1.3846089931e+02   1.6732706922e+01    0.1236629   0.09707927  72.40 0.0001993001    1.005    0.005
