#   1 NUMBER                 Running object number                                     
#   2 MAG_AUTO               Kron-like elliptical aperture magnitude                    [mag]
#   3 X_IMAGE                Object position along x                                    [pixel]
#   4 Y_IMAGE                Object position along y                                    [pixel]
#   5 X_WORLD                Barycenter position along world x axis                     [deg]
#   6 Y_WORLD                Barycenter position along world y axis                     [deg]
#   7 A_WORLD                Profile RMS along major axis (world units)                 [deg]
#   8 B_WORLD                Profile RMS along minor axis (world units)                 [deg]
#   9 THETA_WORLD            Position angle (CCW/world-x)                               [deg]
#  10 FWHM_WORLD             FWHM assuming a gaussian core                              [deg]
#  11 ELONGATION             A_IMAGE/B_IMAGE                                           
#  12 ELLIPTICITY            1 - B_IMAGE/A_IMAGE                                       
         1 -11.8319     14.9665     33.4726   5.1031437961e+01   7.2171101263e+01    0.2737261      0.11204  31.52  0.001184301    2.407    0.585
         2 -12.4066     72.2927      7.5525   7.5392911733e+00   6.5342341699e+01    0.4751505    0.1911135 -27.31  0.001645279    2.627    0.619
         3 -11.4986     92.2107      8.3263   3.2292969081e+00   6.0303456869e+01    0.2117277      0.18583   4.20 0.0007109862    1.337    0.252
         4 -11.0621     78.4807      6.5238   5.4029834848e+00   6.3920795157e+01    0.1355567    0.1198423  59.73 1.548762e-05    1.034    0.033
         5 -12.5650     36.7687      4.6253   1.9320235772e+01   7.3635158663e+01    0.2485119     0.210773  45.77 0.0004160327    1.120    0.107
         6 -10.8935     25.3053      1.9579   2.4100268686e+01   7.6149652531e+01    0.1692797    0.1485464   2.63 0.0005843621    1.088    0.081
         7 -10.8305    114.0390      1.5450   3.5681606341e+02   5.5289825993e+01    0.2069198    0.1184417  78.97  0.001014519    1.559    0.358
         8 -11.5387     68.4834    247.0316   6.6695458729e+01   1.4502034517e+01    0.2632012    0.1572467  65.22  0.001517272    1.917    0.478
         9 -12.2194    238.1470    250.6334   3.4922287601e+01  -5.0867424862e+00    0.2147045   0.07620189  27.44  0.000961146    2.536    0.606
        10 -11.1487    171.1033    250.1281   4.6035113478e+01   1.8101948380e+00    0.1666151    0.1173316   4.00 0.0003129225    1.229    0.186
        11 -12.6664    139.8330    248.3932   5.1815737913e+01   5.7066509220e+00    0.3934032    0.3328046   0.34  0.002898959    1.165    0.141
        12 -11.8220    143.6204    242.7545   5.0388805612e+01   6.0883781362e+00    0.2792967    0.2067423 -22.34  0.001873598    1.469    0.319
        13 -11.5675    114.7613    249.2879   5.7015944578e+01   8.6021391382e+00    0.3054067    0.1793197  54.05  0.001701822    2.154    0.536
        14 -11.2012    106.6543    250.6379   5.8841733429e+01   9.3661849595e+00    0.2899373   0.08474019  32.10  0.001247266    2.557    0.609
        15 -13.8323     34.0045    247.5646   7.4214771833e+01   1.8162967878e+01     1.706274    0.3661928  25.13  0.005848159    4.620    0.784
        16 -13.8793     37.0845    228.4277   7.2493117098e+01   2.1536164370e+01    0.7833208    0.4236633 -57.85  0.003308039    2.265    0.558
        17 -14.7626      6.5416    164.0782   7.6718375059e+01   3.9234845462e+01     1.343657     1.031683 -72.88  0.007350118    1.317    0.240
        18 -14.6520     15.6339    167.3641   7.4224696554e+01   3.7639218447e+01     1.402004    0.6571679  51.26  0.003601788    1.894    0.472
        19 -13.4441     28.5574    239.3738   7.5005393229e+01   2.0259780103e+01    0.9197726    0.2161092  36.01  0.003987501    2.583    0.613
        20 -12.6399     20.3124    203.5291   7.5130684061e+01   2.8556795614e+01    0.3445539    0.2602223 -24.20  0.001696557    1.903    0.475
        21 -14.1941     21.5613    196.7424   7.4428886864e+01   2.9979637033e+01    0.8644532    0.6825821 -25.23  0.005120256    1.751    0.429
        22 -13.8710     24.7306    187.1862   7.2985216810e+01   3.1907803361e+01    0.6556591    0.5031946  13.79  0.003788579    1.515    0.340
        23 -13.8425     32.1480    183.1211   7.0648139839e+01   3.2120641001e+01    0.9591802    0.4996542  73.16  0.002684346    2.051    0.512
        24 -13.8675     22.8229    242.3000   7.6393319248e+01   2.0267110216e+01    0.9915199    0.3074789  23.98  0.004213238    3.106    0.678
        25 -14.3184      4.5211    201.6253   7.9005299120e+01   3.0415111232e+01    0.7657112    0.6236685  35.21  0.005057308    1.222    0.182
        26 -12.7283     13.5404    194.8151   7.6409453117e+01   3.1178986886e+01      0.28356    0.2450729  69.76 0.0004064092    1.095    0.087
        27 -13.9632     10.9406    189.6936   7.6835647457e+01   3.2606514023e+01    0.9860252     0.509245  -2.95  0.004116838    3.445    0.710
        28 -15.0703     16.1748    227.7631   7.7266623057e+01   2.3766707402e+01     1.377557    0.6559209  89.68  0.007337811    2.207    0.547
        29 -15.3638      4.7695    247.1128   8.0406130835e+01   2.1036848636e+01    0.9787838     0.574537  53.62  0.006209703    1.273    0.214
        30 -13.2072     17.5635    237.7346   7.7356454799e+01   2.1651803223e+01    0.2130127    0.1467977  27.51 0.0006715444    1.376    0.273
        31 -14.5683     10.3607    239.1948   7.8980323202e+01   2.2038738036e+01     0.520068    0.4067526 -28.48  0.002714179    1.947    0.486
        32 -14.5734      7.3085    234.8107   7.9503211824e+01   2.3169884202e+01    0.5692555    0.3413675  49.03  0.003621635    1.238    0.193
        33 -10.6790    214.6881    247.3167   3.8117657943e+01  -2.4944372826e+00   0.08737425   0.07699784  20.64 0.0007034214    1.641    0.391
        34 -11.4181    178.0953    247.2055   4.4382701721e+01   1.4080114317e+00    0.1678123    0.1163313   5.45 0.0003443288    1.221    0.181
        35 -11.3764     99.4322    246.8074   5.9993934587e+01   1.0867988214e+01    0.2186209    0.1375509  29.15 0.0005616921    1.273    0.214
        36 -10.8162     58.4808    248.4865   6.8972579747e+01   1.5375327887e+01    0.1193913   0.09353887  39.13 0.0004301467    1.032    0.031
        37 -10.9708    205.9727    244.2263   3.9127589222e+01  -1.2400902662e+00    0.1385464   0.07181171  25.91 0.0006358086    1.660    0.398
        38 -11.0700     94.5163    243.2068   6.0705247432e+01   1.2077549786e+01    0.1857207    0.1237671 -71.60  0.001123665    1.977    0.494
        39 -11.2187    222.8387    243.0334   3.6224798814e+01  -2.8106230902e+00    0.1419981    0.1142624  -1.04   0.00033986    1.255    0.203
        40 -10.3768    153.2660    243.6338   4.8595207770e+01   4.7895153331e+00    0.1032469   0.08524101  51.65 0.0002484429    1.653    0.395
        41 -11.4912    127.3222    242.7251   5.3696939726e+01   8.1010525224e+00    0.2229401    0.1149447  39.14 0.0008631092    1.708    0.415
        42 -12.1832    117.3823    241.4546   5.5629722311e+01   9.5421399608e+00    0.2292239    0.1830992  18.33 0.0007332341    1.107    0.096
        43 -12.4753     67.7565    240.5961   6.6361472006e+01   1.5749956512e+01    0.4132003    0.1887964  32.16  0.001852345    1.710    0.415
        44 -10.3901    180.5696    240.4654   4.3040013107e+01   2.0202919463e+00    0.1134601   0.08621526   5.38 -3.704823e-05    1.047    0.045
        45 -10.7308    171.4660    240.4710   4.4715920055e+01   3.0750319100e+00    0.1141349   0.08971836  10.84 8.895394e-05    1.018    0.018
        46 -14.6200      3.0716    216.1939   7.9866407369e+01   2.7353134052e+01     1.309478    0.4541192 -76.08     0.006039    2.918    0.657
        47 -10.7590    211.0177    237.2791   3.7322623896e+01  -9.2622452193e-01    0.1610738    0.1200886 -54.44  0.001062949    2.569    0.611
        48 -10.8090    207.4966    236.4819   3.7793666818e+01  -4.5430587376e-01    0.1642787   0.08410552  17.90 -2.503248e-05    1.805    0.446
        49 -12.3226    165.6092    234.4011   4.5008853039e+01   4.6344829055e+00    0.2252928    0.1845316  21.44 0.0001562742    1.154    0.134
        50 -11.5465    137.4989    236.0638   5.0806011675e+01   7.8803567624e+00    0.2060111    0.1399909  38.73 0.0004447739    1.392    0.282
        51 -12.7818     71.1224    233.4282   6.5020518042e+01   1.6688709150e+01    0.5741671    0.3451628 -30.95  0.002906285    2.670    0.626
        52 -11.3405     47.9489    235.6705   7.0456247662e+01   1.8930976281e+01    0.1803022    0.1278581  40.66 0.0007256351    1.106    0.096
        53 -12.1351    158.5354    233.4321   4.6246948264e+01   5.6468046866e+00    0.2117079    0.1796428  15.98 0.0005381666    1.108    0.097
        54 -11.5876     61.3991    230.1310   6.6980146732e+01   1.8476814293e+01    0.2824703    0.2136255  89.55  0.001790616    1.500    0.333
        55 -11.7221     56.5880    233.5756   6.8346994349e+01   1.8365400067e+01    0.2498706    0.1976583 -28.81 0.0006854781    1.733    0.423
        56 -11.6186     57.7774    229.4056   6.7761686078e+01   1.9041326346e+01    0.2877312    0.1878505   8.96  0.001107271    1.938    0.484
        57 -10.4740    243.4343    233.4589   3.1731247768e+01  -3.7156671338e+00     0.100828   0.07257576  -6.60 9.632883e-05    1.052    0.049
        58 -10.7024     25.9825    233.2830   7.5289161492e+01   2.1707023049e+01    0.1671618     0.124087  45.15 0.0003101494    1.048    0.046
        59 -12.0525    180.8888    230.1389   4.1552716542e+01   3.3968592391e+00    0.3130466    0.2339808  63.13  0.001810533    2.851    0.649
        60 -12.5712    149.7744    228.9967   4.7394123806e+01   7.4305579857e+00    0.3112465     0.233662  35.79  0.001487484    1.303    0.232
        61 -12.5321    148.0403    224.3543   4.7118564394e+01   8.3930068579e+00    0.2267991    0.2019967 -35.63 0.0003872027    1.308    0.235
        62 -11.2404    216.4564    231.2065   3.5562265120e+01  -7.5742222162e-01    0.1821984    0.1212604  17.27 0.0007418313    1.293    0.227
        63 -11.0702    138.3585    227.8583   4.9586224533e+01   9.0902710885e+00    0.2316937     0.156736 -65.70   0.00131945    2.212    0.548
        64 -11.8818     27.8346    226.9028   7.4549391701e+01   2.2803069964e+01     0.419275    0.2699532  24.31  0.002178976    1.519    0.342
        65 -11.2942    127.6118    227.7281   5.1839487913e+01   1.0519802351e+01     0.144755    0.1222309 -67.48 0.0009420481    1.559    0.359
        66 -12.3680     80.8658    226.8346   6.2188576386e+01   1.6749570968e+01    0.2923751    0.2377224  81.11  0.001241067    1.417    0.294
        67 -13.5783    116.3286    224.4685   5.3889693211e+01   1.2578524040e+01    0.6304171    0.4156343 -86.43  0.002685799    2.632    0.620
        68 -11.6404    116.0140    215.0251   5.2776651032e+01   1.4337892939e+01    0.1942946    0.1701168  27.26 0.0004496156    1.020    0.020
        69 -12.3193    119.3520    213.7107   5.1851008017e+01   1.4119423366e+01    0.3451433    0.1607485  45.63  0.001555775    2.234    0.552
        70 -12.6100    105.5065    226.2171   5.6505158196e+01   1.3694212493e+01    0.3030307    0.2022931   2.54  0.001631682    1.901    0.474
        71 -11.7188     92.1441    224.1557   5.9314802824e+01   1.5821478187e+01    0.2245422    0.1958172   4.21 0.0009550936    1.258    0.205
        72 -12.9204    161.0128    222.8309   4.4298403375e+01   6.9456420012e+00     0.352054    0.2076944  35.43  0.001392954    1.572    0.364
        73 -11.4629    101.0817    224.1837   5.7273653119e+01   1.4648867123e+01    0.1882517    0.1536003  17.31  0.000433773    1.187    0.158
        74 -12.1245     52.6829    223.8299   6.8531952244e+01   2.0743878745e+01    0.2319081    0.1542527 -81.01  0.001355096    1.698    0.411
        75 -12.4735     51.1898    219.4123   6.8553628582e+01   2.1822069063e+01    0.3115925    0.1899836  35.35 0.0009689436    1.352    0.260
        76 -12.7198    194.3847    228.1789   3.8847095175e+01   2.0776673809e+00    0.2760469    0.2004355   8.16 0.0007675462    1.129    0.114
        77 -13.0450    124.7924    222.0236   5.1725727320e+01   1.1878235930e+01     0.424423    0.2251734  34.21  0.001291059    1.595    0.373
        78 -13.0973    129.3435    216.9892   5.0071235779e+01   1.2146928009e+01    0.4082057    0.1900623  25.32  0.001242047    2.105    0.525
        79 -10.4735    179.3219    222.3083   4.0712396914e+01   4.7046226845e+00    0.1213206   0.07769958  -2.53 0.0002854284    1.645    0.392
        80 -13.0834    173.5070    220.4228   4.1528947497e+01   5.7123383166e+00     0.301528    0.2083043 -34.51 0.0008454739    1.487    0.328
        81 -12.7240    190.2666    220.2408   3.8406329446e+01   3.6578875229e+00    0.2530394    0.2039914 -31.86 0.0003149141    1.367    0.269
        82 -11.6642    193.6188    216.8315   3.7292722600e+01   3.7310403076e+00    0.2277177    0.1336591 -35.61 0.0008197731    1.671    0.402
        83 -13.0862     29.5121    217.3675   7.3635502288e+01   2.4615137047e+01    0.5626192    0.4388175  44.16  0.003638132    1.069    0.065
        84 -12.0542    239.9893    220.0061   3.0250201368e+01  -1.8417903039e+00    0.1975981    0.1270555  18.67  0.001452293    1.442    0.307
        85 -10.9297    197.2661    219.9515   3.7123845628e+01   2.8582222627e+00    0.1559017     0.120806  -8.55 0.0004100948    1.082    0.076
        86 -12.3642     76.2197    219.1652   6.2533103672e+01   1.8839660799e+01    0.2840855    0.1744203  43.95 0.0003589223    1.390    0.281
        87 -11.1057     80.4484    218.4552   6.1456408124e+01   1.8442027745e+01    0.2034513    0.1296597  51.21 0.0006330398    1.492    0.330
        88 -13.4409     49.8744    215.1049   6.8541142052e+01   2.2875987287e+01    0.8136516    0.3457626 -61.68  0.003396978    2.584    0.613
        89 -12.8317     22.4078    215.8016   7.5258915582e+01   2.5662113073e+01    0.4018922     0.294904 -71.99   0.00229806    1.533    0.348
        90 -10.3827    220.9692    218.0586   3.2874868784e+01   3.9797504140e-01    0.1264119   0.09587638  -4.61 0.0009355376    1.008    0.008
        91 -12.5352    140.1340    208.4369   4.6528088465e+01   1.2157238133e+01    0.3083058    0.2358556  83.27    0.0015388    2.187    0.543
        92 -12.5529    145.2446    216.5293   4.6608037536e+01   1.0053588467e+01    0.3348287    0.2637179  56.15   0.00193151    1.664    0.399
        93 -12.2856    141.5894    213.7393   4.6982189404e+01   1.1028718183e+01    0.2874813    0.2189937 -44.68  0.001750748    1.470    0.320
        94 -11.1636    138.4256    217.6966   4.8209992454e+01   1.0782808407e+01    0.1954516    0.1250918 -53.64 0.0005141312    1.883    0.469
        95 -12.3532     93.0926    217.0763   5.8319566577e+01   1.7059878197e+01    0.4072159    0.2070738  37.13  0.001215199    1.632    0.387
        96 -13.2428    127.5176    214.5072   5.0136729360e+01   1.2841058402e+01     0.425752    0.2988338  84.72  0.002171384    2.546    0.607
        97 -11.8551     66.0093    216.7469   6.4754594411e+01   2.0607598924e+01    0.2404212    0.1814442 -74.36  0.001127678    1.503    0.335
        98 -10.5457    226.3129    216.3125   3.1763903761e+01   3.5667905744e-02    0.1126662   0.06688531  -5.57 0.0003303153    1.634    0.388
        99 -11.3401    246.9691    221.2225   2.9416255485e+01  -2.6736763190e+00     0.129891    0.1047315 -30.60   0.00104388    1.607    0.378
       100 -12.5971    107.8022    213.5249   5.4465439569e+01   1.5753324190e+01    0.3507501    0.2486869 -59.46  0.002014328    1.653    0.395
       101 -11.9137     84.6526    214.2260   6.0008436947e+01   1.8743264853e+01    0.5353938    0.2006784  35.70   0.00229603    2.140    0.533
       102 -11.6676    156.9509    213.9201   4.3819925520e+01   8.8989949441e+00    0.1844165     0.157151  12.48 0.0003383055    1.023    0.022
       103 -10.7695    243.3129    213.6358   2.8790685225e+01  -1.4232501869e+00   0.08997824   0.07892801 -35.96 0.0007039945    1.760    0.432
       104 -12.3253     34.0484    200.0993   7.1406422433e+01   2.7935534484e+01    0.3293151    0.2477541  26.07 0.0004299297    1.341    0.254
       105 -12.5462     41.9994    211.4008   7.0201357938e+01   2.4560205661e+01    0.5370073    0.2776527  18.11  0.002298112    2.214    0.548
       106 -11.9779     32.9818    209.2371   7.2293004608e+01   2.6008314695e+01     0.274708    0.2295626  77.02 0.0006585976    1.172    0.147
       107 -11.3748     39.8684    196.2029   6.9596046725e+01   2.8191378059e+01    0.2047075     0.189067 -63.75 0.0003419756    1.273    0.214
       108 -13.0469     35.1196    195.3882   7.0785103640e+01   2.8900701680e+01     0.514913    0.3287101  38.83  0.002643049    1.340    0.254
       109 -12.7733     37.6954    208.2019   7.1046443816e+01   2.5730921030e+01    0.3723806     0.355911 -47.68  0.001432015    1.313    0.238
       110 -11.9428     35.9674    204.2965   7.1209479881e+01   2.6783532946e+01    0.3050331    0.2525147  21.43  0.001174919    1.316    0.240
       111 -11.2140     73.4121    212.2738   6.2526222667e+01   2.0603452603e+01    0.2696585    0.1488219  17.00  0.001012897    2.146    0.534
       112 -10.6856    172.5134    211.4768   4.0376173776e+01   7.2065229499e+00    0.1229083    0.1008576   3.84 0.0002278685    1.036    0.035
       113 -12.7318    161.1305    207.4493   4.1999790226e+01   9.3894976704e+00    0.3988587    0.2474103 -58.11 4.830363e-05    2.320    0.569
       114 -11.2311    160.4786    203.5128   4.1519911793e+01   1.0134573178e+01    0.1908258    0.1116723  31.45 8.049129e-05    1.566    0.362
       115 -12.2361     54.5166    210.2382   6.7000895009e+01   2.3371161885e+01    0.3525108     0.165375  54.20  0.001216308    2.085    0.520
       116 -10.4280    206.4298    210.4346   3.4079692357e+01   3.0745822436e+00    0.1129632   0.09105302  -4.03 5.664089e-05    1.043    0.041
       117 -11.0447     97.1491    209.6476   5.6490865764e+01   1.7979583807e+01    0.2718972       0.1505 -78.39  0.001212595    2.785    0.641
       118 -12.6837    180.2025    207.4675   3.8290118303e+01   6.8105819249e+00     0.236192    0.1909746  16.01 0.0003286266    1.109    0.099
       119 -12.6052     26.6681    206.5043   7.3700984416e+01   2.7263810040e+01    0.3769867    0.2849396 -75.32   0.00130641    1.434    0.303
       120 -10.9269    229.5007    208.0000   2.9973548257e+01   7.3805372305e-01    0.2171155   0.05630751  34.63 0.0009393856    3.972    0.748
       121 -11.1094    103.8563    205.6508   5.4389556984e+01   1.7843479018e+01    0.1909055    0.1508903  37.08 0.0006851614    1.113    0.102
       122 -12.9994    145.2234    200.5927   4.4250980755e+01   1.2823686700e+01    0.4807883    0.3910582  79.95  0.001215408    1.875    0.467
       123 -10.2962     89.1662    204.6621   5.7823662664e+01   2.0094589042e+01    0.3244167    0.2215359  78.76  0.001672348    1.914    0.477
       124 -12.4188     91.4629    199.2577   5.6591815023e+01   2.0908128838e+01    0.4435385    0.3926753  22.43   0.00142255    1.124    0.110
       125 -12.9436     91.5065    192.8016   5.5747277865e+01   2.2283680725e+01    0.5308644    0.3252547  35.22  0.001524447    1.446    0.309
       126 -12.9994     83.0405    201.7026   5.8993017647e+01   2.1556755735e+01    0.5328935    0.3479573   8.46  0.001810096    1.993    0.498
       127 -12.1365     82.4589    196.6757   5.8541212858e+01   2.2719697266e+01    0.5662577    0.3410035  28.83   0.00179762    1.547    0.354
       128 -11.0130    212.9902    200.7864   3.1437152002e+01   3.6159677156e+00    0.1604292    0.1347902  58.04  0.001068833    2.084    0.520
       129 -13.1400    121.9820    196.7193   4.8868434257e+01   1.6981873861e+01    0.3963711    0.3166351 -43.12  0.002305293    1.361    0.265
       130 -12.8264    172.7590    195.7126   3.7816815812e+01   9.6976214101e+00    0.2424773     0.212833  -6.18 0.0003455012    1.052    0.050
       131 -12.2221    135.3239    197.6566   4.5966129624e+01   1.4816641857e+01    0.2782061    0.1607569  53.20 0.0009273333    2.288    0.563
       132 -12.0537    105.1612    195.6370   5.2729336703e+01   1.9693256990e+01    0.2947635     0.124129  29.67  0.001191362    2.272    0.560
       133 -10.5633     59.2642    198.3546   6.4707495634e+01   2.5405794265e+01    0.1271143    0.1008838 -32.54 0.0006983489    1.624    0.384
       134 -12.6354    192.6098    194.7077   3.3932368201e+01   7.1139579747e+00    0.3200945    0.2277596  -6.85 0.0008310876    1.372    0.271
       135 -10.7709    160.4941    192.9371   3.9811163176e+01   1.1939204930e+01    0.1813729    0.1225528 -40.98 0.0005821636    1.518    0.341
       136 -12.4731    133.2830    191.2366   4.5422141477e+01   1.6344544083e+01    0.3688922    0.2652022 -19.17  0.001621017    1.656    0.396
       137 -11.6927    164.6313    191.9159   3.8798413975e+01   1.1507907647e+01    0.2240454    0.1724583  34.75  0.000460405    1.294    0.227
       138 -13.0795    110.6613    188.5383   5.0354788562e+01   2.0348100826e+01    0.4454331    0.2842106 -74.96  0.000532945    2.187    0.543
       139 -10.6056     50.0590    190.3315   6.6370074689e+01   2.8372940303e+01    0.1887908    0.1538548  46.79  0.000389129    1.069    0.065
       140 -11.9442    152.1561    188.5409   4.0821968931e+01   1.3969632572e+01    0.2587764    0.1619591 -10.68 0.0009768533    2.267    0.559
       141 -11.6402    198.0153    188.1110   3.1852071826e+01   7.3919174036e+00    0.1828242    0.1521378  -5.51 0.0003432665    1.019    0.018
       142 -11.8085    186.2496    187.2423   3.3818749600e+01   9.1617971685e+00       0.2049    0.1587517  -7.58 0.0003684977    1.211    0.174
       143 -11.1575    103.9990    188.2494   5.1962839946e+01   2.1419596600e+01    0.1996246    0.1663188  34.22 0.0003396905    1.092    0.085
       144 -11.5819    227.4223    186.3935   2.6744213178e+01   3.8414304159e+00     0.225599    0.1513389 -14.86 0.0009667261    1.318    0.241
       145 -13.1361    127.1320    185.8704   4.5982765990e+01   1.8350198525e+01    0.5047852    0.2013689  37.09  0.001867293    2.285    0.562
       146 -11.7210    209.0478    186.0555   2.9613688178e+01   6.2232230731e+00    0.1798653    0.1484171 -11.29 0.0004838253    1.021    0.020
       147 -12.0578    156.2378    184.6474   3.9295712176e+01   1.4053072608e+01    0.2895584    0.2176768 -61.39  0.001597638    1.734    0.423
       148 -11.2906    164.0367    185.0213   3.7745284841e+01   1.2795767492e+01    0.1886256    0.1631055  76.28 0.0005255367    1.686    0.407
       149 -12.9443    105.5603    182.5709   5.0721811429e+01   2.2401783517e+01    0.3871737    0.3083306 -14.21  0.001093407    1.528    0.345
       150 -10.7692    150.1400    183.1185   4.0333090561e+01   1.5279662286e+01    0.1747513    0.1595814  63.96 0.0006027574    1.350    0.259
       151 -10.2816     54.2949    184.6831   6.4655381147e+01   2.9184670990e+01    0.1471392   0.09090213  59.38 0.0005276254    1.605    0.377
       152 -12.1476     94.9174    181.1870   5.3250140199e+01   2.4337661665e+01    0.4195478    0.2996292 -62.61  0.001873398    1.525    0.344
       153 -12.0405    134.1429    181.9780   4.3710201945e+01   1.8022051965e+01    0.2189158    0.1829709  30.64 0.0002560621    1.119    0.107
       154 -10.9187     67.0036    181.6285   6.0812847590e+01   2.8256516715e+01    0.1880911    0.1620764  38.34 0.0009192224    1.092    0.084
       155 -10.5933    249.2776    181.2966   2.2725823607e+01   1.9444924716e+00    0.1082882   0.06744444 -10.50 0.0001917007    1.533    0.348
       156 -10.4406    179.4852    179.9901   3.3813068912e+01   1.1336947962e+01     0.165486    0.1128551 -64.79 0.0008098013    2.489    0.598
       157 -12.8097    155.1007    176.5679   3.8116441874e+01   1.5717988510e+01    0.4411144    0.2737966 -63.33  0.002030679    2.415    0.586
       158 -13.0955    116.7048    178.0210   4.7212192052e+01   2.1622168197e+01    0.4208558     0.265759  16.54  0.001369704    1.948    0.487
       159 -11.3111     49.8676    178.6213   6.5259087207e+01   3.1188196854e+01    0.3244988    0.2091709  -1.20  0.001461075    2.335    0.572
       160 -10.5230    171.5779    178.2050   3.5028070327e+01   1.2839597387e+01    0.1698893    0.1147549 -29.29 0.0003177722    1.471    0.320
       161 -13.0270    137.8373    177.0279   4.2012387732e+01   1.8411305126e+01    0.4013071    0.3103499 -88.65  0.001601821    1.930    0.482
       162 -11.2406    191.4349    177.4889   3.1149519086e+01   9.9867662293e+00     0.124879    0.1076658 -11.85 9.421604e-05    1.016    0.016
       163 -13.8377    128.8631    175.6625   4.3867500420e+01   2.0147380758e+01    0.4776442    0.4395468  77.54  0.001123175    1.260    0.206
       164 -12.3516     63.8282    176.5527   6.1079826475e+01   2.9895579042e+01    0.4360452    0.2684928  10.35    0.0017762    2.205    0.546
       165 -10.4092     42.9970    177.7703   6.7124140358e+01   3.2216194258e+01    0.1772755    0.1070431  30.13 0.0003137842    1.567    0.362
       166 -12.3353    106.5866    175.4570   4.9342504147e+01   2.3795757093e+01    0.2657261    0.2260878  35.49  0.000933382    1.097    0.089
       167 -12.2596    145.4617    173.7478   3.9708458945e+01   1.7814385455e+01    0.2648945    0.1809435  35.97  0.001375363    1.412    0.292
       168 -12.6124     78.5989    173.1037   5.6484549423e+01   2.8643494405e+01    0.4868761    0.2653024  36.74  0.001769975    1.662    0.398
       169 -11.7828     84.0536    172.1009   5.4827928615e+01   2.8069572309e+01     0.219051    0.2007774  46.37 0.0003374435    1.016    0.016
       170 -13.6827     90.3670    170.6901   5.2882147822e+01   2.7434663648e+01    0.4884123    0.4246601 -87.08  0.001933349    1.233    0.189
       171 -12.9757    138.9743    171.1258   4.0701276058e+01   1.9403026845e+01    0.4485446    0.2053526  49.47  0.001265233    2.685    0.628
       172 -11.7904    198.5431    170.5611   2.8630122771e+01   1.0060323837e+01    0.2297285    0.2250072 -68.63 0.0009452768    1.383    0.277
       173 -12.1720    153.2676    170.2131   3.7350913479e+01   1.7214077417e+01    0.2591036     0.211219  62.89 0.0006973668    1.573    0.364
       174 -11.9013     53.4094    170.5773   6.3354196370e+01   3.2723111408e+01    0.3074692    0.2189146 -54.99 0.0001550521    1.531    0.347
       175 -11.3571    208.2864    169.8246   2.6848864744e+01   8.7715391963e+00    0.1876844     0.145575 -45.67  0.001184611    1.452    0.311
       176 -11.5926     44.0206    172.0643   6.6259372662e+01   3.3505379604e+01    0.2112883    0.1846354  62.59 0.0003585485    1.017    0.017
       177 -11.5805     62.7577    170.1870   6.0588893158e+01   3.1590068128e+01    0.2400432    0.1730074  45.25 0.0004135336    1.266    0.210
       178 -11.1250    145.4053    169.2374   3.8897865739e+01   1.8707170415e+01    0.1759885    0.1327772 -57.23 0.0002544322    1.511    0.338
       179 -12.2242     39.8197    168.9030   6.7173489263e+01   3.4785359772e+01    0.3074834    0.2022939  25.95 0.0007608017    1.544    0.352
       180 -11.8497    127.4940    166.5879   4.2584313415e+01   2.2267174754e+01    0.3361977    0.2182983 -32.67  0.001433571    1.800    0.444
       181 -13.0268    121.3088    167.5731   4.4279159602e+01   2.3101780077e+01    0.4378647    0.2599716  44.95  0.002010323    1.674    0.403
       182 -13.6455     92.0672    162.3727   5.1076979575e+01   2.9122813051e+01    0.4667139    0.3429445  42.21  0.001049487    1.280    0.219
       183 -11.3456     31.1074    167.8380   6.9662748510e+01   3.6012316714e+01     0.230533    0.1595416  57.66  0.001206528    1.313    0.239
       184 -10.7274    138.9729    167.0136   3.9947302702e+01   2.0232845323e+01    0.1685829    0.1572535  19.75 0.0004426705    1.026    0.025
       185 -12.4900    152.3898    164.8649   3.6536537455e+01   1.8388591783e+01    0.3549123    0.2565275  52.74 0.0006073838    1.614    0.380
       186 -11.0850     64.3584    166.2499   5.9606892690e+01   3.2342946178e+01    0.1941689    0.1338478 -83.05 0.0009349627    1.571    0.364
       187 -12.4061    199.0026    164.2821   2.7379094165e+01   1.0999111831e+01    0.2226155    0.1861503 -28.90 0.0003136066    1.101    0.092
       188 -12.9589    111.0700    163.9616   4.6235080931e+01   2.5619548305e+01    0.4763593    0.3242098 -27.85   0.00219203    1.900    0.474
       189 -12.1102    102.7295    165.2653   4.8659226682e+01   2.6712525778e+01    0.2699638    0.1688043  38.72 0.0006338627    1.500    0.333
       190 -12.0176     44.7352    165.0029   6.5292660177e+01   3.5195500213e+01    0.3972183    0.2168294 -28.82  0.001489466    3.284    0.695
       191 -11.2548     49.1812    160.8411   6.3460463807e+01   3.5710558686e+01    0.2637224     0.212832 -14.10 0.0007403269    1.605    0.377
       192 -11.8318     56.9797    164.4871   6.1558517430e+01   3.3781851395e+01    0.2246116    0.1335356  32.69  0.001030868    1.589    0.371
       193 -11.9769     75.4323    161.2921   5.5652776135e+01   3.1973326975e+01    0.2735538    0.1351616 -57.89  0.001125615    2.053    0.513
       194 -12.4949     25.5184    160.0334   7.0666669425e+01   3.8578958764e+01     0.406358    0.2558198  44.37 0.0009773053    1.436    0.304
       195 -12.1683    170.5130    160.5580   3.1932864992e+01   1.6155466935e+01    0.2381487    0.2195908 -14.16 0.0007009706    1.019    0.018
       196 -12.2672    191.2314    157.5451   2.7444477502e+01   1.3309502055e+01    0.3981418    0.1967254 -49.96  0.001041416    2.348    0.574
       197 -11.1715    152.1970    158.8506   3.5415034792e+01   1.9593622582e+01    0.2062779    0.1915976  62.31 0.0007305383    1.235    0.190
       198 -12.1824    104.7538    158.3568   4.6900659755e+01   2.7964001844e+01    0.4220732    0.2750833  62.27    0.0018586    1.921    0.480
       199 -11.1740     59.2079    159.5701   6.0240740775e+01   3.4725253982e+01    0.1901809    0.1408308  16.31 0.0004275381    1.554    0.356
       200 -13.1946    132.2029    155.6320   3.9368738527e+01   2.3771064944e+01    0.5826138     0.422828  68.04  0.001952059    1.860    0.462
       201 -12.7245    118.9452    157.3531   4.2990864336e+01   2.5740411653e+01    0.3508497    0.2977825  52.47  0.001881757    1.204    0.169
       202 -11.8142    213.1742    156.9570   2.3655118548e+01   1.0049505158e+01    0.1869381    0.1688919   4.33 0.0003899693    1.158    0.136
       203 -11.3779    141.1603    155.7887   3.7287047017e+01   2.2145661264e+01    0.2013425    0.1914199  72.88 0.0004040033    1.172    0.146
       204 -13.5389     75.3433    150.9229   5.4027210801e+01   3.4570060086e+01    0.6370736    0.2511686  41.69  0.002323988    2.356    0.576
       205 -13.0361     81.5240    153.5382   5.2616353964e+01   3.2949646976e+01    0.4236423    0.2633765 -64.42   0.00190951    1.679    0.404
       206 -12.1520     84.4839    150.0150   5.1131884612e+01   3.3345173958e+01    0.2792909    0.2169951  12.13 0.0007754093    1.554    0.357
       207 -11.9356     19.6946    153.7705   7.1953384204e+01   4.0761450604e+01    0.3088466    0.2221254  83.30  0.001334571    1.289    0.224
       208 -14.4822      4.4001    150.4695   7.6581507789e+01   4.2886380615e+01     1.208539    0.7627357 -77.63  0.004613462    1.468    0.319
       209 -12.8625     12.4888    142.5535   7.3379288521e+01   4.4339434976e+01    0.3310563    0.2646161  84.13 0.0005348162    1.122    0.109
       210 -11.7199     98.8071    154.1329   4.7760656446e+01   2.9962304076e+01    0.2006624    0.1760881 -18.44 0.0004217924    1.318    0.242
       211 -12.2972     67.1586    153.8432   5.6988465637e+01   3.5060713404e+01    0.1962357    0.1759857 -26.23 0.0004524855    1.312    0.238
       212 -12.4176     19.7402    138.5637   7.0554702015e+01   4.4779976874e+01    0.5639035    0.2863044 -14.46  0.002055358    3.572    0.720
       213 -12.6304     27.4492    150.6599   6.9178771196e+01   4.0827654371e+01    0.3338577       0.2948  -0.43 0.0006434693    1.362    0.266
       214 -11.9337    109.2056    149.3044   4.3993631379e+01   2.9284341469e+01    0.2853752    0.2615642  63.92 0.0006713694    1.111    0.100
       215 -12.8916    103.3519    143.5391   4.4459732966e+01   3.1680811082e+01    0.6773311    0.4134687  81.61  0.002400646    3.129    0.680
       216 -11.5632     61.9542    154.5195   5.8688927502e+01   3.5632381724e+01    0.2298452    0.1371699  34.33  0.001029229    1.593    0.372
       217 -11.6593    146.8101    148.5652   3.4533688822e+01   2.2604711859e+01    0.2631533    0.1901847 -45.21 0.0006910894    1.370    0.270
       218 -12.2426     95.8249    148.9679   4.7643895341e+01   3.1704055618e+01     0.272761    0.2109886  38.29 0.0009603446    1.252    0.201
       219 -10.4604     20.3101    148.3047   7.1280117618e+01   4.2138740667e+01    0.1378573     0.101412 -42.35 0.0002184948    1.611    0.379
       220 -11.2961    158.0285    145.0344   3.1346289640e+01   2.1260502231e+01    0.2123411    0.1969701  -0.58 0.0004063408    1.080    0.074
       221 -11.1161     83.9902    144.9977   5.0374372530e+01   3.4671029556e+01    0.2385147    0.1847025 -22.54  0.000651909    1.672    0.402
       222 -10.6293    186.8329    143.8227   2.5475466916e+01   1.6384019041e+01    0.1678975    0.1492134 -57.01 -0.000430966    1.279    0.218
       223 -12.7945    142.9886    143.4972   3.4339320637e+01   2.4349027599e+01    0.3284352    0.2718385  -8.87  0.000626879    1.394    0.283
       224 -12.8747     50.0572    141.7726   6.0633221617e+01   4.0563625551e+01    0.4831492     0.220807  25.32  0.001861108    2.346    0.574
       225 -11.7724     37.9318    142.9960   6.4856523386e+01   4.1726333957e+01    0.2206333    0.1954444  74.45 0.0003739934    1.035    0.034
       226 -11.5940    178.6846    141.6612   2.6517402504e+01   1.8180578277e+01    0.2247519    0.1616474 -23.70  0.001186676    1.454    0.312
       227 -11.2658     30.4382    142.4948   6.7320460747e+01   4.2683246009e+01    0.1421504    0.1308114  85.02 0.0006222459    1.047    0.045
       228 -10.6774    150.5269    141.5150   3.2217694338e+01   2.3343936743e+01    0.1423622     0.135676 -16.71 0.0001018631    1.029    0.028
       229 -12.8560     96.5353    138.4492   4.5377799922e+01   3.4122845473e+01    0.4263711    0.2851425 -14.30  0.001671964    2.552    0.608
       230 -12.3233     78.0435    139.8679   5.1249159404e+01   3.6936590100e+01    0.3782741    0.2237547 -76.35 0.0009905928    2.070    0.517
       231 -12.1353     60.0064    139.9691   5.7058592863e+01   3.9676304097e+01    0.3375403    0.2037816 -55.17 0.0007975508    1.674    0.403
       232 -12.8756     60.5908    136.1118   5.6218485303e+01   4.0603610567e+01    0.4655392    0.2316932  40.94 0.0007220973    1.906    0.475
       233 -12.6302     72.8512    139.1864   5.2761807351e+01   3.7943241370e+01    0.2878584     0.252734 -85.04 0.0003240651    1.140    0.123
       234 -13.4059     68.4806    137.2219   5.3813509598e+01   3.9131842508e+01     0.453509    0.3454553  49.45 0.0002986267    1.276    0.216
       235 -11.0183    234.1608    140.1704   1.7372130908e+01   9.5184409874e+00    0.1575113    0.1189841 -42.59 0.0004117793    1.276    0.216
       236 -11.2144    206.2976    139.0351   2.1213494278e+01   1.3945596173e+01    0.1792465    0.1486511 -30.33 0.0004098112    1.039    0.038
       237 -10.7879    121.8020    145.1478   3.9838780104e+01   2.7942488521e+01     0.195009     0.170351 -19.65 0.0002788127    1.272    0.214
       238 -12.8787     40.7200    137.4930   6.3183156684e+01   4.2868960357e+01    0.4306665    0.2545901  43.12 0.0009587268    1.611    0.379
       239 -11.2366    183.8650    137.1128   2.4603200051e+01   1.8076980026e+01    0.1912314     0.171275 -48.11 0.0002667018    1.152    0.132
       240 -11.5760     31.9998    136.3566   6.6055178990e+01   4.4161336879e+01    0.2568264    0.1839767 -46.92 0.0007818222    1.546    0.353
       241 -12.2312    134.6673    135.4010   3.4539809010e+01   2.7638527445e+01    0.3271102    0.2506228  26.63  0.000175818    1.452    0.311
       242 -10.9165    138.4602    133.6587   3.3245582935e+01   2.7272107631e+01    0.2689806    0.1693418 -26.42 0.0008012522    2.101    0.524
       243 -13.4773    125.0266    134.3022   3.6686333013e+01   2.9747031608e+01    0.5896259    0.4018588  29.83  0.001800491    1.641    0.391
       244 -11.9618    111.0816    135.9065   4.0725315221e+01   3.2051694952e+01     0.276328    0.2068041  33.27  0.000970712    1.382    0.276
       245 -13.0063     52.7077    135.1262   5.8716296923e+01   4.1972313866e+01    0.3751057    0.1793325  45.58  0.001479934    2.057    0.514
       246 -12.7438      9.4467    143.5130   7.4470104550e+01   4.4327618580e+01    0.3038345    0.2142232  71.38  0.001168564    1.291    0.225
       247 -12.3706     77.9665    133.1641   4.9989154720e+01   3.8654108576e+01     0.297471    0.2669196 -27.35 0.0006963665    1.279    0.218
       248 -12.5548     82.1652    130.9274   4.8203919172e+01   3.8511375180e+01    0.3355457    0.2890348 -87.42  0.001391774    1.204    0.170
       249 -11.5267     83.9432    127.4948   4.6922846027e+01   3.9067341856e+01    0.2356655    0.2090064 -68.97 0.0007168993    1.126    0.112
       250 -12.8898     49.2682    130.7968   5.9204774007e+01   4.3586747260e+01    0.4004692    0.2530834  21.06  0.001538766    1.786    0.440
       251 -12.0538     13.4939    134.4927   7.2342954282e+01   4.6407259500e+01     0.236809    0.1721231 -69.37  0.001257956    1.309    0.236
       252 -13.1704     18.9947    131.6817   7.0116936243e+01   4.6696074777e+01    0.5063097    0.2728651  28.61  0.001594325    1.846    0.458
       253 -11.5231     86.2239    134.9304   4.7752887223e+01   3.6805712218e+01    0.2536414    0.1714739 -31.62  0.001076096    1.940    0.484
       254 -11.6879     31.5056    131.5232   6.5615793936e+01   4.5516487134e+01    0.2379702    0.2173313  78.28  0.001349306    1.005    0.005
       255 -11.5877     88.8709    130.1965   4.5957202969e+01   3.7519552931e+01    0.2041838    0.1839829 -12.20 0.0003265974    1.299    0.230
       256 -11.1637    247.0208    130.0000   1.3785931575e+01   9.1452430376e+00    0.1571354    0.0673438  48.74 0.0008068526    2.973    0.664
       257 -12.5817    176.8660    127.0884   2.3698632635e+01   2.1151873053e+01    0.3237729    0.2329557  37.19  0.001168704    1.534    0.348
       258 -11.7065    122.8730    127.8392   3.5774162338e+01   3.1608310626e+01    0.2411256    0.2136896  -5.91  0.001243333    1.308    0.236
       259 -12.0522     97.1264    127.0834   4.2774597652e+01   3.6774560647e+01    0.3226377    0.2000998 -50.78  0.001390492    1.622    0.383
       260 -12.8272     58.2880    126.9250   5.5375478778e+01   4.3361978044e+01    0.4518812    0.2196028 -41.31   0.00162935    2.687    0.628
       261 -11.9830     42.0284    127.0457   6.1184580152e+01   4.5517750032e+01    0.3319465    0.2611654 -62.37  0.001400299    1.247    0.198
       262 -11.1273    183.1026    126.8892   2.2524336248e+01   2.0026432762e+01    0.1944964    0.1713739 -56.68            0    1.197    0.165
       263 -10.8115     35.7545    126.9936   6.3457788109e+01   4.6273118485e+01    0.1904915    0.1185781 -72.16 0.0003952605    1.533    0.348
       264 -12.3765      5.7890    127.0181   7.4452872645e+01   4.8991936286e+01    0.2937855    0.1422707 -51.85  0.001214533    2.156    0.536
       265 -12.9817      9.6148    125.8154   7.2947489721e+01   4.9042060933e+01    0.2621827    0.2090245  88.42  0.001466909    1.130    0.115
       266 -10.8867    115.9358    126.3060   3.7252607043e+01   3.3328998328e+01    0.2210396    0.1944216  40.74  0.001137476    1.147    0.128
       267 -12.2525     26.8511    125.3957   6.6516486740e+01   4.7656839425e+01    0.2639192    0.2268088 -82.09 0.0004141744    1.084    0.078
       268 -12.5821     75.6945    123.5036   4.8752170990e+01   4.1504576698e+01    0.3430794    0.2545049 -50.71  0.001578493    1.378    0.274
       269 -11.0088    164.0460    122.7148   2.5165487823e+01   2.4435417431e+01    0.1884808    0.1849147   7.32 0.0002162911    1.070    0.065
       270 -11.4903     90.8584    123.0919   4.3784022169e+01   3.8916808047e+01     0.212602    0.1856479 -24.52 0.0005363481    1.333    0.250
       271 -13.7995     14.4070    119.7685   7.0538422265e+01   5.0307529948e+01    0.5065878    0.4083242  56.82  0.002308207    1.204    0.169
       272 -12.9045      9.3658    117.9301   7.2286614870e+01   5.1189778449e+01    0.3134605    0.2551144  57.50 0.0007785777    1.192    0.161
       273 -12.4008      3.7931    121.6144   7.4746013738e+01   5.0576531800e+01     0.359789    0.2002269 -77.41  0.001717416    1.604    0.377
       274 -11.1176    178.9917    121.9457   2.2154630424e+01   2.1680064773e+01    0.2076446    0.1886152 -32.37 0.0004266221    1.032    0.031
       275 -10.1809    129.0000    121.9712   3.2832481206e+01   3.1669219446e+01    0.2443263   0.08491922 -47.05 0.0004395626    2.840    0.648
       276 -11.5486    193.4928    121.5078   1.9564756340e+01   1.9057315173e+01    0.1342937    0.1189461 -35.76 -4.452411e-05    1.003    0.003
       277 -11.7956    105.1136    121.3461   3.9107930840e+01   3.6615786722e+01    0.3610086    0.2202036  58.28  0.001089936    1.943    0.485
       278 -12.4188    100.2825    119.4111   4.0062576958e+01   3.8020505371e+01    0.4008653    0.2116348  35.07  0.001552044    2.043    0.510
       279 -10.8186     54.6572    121.6858   5.5689810084e+01   4.5276760472e+01    0.1557973    0.1154034 -28.30  0.000704748    1.708    0.414
       280 -10.6637     28.9904    120.9640   6.5114574237e+01   4.8642298222e+01    0.1714744    0.1600506  75.57 0.0009710549    1.032    0.031
       281 -13.9265     62.5879    111.0078   5.0610198866e+01   4.6894459258e+01     1.087838    0.5348678 -55.89  0.004285671    1.959    0.490
       282 -13.7604     68.1118    113.4454   4.9161363504e+01   4.5364694358e+01     1.067591    0.2582405 -48.78  0.002817624    4.440    0.775
       283 -14.2932     74.9531    115.0843   4.7146694970e+01   4.3783634721e+01    0.9822717    0.6056163  63.65  0.002814832    2.083    0.520
       284 -12.2773     82.3838    112.1434   4.3945581802e+01   4.3196883896e+01    0.4544058    0.2664166 -50.11  0.001382723    1.711    0.415
       285 -10.9675    211.2078    119.0160   1.6298145750e+01   1.6338924534e+01    0.1759231   0.08923291 -37.27 0.0004250169    1.679    0.404
       286 -11.9903     64.4674    118.5863   5.1566589403e+01   4.4618010242e+01    0.2656921    0.2292113  51.65 0.0006450443    1.141    0.124
       287 -11.8192    100.7227    113.5888   3.8511637813e+01   3.9319596363e+01    0.3176829    0.2428301  28.95   0.00110721    1.470    0.320
       288 -12.0931     96.5364    115.9669   4.0361709609e+01   3.9576193903e+01    0.3700793    0.2793193 -26.45  0.000390851    1.684    0.406
       289 -12.5853     93.4918    116.4653   4.1419244818e+01   4.0043651343e+01     0.461342    0.2502592  48.79  0.001600189    1.903    0.475
       290 -11.9733     20.5766    113.5387   6.7367658270e+01   5.1475237586e+01    0.3823331    0.2013326 -58.29  0.001066206    1.775    0.437
       291 -12.6052     20.3424    110.0114   6.6980478199e+01   5.2454649690e+01    0.2847793    0.2684389  70.72 0.0004331989    1.059    0.056
       292 -11.1074    214.4989    114.1119   1.4786459022e+01   1.6547343680e+01    0.1732292    0.1609791 -33.44 0.0003711445    1.104    0.094
       293 -10.4308    121.9435    114.0000   3.2676753279e+01   3.4875378681e+01    0.2429691   0.08715519  44.61 0.0004845771    2.816    0.645
       294 -13.7712      9.9988    111.0710   7.1314084601e+01   5.3000920537e+01    0.6151841    0.3499018  64.71  0.002824856    1.846    0.458
       295 -11.4423     87.6833    108.9657   4.1417445263e+01   4.2985878540e+01     0.333149    0.2275045  70.58  0.001391719    1.906    0.475
       296 -11.6575      2.4162    109.3227   7.4206909345e+01   5.3969993462e+01    0.2597832    0.1372631  43.01  0.001205183    1.887    0.470
       297 -10.9925    210.3829    107.8049   1.3995682943e+01   1.8257528584e+01    0.1835801    0.1092809 -29.62 0.0005902799    1.615    0.381
       298 -10.4008     91.9927    108.0064   3.9788810978e+01   4.2382289704e+01    0.1837426    0.1727286 -68.66 0.0009518207    1.050    0.048
       299 -11.2708    139.7197    107.0337   2.6536119537e+01   3.2573706434e+01    0.2635265    0.2221861  50.69 0.0009098088    1.221    0.181
       300 -13.1269     82.3652    115.9029   4.4845554851e+01   4.2260815108e+01    0.4306312    0.3310869 -60.73  0.001026537    1.300    0.231
       301 -12.2800     12.6996    104.2513   6.9381704588e+01   5.4647989020e+01    0.2567544    0.2337025  78.80  0.000372749    1.055    0.052
       302 -11.2355    105.1542    102.7235   3.4375131369e+01   4.0939917453e+01    0.2617046    0.1688086  87.75 0.0007257984    2.717    0.632
       303 -13.0250      5.0608    100.4747   7.2193837313e+01   5.6192034762e+01    0.4486856    0.3896134 -19.41  0.002639465    1.304    0.233
       304 -11.6683      8.8843     96.5253   7.0034437986e+01   5.7005858995e+01     0.292029    0.2018214  73.67 0.0008302172    1.485    0.327
       305 -11.5743      5.4825     94.4711   7.1298546703e+01   5.7777349983e+01    0.2366346    0.1815777  15.48 0.0009637965    1.445    0.308
       306 -11.8691     78.8875    101.9771   4.2578935019e+01   4.6366630261e+01    0.3385534     0.216691  47.49  0.001228211    1.577    0.366
       307 -11.7999     55.9579    101.3129   5.0903140036e+01   5.0456249220e+01    0.2800493    0.2194806 -68.20 0.0005413929    1.263    0.208
       308 -11.9517     57.6890     97.5700   4.9316022428e+01   5.1152810861e+01    0.3081053     0.256656  48.75 0.0008920273    1.210    0.174
       309 -11.8948    129.4906    100.5149   2.7241683121e+01   3.6151389475e+01    0.2510949    0.2397337 -84.05 7.763408e-05    1.025    0.024
       310 -10.4819    116.5925    100.5803   3.0575627435e+01   3.8966976519e+01    0.1561495    0.1423556 -85.61 0.0007950947    1.118    0.106
       311 -10.8524     85.4934    100.4556   3.9922236539e+01   4.5475640818e+01    0.1547618     0.150041  84.01 0.0001567025    1.009    0.009
       312 -12.3643     94.1821     98.5535   3.6573182194e+01   4.4185548891e+01    0.3778518    0.2804838  59.25 0.0009443428    1.433    0.302
       313 -10.6972    122.7785     97.8198   2.8188216218e+01   3.8201371569e+01     0.259144    0.1777609   2.04 0.0009585111    2.864    0.651
       314 -13.5190     74.4587     89.9627   4.0861951076e+01   5.0127628948e+01    0.4688065    0.3620692  75.12  0.002192812    1.543    0.352
       315 -11.0608    176.4818     94.4731   1.6063573811e+01   2.7055838477e+01    0.1411746     0.127509 -51.42 1.025125e-05    1.004    0.004
       316 -13.1987    121.3974     91.4606   2.6752119467e+01   3.9844235859e+01    0.5919814    0.4250301  -3.83  0.001691949    2.378    0.579
       317 -11.5989     57.9840     91.1502   4.7545603435e+01   5.2739742246e+01    0.3353822    0.2326529 -48.41  0.001304845    1.445    0.308
       318 -12.0424     54.8423     85.3049   4.7243118797e+01   5.4713536333e+01    0.5076534    0.4818073 -14.29  0.002792788    1.134    0.118
       319 -10.8038     41.1456     91.7018   5.4763234070e+01   5.5081562656e+01    0.2334696    0.1676142  51.61 0.0007060835    1.478    0.324
       320 -11.4836     25.8313     91.9546   6.1642075855e+01   5.6800024081e+01    0.2764446    0.2174225   8.00 0.0008408428    1.438    0.305
       321 -12.2490      3.0249     88.5965   7.1696688327e+01   5.9489069671e+01    0.4849148    0.2053714 -78.88  0.002002201    2.180    0.541
       322 -11.2004      6.6791     87.0188   6.9752345340e+01   5.9690399241e+01    0.2477591    0.2091933  75.62  0.001099639    1.187    0.157
       323 -11.5009    153.8215     90.4127   1.9137861942e+01   3.2707002233e+01    0.2100446    0.1356724  42.71 0.0009517587    1.765    0.433
       324 -14.5513     94.3981     83.4801   3.2080950842e+01   4.7561423985e+01    0.7003406    0.5506833  77.52  0.001624127    1.481    0.325
       325 -11.4630    149.7645     85.0216   1.8474277945e+01   3.4618363883e+01    0.1987938     0.118617 -41.36 0.0003389042    1.599    0.375
       326 -10.8043    144.4897     82.8361   1.8935104713e+01   3.6234475874e+01    0.2155725    0.1418106 -41.98  0.000512957    1.465    0.317
       327 -11.8322     65.4401     81.7531   4.1870393238e+01   5.3767037485e+01    0.3251695    0.2134606  27.04  0.001420469    1.757    0.431
       328 -11.3454      9.1576     77.6036   6.7036065803e+01   6.2008230829e+01    0.2989736    0.1794557 -89.43   0.00141257    1.777    0.437
       329 -12.2768      4.2525     79.9860   6.9917062802e+01   6.1693856387e+01    0.4269413    0.2630243  60.53  0.002091218    1.811    0.448
       330 -11.4114    112.5048     79.0941   2.5395798826e+01   4.4416919731e+01    0.3863328    0.2089323  66.67  0.001100195    2.514    0.602
       331 -11.7566    162.9835     77.9813   1.4081486907e+01   3.2849432754e+01    0.2373196    0.1640147 -70.53 0.0007370089    1.674    0.403
       332 -10.2849     56.2932     78.3314   4.4592290343e+01   5.6186541068e+01    0.1525955    0.1157097 -23.02 0.0007023401    1.633    0.388
       333 -11.3784    106.0941     73.2041   2.5284505870e+01   4.7086623554e+01    0.2709356    0.2245272 -67.97 0.0007106926    1.267    0.211
       334 -12.2397      1.5847     73.4600   7.0308012441e+01   6.3542250411e+01    0.2740656    0.1448599 -62.91  0.001309106    1.626    0.385
       335 -10.6209     45.4738     73.4617   4.7929906765e+01   5.9088581482e+01    0.1453248    0.1396154  83.87 0.0003199769    1.073    0.068
       336 -12.2897     52.7180     71.3987   4.3973383921e+01   5.8438026773e+01     0.400317    0.2932674 -15.04  0.001489505    1.825    0.452
       337 -12.0041     71.1093     69.6625   3.5707450957e+01   5.5466077831e+01    0.4367353    0.3057992  -3.15  0.001788085    2.399    0.583
       338 -11.1601     79.8207     70.1285   3.2622331293e+01   5.3579682470e+01     0.204752    0.1827482  -3.63 0.0003886702    1.320    0.243
       339 -12.0963     60.2802     67.5919   3.9388618696e+01   5.7996710146e+01    0.4993258    0.2990782 -72.97  0.001546934    2.602    0.616
       340 -11.8102      7.7843     67.6693   6.5913901489e+01   6.4665354466e+01    0.3258177    0.2259219 -77.35 0.0008691885    1.397    0.284
       341 -11.0530    124.8297     66.8481   1.8419014182e+01   4.3829965199e+01    0.2100489    0.2051752  33.63 0.0003053011    1.157    0.135
       342 -11.9871     48.9636     66.2721   4.3988490842e+01   6.0253766681e+01    0.3174956    0.2749493   7.81 0.0004842455    1.269    0.212
       343 -11.6330     46.7623     62.6387   4.3778481463e+01   6.1446312294e+01    0.3234158    0.2078436  36.16 0.0007149749    1.567    0.362
       344 -11.7976     21.0900     61.0881   5.6806003308e+01   6.5199129250e+01    0.2003346    0.1895171 -51.69 0.0004044375    1.026    0.025
       345 -12.4168     14.1361     60.1632   6.0565078050e+01   6.6073147963e+01    0.5496197    0.3071339  22.77   0.00253891    1.861    0.463
       346 -11.1997     27.4422     60.7617   5.3151105889e+01   6.4582634957e+01    0.2092083    0.1735096  39.89  0.000360589    1.275    0.215
       347 -11.1587    183.7923     60.1086   6.1876343863e+00   3.1004192629e+01    0.2058271     0.159885 -60.29 0.0003813107    1.164    0.141
       348 -13.0356     37.4675     54.6846   4.5615413863e+01   6.4677010891e+01     0.606984    0.4554476 -47.64  0.002350653    1.295    0.228
       349 -11.2650    197.1601     58.1947   4.0891074260e+00   2.8384259863e+01    0.1809236    0.1696088 -44.47 0.0003718603    1.184    0.155
       350 -12.9536    153.3759     57.1338   9.7982447125e+00   3.8512185769e+01    0.2933114      0.25702 -52.61 0.0005240021    1.085    0.079
       351 -10.8949    179.7225     56.0505   5.6439357131e+00   3.2508126987e+01    0.1888832    0.1566003 -50.83 0.0003041604    1.074    0.069
       352 -11.1724     96.9643     56.4866   2.2106678677e+01   5.2422762068e+01    0.2272664    0.1442379  54.41 0.0006046488    1.531    0.347
       353 -13.3305    106.6824     51.5333   1.7606144227e+01   5.0938571346e+01    0.5124536    0.3444771 -85.15 0.0007130919    1.993    0.498
       354 -12.0729    195.4662     52.3753   2.8290390862e+00   2.9557801679e+01     0.230915    0.1946113 -58.36  0.000436556    1.011    0.011
       355 -11.4920    174.1689     50.8426   4.9556165157e+00   3.4526610309e+01    0.2248074    0.1658832 -62.16  0.001177344    1.252    0.202
       356 -11.2019    151.1557     51.1204   8.3609938658e+00   3.9967742963e+01    0.2018229    0.1990068  70.79 0.0004760988    1.180    0.153
       357 -10.7420    122.6995     51.6892   1.3872262157e+01   4.6939137560e+01    0.1442859    0.1161975  26.01 0.0003243217    1.604    0.377
       358 -12.3973     25.2322     54.3099   5.2317801013e+01   6.6371274578e+01    0.2442378    0.2016775 -21.00 0.0006965831    1.249    0.199
       359 -11.8505     16.8608     49.5959   5.5823990421e+01   6.8370018568e+01    0.3748595    0.2255786  -7.14  0.001756212    2.087    0.521
       360 -13.2252     29.9818     49.9276   4.7993716951e+01   6.6786403182e+01    0.3902386    0.3194089 -40.49  0.001524647    1.176    0.149
       361 -12.7569     89.3735     45.1842   2.0010544717e+01   5.6196593105e+01    0.2883684    0.2766218  70.97 0.0005551974    1.011    0.011
       362 -11.8592     49.7118     43.9685   3.4931036243e+01   6.4917838471e+01    0.2369512    0.1980082  43.66   0.00036671    1.194    0.163
       363 -10.5586      3.6738     44.3008   6.2941439089e+01   7.0680099440e+01     0.128334   0.09486145  56.57  0.000568955    1.638    0.389
       364 -13.2719     34.1366     40.3450   4.1618636907e+01   6.8254616978e+01    0.4486574     0.311599  53.81  0.002074955    1.768    0.435
       365 -12.3592    120.6377     39.3666   9.9854114497e+00   4.9329603847e+01    0.2911243    0.2439615  75.15 0.0005442328    1.124    0.110
       366 -11.0565     94.2943     40.3130   1.6601714072e+01   5.5791683250e+01    0.1446897    0.1125701  25.13 0.0002287587    1.596    0.373
       367 -10.8398     83.8728     37.9016   1.8667890608e+01   5.8681454281e+01    0.2061282    0.1886634  34.10 0.0003870238    1.147    0.128
       368 -12.5566      9.7729     36.9382   5.6199125360e+01   7.1915457125e+01     0.247352    0.2191762 -17.66 0.0003752163    1.067    0.063
       369 -11.5543    140.3092     36.2167   5.4029792977e+00   4.4774960658e+01    0.2570755    0.1867079  -5.60  0.001250445    1.954    0.488
       370 -11.4491     51.3772     36.8680   3.0839148951e+01   6.5937735828e+01    0.2039183    0.1283834 -29.58 0.0009506642    1.815    0.449
       371 -12.0314     42.0899     34.0365   3.4154858278e+01   6.8171454273e+01    0.2901617    0.2312105 -10.14 0.0006983209    1.409    0.290
       372 -11.4020    127.5798     32.7104   6.3198157156e+00   4.8470514545e+01    0.2275728    0.2031327  48.68 0.0005544397    1.247    0.198
       373 -12.0385     80.0015     36.5068   1.9295927201e+01   5.9813543139e+01    0.4250293    0.2224354 -42.01  0.001831489    1.993    0.498
       374 -12.5651     30.2059     31.8985   3.9978372025e+01   7.0525574643e+01    0.3989766    0.2449484  46.79  0.001977627    1.837    0.456
       375 -11.5347    190.1629    249.1533   4.2490771006e+01  -1.6782882446e-01    0.1544126    0.1106079   1.95 0.0002935835    1.118    0.106
       376 -10.6720    137.3571     30.3099   3.9067272555e+00   4.6287477926e+01    0.1433358     0.103231  39.42 0.0007042696    1.733    0.423
       377 -11.7452     96.5230     30.0008   1.1753137585e+01   5.6733588300e+01    0.2065894    0.1429418 -31.24 0.0004934454    1.556    0.357
       378 -11.1795      2.7502     30.0421   5.8986387960e+01   7.3995027298e+01    0.2537081    0.1570075  12.65   0.00138709    1.658    0.397
       379 -10.6440    116.5427     26.4394   6.0213424366e+00   5.2095731282e+01    0.1421218    0.1278699  88.60 6.802189e-05    1.007    0.006
       380 -11.4303     45.6057     25.8260   2.8007784359e+01   6.8936523694e+01    0.1929539    0.1249775 -49.16 0.0009570902    1.776    0.437
       381 -12.1459      1.7060     25.6451   5.8121748082e+01   7.5024154291e+01    0.2135822    0.1643903 -63.80 0.0006211285    1.337    0.252
       382 -12.4555     84.6127     24.1771   1.2330370505e+01   6.0454695963e+01    0.2873086    0.2144555 -80.49  0.001464821    1.580    0.367
       383 -10.3657     73.6409     24.7280   1.5906450331e+01   6.3024386632e+01    0.1459183   0.09970795  33.26 0.0007000323    1.649    0.394
       384 -11.0911     66.9558     23.9558   1.7822929532e+01   6.4681664044e+01    0.2820559    0.1611561 -72.73 0.0009570729    4.117    0.757
       385 -11.5929     71.6411     31.5793   1.9887374326e+01   6.2508560678e+01    0.3030123    0.1194045  48.91  0.001150714    2.365    0.577
       386 -11.3737     70.6657     20.9729   1.5020215750e+01   6.4218714195e+01    0.1868745    0.1771358 -21.35 0.0005679514    1.136    0.120
       387 -11.3860    140.2071     19.1519   3.5978994414e+02   4.6879171901e+01    0.4139389    0.1585933  63.34  0.001429552    2.349    0.574
       388 -11.8789     96.9393     15.6817   5.5306121585e+00   5.8360573592e+01    0.2251298    0.1922125 -46.35   0.00026982    1.232    0.189
       389 -10.3319    127.3077     15.7011   3.2030806581e-01   5.0546269367e+01    0.1450769   0.09237514 -65.55 0.0002742276    1.594    0.373
       390 -10.7058     65.9141     16.0000   1.4026657230e+01   6.5947156250e+01    0.2302946   0.07202548  59.20 0.0008024474    2.943    0.660
       391 -10.9127     34.0097     15.2069   2.8072507219e+01   7.2758137246e+01    0.1736191    0.1522134  27.85            0    1.054    0.051
       392 -10.9170    125.0435    249.4991   5.4921680548e+01   7.3234778139e+00    0.1798201   0.09391938  28.36 0.0005344946    1.529    0.346
       393 -10.9344    121.0001    248.7172   5.5665875068e+01   7.9348360290e+00    0.1657431    0.1246531  26.31 0.0003777927    1.050    0.048
       394 -11.8295     50.2017    246.4264   7.0639427175e+01   1.6661469399e+01    0.4227784    0.1937452 -66.63  0.002058591    2.570    0.611
       395 -14.2330      5.0893    184.3724   7.8147180365e+01   3.4364582028e+01     1.027661    0.8319739 -12.81  0.004328133    1.659    0.397
       396 -11.8863    162.6102    247.5061   4.7288049784e+01   3.1375711610e+00    0.1927274    0.1569186  18.34 0.0004770125    1.130    0.115
