#   1 NUMBER                 Running object number                                     
#   2 MAG_AUTO               Kron-like elliptical aperture magnitude                    [mag]
#   3 X_IMAGE                Object position along x                                    [pixel]
#   4 Y_IMAGE                Object position along y                                    [pixel]
#   5 X_WORLD                Barycenter position along world x axis                     [deg]
#   6 Y_WORLD                Barycenter position along world y axis                     [deg]
#   7 A_WORLD                Profile RMS along major axis (world units)                 [deg]
#   8 B_WORLD                Profile RMS along minor axis (world units)                 [deg]
#   9 THETA_WORLD            Position angle (CCW/world-x)                               [deg]
#  10 FWHM_WORLD             FWHM assuming a gaussian core                              [deg]
#  11 ELONGATION             A_IMAGE/B_IMAGE                                           
#  12 ELLIPTICITY            1 - B_IMAGE/A_IMAGE                                       
         1 -10.0425    196.0182     14.6757   2.8962028464e+02   6.4655608778e+00   0.02386929   0.01306278 -39.54  0.001029904    2.072    0.517
         2 -10.2012    200.9311      9.0013   2.8953034350e+02   6.5024728321e+00   0.03018788   0.02417914  17.97  0.003486739    1.317    0.241
         3  -9.2445    199.0107      4.8095   2.8952713039e+02   6.5619544036e+00   0.01806996   0.01317297   4.47  0.001752422    1.614    0.381
         4  -8.4871    236.4354      1.7441   2.8908255468e+02   6.3798294828e+00   0.01198736  0.009481245  16.18 0.0007723761    1.349    0.259
         5  -9.8199    246.3922    244.3922   2.9041786154e+02   3.5208974314e+00   0.01471447    0.0121627   1.03   0.00170566    1.342    0.255
         6  -7.3780     46.9959    250.2335   2.9272040590e+02   4.6039396102e+00   0.01092177  0.006725894  52.50 0.0004391303    1.857    0.462
         7  -9.4715     44.3441    248.3222   2.9273929351e+02   4.6413009199e+00   0.01637072   0.01150759   9.16  0.001723865    1.649    0.394
         8  -8.7058     27.4873    249.9645   2.9294091656e+02   4.7191874599e+00   0.01666901  0.009527534  26.10   0.00152127    1.797    0.443
         9 -10.3341     29.6355    205.5345   2.9265365734e+02   5.2209291004e+00   0.04746884   0.01528713 -59.12  0.003544034    2.808    0.644
        10 -10.0910      3.1120    243.7817   2.9318193420e+02   4.9306960513e+00   0.03100447   0.02701626 -41.92  0.002003298    1.154    0.134
        11 -12.2379     19.7754    241.8997   2.9298106835e+02   4.8568030363e+00    0.1371536    0.0312256 -52.60  0.009054269    3.733    0.732
        12 -10.3777      8.3919    250.0979   2.9315911238e+02   4.8273065902e+00   0.04362281    0.0165636  29.26  0.002941639    2.578    0.612
        13  -7.1963     86.0062    244.5025   2.9224241101e+02   4.4457233719e+00  0.009423867  0.006467622  27.91 0.0005565877    1.479    0.324
        14  -8.2869    230.9639    242.0358   2.9057909856e+02   3.6373639960e+00   0.01219348  0.007208582  -9.49  0.001039785    2.655    0.623
        15  -7.4621    107.4727    244.5164   2.9199816758e+02   4.3218676936e+00   0.00648504  0.006360381 -68.20  0.000148734    1.009    0.009
        16  -9.2249     53.2055    236.4041   2.9256789615e+02   4.7282246535e+00     0.017964   0.01026928  37.69  0.001059669    1.744    0.427
        17  -9.2539     53.7594    233.0215   2.9254156967e+02   4.7641738125e+00   0.01867918   0.01090015 -65.66  0.001306102    1.723    0.420
        18  -6.9903    128.4355    235.4221   2.9170567666e+02   4.3061547869e+00  0.006411437  0.006316162 -65.93 0.0001407801    1.007    0.007
        19  -7.8402      1.4775    234.0789   2.9314324288e+02   5.0523524337e+00  0.009634756  0.006315088 -61.67 0.0003382456    1.484    0.326
        20  -9.1361     39.1988    232.3980   2.9270369608e+02   4.8551273311e+00   0.01178203   0.01072645 -74.42 0.0005273963    1.103    0.093
        21  -7.8255    133.8647    230.0720   2.9161214664e+02   4.3366995744e+00   0.01273883  0.008512507 -57.76  0.001340862    1.440    0.306
        22  -8.6648     96.8406    227.5675   2.9201872027e+02   4.5791922943e+00   0.01339098  0.008164087  68.58  0.001210579    2.316    0.568
        23  -9.1010     39.1621    226.3635   2.9266841004e+02   4.9251598825e+00   0.01168001   0.01108732  45.64 0.0003478749    1.073    0.068
        24  -8.8662     91.2281    226.4004   2.9207570206e+02   4.6250364279e+00  0.009755791  0.005759819  39.14   0.00095512    1.703    0.413
        25  -7.5125    110.4635    224.5010   2.9184544624e+02   4.5361252044e+00  0.006491737  0.006350882 -81.92 0.0001480172    1.024    0.024
        26  -9.9032     56.5369    220.6107   2.9243645767e+02   4.8917820728e+00   0.02210656   0.01386918 -37.43 0.0009218478    1.778    0.438
        27 -11.7610     63.8219    209.9955   2.9229058890e+02   4.9726648990e+00   0.06478353   0.04792845  40.52  0.006910412    1.373    0.272
        28  -8.1067     47.9895    218.0237   2.9251849650e+02   4.9708880352e+00   0.01059577  0.007452026 -30.89 0.0005604015    1.623    0.384
        29  -7.8857     36.5171    213.5091   2.9262246004e+02   5.0890990134e+00   0.01106785  0.006558009   9.49  0.001018157    2.153    0.536
        30 -10.2850     11.2196    206.5516   2.9286952846e+02   5.3149616214e+00   0.03002847   0.01780595  21.31  0.002122841    1.817    0.450
        31  -7.4959     39.2584    208.4364   2.9256119426e+02   5.1320306766e+00  0.009537582  0.005789951  40.63 0.0009443711    1.672    0.402
        32  -8.5812     58.1243    203.6322   2.9231778574e+02   5.0790802417e+00  0.009163942  0.008343149  13.30  0.001115949    1.142    0.124
        33  -7.1854     75.3291    199.2997   2.9209608737e+02   5.0301383225e+00   0.00687549  0.004893054 -27.28 0.0002589042    1.642    0.391
        34 -10.0548    182.8346    196.1427   2.9085330775e+02   4.4460992497e+00   0.01094415   0.01043857 -74.28 0.0002715126    1.045    0.043
        35 -10.2555     35.3949    191.9188   2.9250738434e+02   5.3453590232e+00   0.03326369   0.01532496 -61.80  0.002936798    2.095    0.523
        36  -7.3480      7.9937    195.5103   2.9284096110e+02   5.4612458555e+00  0.009541513  0.006479395  27.21 0.0005811233    1.500    0.333
        37  -9.0135     77.7507    188.8625   2.9200658015e+02   5.1369265994e+00   0.02116174   0.01053457 -43.03  0.001640287    2.182    0.542
        38  -8.7931     81.4471    182.9142   2.9192915817e+02   5.1844362100e+00   0.01524563   0.01095046 -51.88 0.0007965228    1.353    0.261
        39  -7.4850    183.1953    181.3722   2.9076130637e+02   4.6147481378e+00  0.009043508  0.005847413  38.60 0.0004961203    1.556    0.357
        40  -8.8950     89.0091    171.7778   2.9177686153e+02   5.2696618660e+00   0.01156152   0.01087379 -23.00 0.0003515855    1.095    0.087
        41 -10.4044     77.4270    167.9633   2.9188620916e+02   5.3805412114e+00   0.02344171   0.01280183 -37.90  0.001536293    2.142    0.533
        42  -9.3355     93.8661    165.5000   2.9168421538e+02   5.3142647527e+00   0.01569561   0.01079378 -39.75 0.0007929461    1.540    0.350
        43  -7.5877     57.9858    162.3256   2.9207436222e+02   5.5577371778e+00  0.008876653  0.008324693  18.90 0.0003354598    1.095    0.086
        44  -7.4760      9.0192    161.7651   2.9262942671e+02   5.8458002002e+00  0.008880444  0.008494057  23.68 0.0003843301    1.068    0.064
        45  -9.0545     10.9905    153.1417   2.9255582621e+02   5.9342411382e+00   0.01113324  0.009234109 -64.28 0.0003524976    1.186    0.157
        46  -6.9240     56.2833    153.7126   2.9204264059e+02   5.6671677667e+00  0.006554957  0.004941943  64.60            0    1.526    0.345
        47  -9.2291     94.4700    147.1313   2.9156815131e+02   5.5232145236e+00   0.01229898   0.01077618 -32.20 0.0004193873    1.185    0.156
        48  -8.9279     70.3061    145.3180   2.9183287465e+02   5.6834939072e+00   0.02415371   0.01460701  -1.54  0.002185253    2.386    0.581
        49  -9.7000     67.6516    143.3189   2.9185126585e+02   5.7219079233e+00   0.01939285   0.01553929  57.07   0.00222233    1.350    0.259
        50  -7.7982     12.9634    147.2989   2.9249867531e+02   5.9904991542e+00  0.009100976  0.008557274  26.85 0.0004453608    1.085    0.078
        51  -7.2262    197.2878    144.7001   2.9038248512e+02   4.9570070345e+00  0.006638495  0.004955403  65.37 0.0002431989    1.558    0.358
        52  -9.2705    127.9889    142.3483   2.9115766593e+02   5.3850276898e+00   0.01191233  0.009354932 -69.22  0.000302757    1.284    0.221
        53  -8.6022    192.9812    132.5297   2.9035894032e+02   5.1225720254e+00   0.01158823  0.009274146 -60.43 0.0003214638    1.218    0.179
        54  -7.4691     58.6978    133.3359   2.9189406394e+02   5.8889369120e+00  0.006875659  0.004944884  66.32 0.0005092743    1.663    0.399
        55  -7.5600    102.0386    131.3561   2.9138803212e+02   5.6619562637e+00    0.0112904  0.008149227 -47.03 0.0007017253    1.377    0.274
        56  -8.0076    125.1548    127.3351   2.9110058189e+02   5.5749625151e+00   0.01051633  0.008318705 -50.02 0.0003045338    1.239    0.193
        57 -10.4349    238.9338    124.3324   2.8978719481e+02   4.9509247291e+00    0.0144589    0.0122199  25.80 0.0005512419    1.210    0.174
        58  -7.3798    167.9558    116.7476   2.9054979463e+02   5.4498194729e+00  0.008714275  0.008400775  17.92 0.0003552726    1.061    0.058
        59  -7.2333     49.5229    114.4118   2.9188625628e+02   6.1606023948e+00  0.006460527  0.006284302 -32.36 0.0008032914    1.036    0.034
        60  -7.9662    185.1940    110.0958   2.9031378948e+02   5.4268609343e+00  0.009688394  0.008275708 -40.05 0.0002807127    1.188    0.158
        61  -7.7387     27.7885    109.8467   2.9210717388e+02   6.3384461387e+00  0.008956075  0.007469037  68.01  0.001031689    1.318    0.241
        62  -7.7870    241.9614    105.0417   2.8963757309e+02   5.1560994696e+00  0.007882604  0.007413833  27.53 0.0004949399    1.084    0.077
        63  -7.3891    189.1930    104.8900   2.9023718815e+02   5.4638308967e+00  0.009111887  0.007203699 -37.12 0.0003652442    1.323    0.244
        64  -7.7603    209.6465     83.9393   2.8987921633e+02   5.5872160350e+00   0.00903832  0.008024449 -61.97 0.0004416893    1.103    0.094
        65  -7.7653    155.1228     66.1431   2.9039407230e+02   6.1086771037e+00  0.009524286  0.008267449 -35.10 0.0002976841    1.187    0.158
        66  -8.6429    192.6627     62.2204   2.8994285138e+02   5.9364502338e+00    0.0110215   0.01014512 -29.63 0.0002791758    1.117    0.105
        67  -8.5495    133.0103     51.4152   2.9055828785e+02   6.4067207792e+00   0.01139367  0.009002069 -61.78 0.0003280411    1.238    0.192
        68  -9.8875    247.8954     48.5552   2.8923239018e+02   5.7734967503e+00   0.01818263   0.01200759 -36.61  0.001862077    1.678    0.404
        69  -8.3554    179.9724     48.5291   2.9000560881e+02   6.1680649177e+00  0.009973122  0.006528838  24.95  0.001025593    1.579    0.367
        70  -8.6472    189.0082     35.9228   2.8982727382e+02   6.2611443143e+00  0.009690586  0.009463239 -85.66 0.0004650656    1.030    0.029
        71  -8.9881    180.0937     29.8269   2.8989240742e+02   6.3831826454e+00   0.02469207  0.009271272 -71.58  0.001692226    3.706    0.730
        72  -7.5928    160.8126     28.6832   2.9010537826e+02   6.5081474266e+00   0.01349515  0.007613091 -41.03  0.001265033    1.938    0.484
        73 -10.4030    142.7190     27.7065   2.9030590092e+02   6.6242164823e+00   0.01148145   0.01116149 -57.96 0.0002881636    1.008    0.008
        74  -9.7755    188.7938     27.0254   2.8977650014e+02   6.3650393573e+00   0.01179051   0.01006721  20.33  0.001398254    1.213    0.176
        75  -7.5432    153.4677     22.9834   2.9015506088e+02   6.6164694056e+00   0.00962279  0.006316693 -61.47 -6.315015e-05    1.484    0.326
        76  -8.0436     92.4569    249.1307   2.9219640086e+02   4.3550288134e+00  0.009784791  0.006358999 -63.59 0.0004141994    1.515    0.340
        77  -9.2591     61.2998    248.1736   2.9254538512e+02   4.5454912652e+00   0.01163427   0.01075213 -22.82 0.0002579052    1.125    0.111
        78 -10.3260     34.0880    245.2748   2.9283804599e+02   4.7355180215e+00   0.03017041   0.02373593  60.41  0.003420693    1.403    0.287
        79  -6.4574    239.3066     16.3177   2.8913715656e+02   6.1951583403e+00  0.006878274  0.004858807 -29.80 0.0007029527    1.631    0.387
