#   1 NUMBER                 Running object number                                     
#   2 MAG_AUTO               Kron-like elliptical aperture magnitude                    [mag]
#   3 X_IMAGE                Object position along x                                    [pixel]
#   4 Y_IMAGE                Object position along y                                    [pixel]
#   5 X_WORLD                Barycenter position along world x axis                     [deg]
#   6 Y_WORLD                Barycenter position along world y axis                     [deg]
#   7 A_WORLD                Profile RMS along major axis (world units)                 [deg]
#   8 B_WORLD                Profile RMS along minor axis (world units)                 [deg]
#   9 THETA_WORLD            Position angle (CCW/world-x)                               [deg]
#  10 FWHM_WORLD             FWHM assuming a gaussian core                              [deg]
#  11 ELONGATION             A_IMAGE/B_IMAGE                                           
#  12 ELLIPTICITY            1 - B_IMAGE/A_IMAGE                                       
         1 -12.9277      2.2529     77.0843   1.2205897457e+02   5.9157686279e+01     2.227258    0.1017481 -72.74  0.004862223   10.169    0.902
         2 -12.9247    210.5198     21.2536   4.7701564069e+01   2.9623134286e+01     1.054856     0.694522  -7.02  0.001743085    1.845    0.458
         3 -12.8502      3.0298     11.8439   1.0645048684e+02   7.3216368929e+01     1.303809    0.5162957 -39.94  0.006980899    1.980    0.495
         4 -11.5373      3.1447      4.6589   1.0328642734e+02   7.4556910054e+01     0.381468    0.2770845  -8.67  0.002753754    1.413    0.292
         5 -12.6641    220.7234     10.0210   4.3526436005e+01   2.8275679900e+01     0.700668    0.5650232 -50.48  0.002682468    1.141    0.124
         6 -12.1491    239.0722    199.9245   8.6345118844e+01  -1.4418447758e+00    0.6327086     0.350445 -34.35  0.003631947    2.015    0.504
         7 -12.5791    217.1696    246.8832   9.7216480569e+01  -3.2423927938e+00     1.018681    0.5416735  39.02   0.00658391    1.482    0.325
         8 -14.6073    179.2590    241.3779   1.0277253169e+02   2.8990367069e+00      2.57386    0.9789967  37.48   0.01248391    2.077    0.518
         9 -12.7151    143.3136    225.5857   1.0714286177e+02   1.0504720910e+01    0.8926225    0.5909961  46.16  0.005140617    1.211    0.174
        10 -11.7384    152.9587    229.2347   1.0584823280e+02   8.4890229311e+00    0.4849148    0.4085235  33.51   0.00284623    1.129    0.114
        11 -14.2367    141.9426    241.7112   1.0922364997e+02   8.4359822178e+00     1.168472     0.860862  57.20  0.005873535    1.298    0.230
        12 -12.5174    154.3778    238.7960   1.0673902880e+02   6.9708290423e+00    0.5316204    0.4591306 -84.23  0.003611825    1.545    0.353
        13 -15.1212    110.0600    245.5121   1.1508015334e+02   1.2481398711e+01     3.484399     2.067245  77.22   0.02165885    2.211    0.548
        14 -15.5110     18.9152    241.4541   1.2980445294e+02   2.4069150828e+01     1.634159    0.5553444  61.39  0.009895096    2.196    0.545
        15 -13.1898      6.9363    249.5669   1.3189141274e+02   2.3946364830e+01    0.6033586    0.1126245  47.14  0.002037061    2.677    0.626
        16 -15.2385     43.1920    208.5096   1.2404253034e+02   2.7167932453e+01     3.370161     1.748624 -64.67   0.02103711    2.098    0.523
        17 -14.2817     43.3857    246.2231   1.2616879511e+02   2.0746991370e+01    0.9323069    0.2950695  48.40  0.005464987    2.102    0.524
        18 -13.3088     43.5653    231.9803   1.2538802371e+02   2.3024395833e+01     6.124694     1.516905 -70.37   0.02986814    3.929    0.745
        19 -15.1794     59.5802    234.7881   1.2285809284e+02   2.0709287799e+01     1.136466    0.7649706  62.60  0.005830581    1.103    0.094
        20 -10.9888    194.1207    218.4849   9.7058014168e+01   3.4267237970e+00    0.3724174     0.258862  43.51  0.002389533    1.313    0.238
        21 -11.5265    168.4502    215.4221   1.0122496138e+02   7.9790252079e+00     0.707303    0.3229407  37.89  0.003585116    1.843    0.457
        22 -12.7953    122.0012    197.3335   1.0766578293e+02   1.8439981497e+01    0.7897817    0.6203123  89.06   0.00443787    1.435    0.303
        23 -12.6738    129.4703    199.8926   1.0651764775e+02   1.6791081071e+01    0.9085511    0.6155128 -40.51  0.005265527    1.912    0.477
        24 -11.6357    133.2996    213.1007   1.0747429407e+02   1.3985702520e+01    0.4564059    0.3104987  37.18  0.002270642    1.322    0.243
        25 -12.5880    136.6770    205.8810   1.0590320390e+02   1.4617511686e+01     0.827966    0.6135353 -34.82  0.005098798    1.790    0.441
        26 -13.3690    110.3020    201.4120   1.1050273083e+02   1.9546533576e+01     1.252108    0.7570352  87.21  0.006077951    2.333    0.571
        27 -11.1545    207.4053    208.7183   9.3211446625e+01   2.5296050697e+00    0.2830013    0.2457165  14.50  0.001998343    1.120    0.107
        28  -9.2420     11.4508    206.2917   1.2960333518e+02   3.0806911644e+01    0.1777265    0.1266218  87.66  0.001405281    1.221    0.181
        29 -11.5592    161.6408    247.7320   1.0652180302e+02   4.7455395026e+00    0.3655693    0.2952311  -8.45  0.002752809    1.642    0.391
        30 -10.3015    164.6498    224.7430   1.0318312198e+02   7.2847605077e+00    0.2643478    0.1714371 -50.57  0.001651427    1.996    0.499
        31 -12.1170    179.4424    194.8297   9.6042929502e+01   9.1428725752e+00    0.3931028    0.3550806 -43.70   0.00261824    1.330    0.248
        32 -11.1490     85.2452    190.9387   1.1435025317e+02   2.5186212065e+01    0.8089395    0.3065015  40.64  0.003763279    2.312    0.567
        33 -11.3502     89.1336    185.3473   1.1291322019e+02   2.5718405634e+01    0.4516354    0.3685394  83.56   0.00284815    1.144    0.126
        34 -12.8398    221.0259    186.6527   8.7032505466e+01   3.1164914300e+00    0.8704486    0.4780028  10.22  0.003927797    2.680    0.627
        35 -10.9658    185.6831    188.1701   9.3742129598e+01   9.0512549862e+00     0.598004    0.2011934  40.37  0.002374568    2.639    0.621
        36 -10.7419    138.0752    187.9441   1.0310108450e+02   1.7445558280e+01    0.3505592     0.275319  62.72  0.002109181    1.291    0.226
        37 -10.7805     74.9498    185.7323   1.1591598711e+02   2.7624882720e+01    0.3331619    0.2545794 -40.57  0.002055991    1.917    0.478
        38 -11.7777    120.7848    180.2079   1.0554946635e+02   2.1782904841e+01    0.3989982    0.3265186  34.01  0.002346627    1.281    0.219
        39 -12.4814    124.0403    174.3063   1.0396503634e+02   2.2366172773e+01    0.7644862     0.408379  37.68     0.003657    1.825    0.452
        40 -13.0923    174.3646    174.3930   9.3499261124e+01   1.3285851576e+01    0.9574584    0.7896953 -16.08  0.005639019    1.354    0.262
        41 -10.6963     88.7038    169.2092   1.1099762276e+02   2.9045052815e+01    0.3396006    0.2931117  59.70  0.001764635    1.084    0.077
        42 -10.3138     78.4301    168.9699   1.1325912953e+02   3.0572255057e+01     0.375493    0.2304003 -40.25  0.001071513    2.494    0.599
        43 -10.3518      6.9258    169.4891   1.2866982118e+02   3.8330620924e+01    0.3222629    0.1704907 -81.01  0.001959648    1.540    0.350
        44 -11.5987     15.9024    163.7759   1.2647130577e+02   3.8755105135e+01    0.6550126    0.2834118  65.36  0.003326469    2.126    0.530
        45 -11.8535    102.2297    170.3785   1.0814976165e+02   2.6734783225e+01    0.5426066    0.3965478  51.60  0.003145593    1.240    0.193
        46 -10.6862     91.8213    173.2496   1.1083916010e+02   2.7747991617e+01    0.3963199    0.2184615  44.21  0.002055721    1.652    0.395
        47 -11.9533    100.3603    147.6763   1.0505783671e+02   3.1832608140e+01    0.8160153    0.4223196 -55.33  0.003759795    1.927    0.481
        48 -11.7913    101.0580    163.7029   1.0743878243e+02   2.8297080493e+01    0.5140702    0.2976396  30.11  0.002452665    2.099    0.524
        49 -13.1027    111.0222    152.4149   1.0332504459e+02   2.9032140206e+01     1.434319    0.8316026 -49.61  0.006895266    1.829    0.453
        50 -10.5027     30.8261    155.4854   1.2257264930e+02   3.9148318873e+01    0.3305267     0.190815 -78.23  0.001693448    1.467    0.318
        51  -9.7458      1.7454    158.7999   1.2915835518e+02   4.0946437901e+01    0.1952407    0.1028127 -81.84 0.0009870479    1.500    0.333
        52 -10.2617     85.3645    161.2225   1.1067574621e+02   3.1222689844e+01    0.2163012    0.2025243  -4.09 0.0006379025    1.440    0.306
        53 -11.7452    175.1517    151.0773   8.8793356386e+01   1.7152709250e+01    0.4931499    0.3576214  21.52  0.002474574    1.557    0.358
        54 -12.3133     21.5745    153.3923   1.2448797916e+02   4.0469007746e+01    0.7562561    0.5473798  63.77  0.003546785    1.218    0.179
        55 -10.0936     70.4021    145.1895   1.1199856284e+02   3.6859534693e+01    0.2592053     0.197963  74.88 0.0008703585    1.243    0.195
        56 -10.8087     66.2475    142.1357   1.1259783533e+02   3.8101795216e+01    0.4086448    0.2586404  56.52  0.002205329    1.568    0.362
        57 -11.1001     88.0513    144.2969   1.0750461489e+02   3.4523205517e+01     0.236954    0.2155742 -52.28 0.0003896278    1.243    0.195
        58 -10.9022     28.8287    160.5934   1.2344690000e+02   3.8240394222e+01    0.3483366    0.2727886 -24.15  0.002268853    2.128    0.530
        59  -9.5498      2.2083    130.2124   1.2727233877e+02   4.7075816120e+01    0.1629581    0.1035267  76.66 0.0008309514    1.314    0.239
        60  -8.9695     97.5245    129.5162   1.0248588333e+02   3.6342522750e+01    0.1379687    0.1318579 -63.30 0.0008075649    1.112    0.101
        61 -15.6145     71.4811    247.5530   1.2170216315e+02   1.7248179473e+01     2.001504    0.8342675  38.75   0.01181423    2.064    0.515
        62 -11.5267     29.0578    236.5525   1.2799853813e+02   2.3833176498e+01    0.1627393    0.1022649  69.50 0.0004354689    1.164    0.141
        63 -13.0356     18.9791     35.1892   1.0635070248e+02   6.7504357984e+01    0.8536752    0.3328198 -28.14  0.003305375    4.038    0.752
        64 -10.4295    195.3888     34.7370   5.3595152642e+01   3.1896760425e+01    0.2596503    0.1921208 -13.66 0.0008532019    1.479    0.324
        65 -13.1239    232.3893    197.9437   8.7108409931e+01  -1.6135949465e-01    0.7990667    0.3459345 -23.20  0.003767526    2.730    0.634
        66 -12.3813    226.9987    218.3617   9.1414701954e+01  -1.6748939353e+00    0.9199183    0.5034841  -4.66  0.004888406    2.473    0.596
        67 -12.0484    236.4313    209.0908   8.8346077906e+01  -2.0731327190e+00    0.5573751    0.3596042   8.97  0.003146739    1.485    0.327
