#   1 NUMBER                 Running object number                                     
#   2 MAG_AUTO               Kron-like elliptical aperture magnitude                    [mag]
#   3 X_IMAGE                Object position along x                                    [pixel]
#   4 Y_IMAGE                Object position along y                                    [pixel]
#   5 X_WORLD                Barycenter position along world x axis                     [deg]
#   6 Y_WORLD                Barycenter position along world y axis                     [deg]
#   7 A_WORLD                Profile RMS along major axis (world units)                 [deg]
#   8 B_WORLD                Profile RMS along minor axis (world units)                 [deg]
#   9 THETA_WORLD            Position angle (CCW/world-x)                               [deg]
#  10 FWHM_WORLD             FWHM assuming a gaussian core                              [deg]
#  11 ELONGATION             A_IMAGE/B_IMAGE                                           
#  12 ELLIPTICITY            1 - B_IMAGE/A_IMAGE                                       
         1 -13.3969    171.2884     55.1451   6.1650809422e+01   3.4834698562e+01     2.439384     1.389236  25.31  0.006931666    2.551    0.608
         2 -13.1993    186.5951     39.8294   5.4074254851e+01   3.2974698204e+01     1.034087    0.8998296 -37.37  0.002825323    1.127    0.113
         3 -12.8917    191.1269     33.8482   5.1452506413e+01   3.2520491403e+01    0.6957404    0.6036556 -18.78  0.001451091    1.107    0.096
         4 -13.9735    208.9383      9.6577   4.1554717665e+01   3.0383460535e+01     1.619384     1.162144  18.93  0.007016533    1.580    0.367
         5 -11.9765    192.6916     15.1350   4.5022509526e+01   3.4164134790e+01     1.115833    0.5010796  45.05  0.004194678    2.432    0.589
         6 -11.1632     60.6045      3.4534   6.8888888478e+01   6.8665682192e+01    0.3442128    0.2252972  14.30  0.001698498    1.943    0.485
         7 -10.9506    243.4750      1.9781   3.6604914014e+01   2.2478104135e+01    0.5715711    0.2092635  80.36  0.002206904    3.205    0.688
         8 -11.7993     40.0489    213.2861   1.1780906529e+02   2.8872370112e+01    0.1858552    0.1023088  54.23  0.001140078    1.267    0.211
         9 -12.8325    248.4080    228.5138   8.5541269530e+01  -6.9505597959e-01    0.7846272    0.3753314  -5.61  0.005013722    2.562    0.610
        10 -12.3808    247.1096    247.5480   8.8180731587e+01  -1.8298798453e+00    0.7399883    0.4103054  37.06  0.005867859    1.371    0.271
        11 -17.9321     37.9041    241.6631   1.1936505048e+02   2.4969574732e+01      5.92489     4.287336  39.27   0.04899707    1.499    0.333
        12 -11.5141    151.2319    195.8284   9.6430950076e+01   1.6774194577e+01    0.3315424     0.223323  37.11  0.002204979    1.237    0.192
        13 -11.5094     64.0570    195.7350   1.1246500647e+02   2.8998087492e+01    0.2606988    0.2008097 -46.07  0.001354413    2.043    0.511
        14  -9.4545    184.5959    212.7680   9.2986640120e+01   9.6561136638e+00    0.1217133    0.1046628 -51.05 0.0009556846    1.700    0.412
        15  -9.6363    156.5932    190.2239   9.4735012130e+01   1.6679772991e+01    0.1342331    0.1085553 -19.15 0.0003694261    1.587    0.370
        16 -11.1109    150.9826    187.9119   9.5428930316e+01   1.7887290047e+01    0.2506012    0.1678236 -57.88  0.001579509    1.990    0.498
        17 -10.0307    153.1956    184.3278   9.4532440134e+01   1.8029453486e+01    0.2373041    0.1421559 -65.50  0.001042521    2.788    0.641
        18 -10.0070     80.2289    194.4520   1.0933739086e+02   2.7205351204e+01     0.367935     0.136133  50.28  0.001944624    2.155    0.536
        19  -9.9362    188.9921    178.4256   8.7296488450e+01   1.2889901960e+01    0.3126423    0.2443146  69.54  0.001232753    1.885    0.470
        20  -9.8096    187.8934    173.5520   8.6693045509e+01   1.3677754252e+01    0.2695624    0.2095593 -61.31  0.001684213    1.987    0.497
        21 -10.2540    239.6671    176.1710   7.8784838195e+01   4.8744288385e+00    0.2643002   0.08844042  30.77  0.001087609    3.394    0.705
        22 -11.6657     53.0794    209.5744   1.1535260832e+02   2.8046732676e+01    0.1623504    0.1138827  65.35 0.0004802139    1.101    0.092
        23 -19.1332     22.8601    102.1216   1.1381747852e+02   5.1958894794e+01     15.45258     0.863438 -74.00   0.02873683   14.620    0.932
        24 -11.3409     70.9044    207.1768   1.1204036008e+02   2.6352240753e+01    0.4027572    0.2190084  28.40   0.00242278    2.402    0.584
        25  -9.1186    240.3257    169.3193   7.7484576911e+01   5.4259618846e+00    0.1237141   0.07131973  17.42 0.0002766819    1.678    0.404
        26 -10.8768     39.9709    207.7117   1.1755075587e+02   2.9752587167e+01    0.1649899   0.08073774  47.83 0.0005879503    1.466    0.318
        27  -9.3280    187.0644    165.8299   8.5535301269e+01   1.4804960102e+01    0.2287245    0.1634179 -37.82  0.001183733    1.641    0.390
        28  -9.7084    230.4845    166.4555   7.8465987324e+01   7.3084992386e+00    0.1197281   0.09372398  19.42 8.251783e-06    1.004    0.004
        29 -10.1392      5.9106    161.6905   1.2192074308e+02   4.0970055702e+01    0.2681283    0.1298873  33.84  0.001145194    2.048    0.512
        30 -11.0424     93.0302    157.8106   1.0291344812e+02   3.1813909234e+01    0.2308168    0.2011402  68.68 0.0004149967    1.055    0.052
        31  -8.7902    149.4410    156.2271   9.0927414705e+01   2.2851566295e+01    0.1681348    0.1212097 -63.91 0.0009519641    1.797    0.444
        32 -12.0108     98.5101    151.2093   1.0083788918e+02   3.2224502423e+01     0.485409    0.4076079 -28.16   0.00307509    1.699    0.411
        33 -10.6081    134.3955    148.6216   9.2704025721e+01   2.6766775907e+01    0.4600122     0.227104 -56.72  0.002139684    2.492    0.599
        34 -10.5783    134.0000    144.0126   9.1993007485e+01   2.7636874560e+01    0.7595118    0.2520062 -57.95  0.002336058    5.593    0.821
        35 -10.1425    113.2611    151.3479   9.7638612268e+01   2.9868073553e+01    0.3151591    0.1762865  69.05  0.001435354    2.588    0.614
        36  -9.8298    174.5708    148.6759   8.4720508950e+01   1.9429078610e+01    0.2970877    0.2155538 -73.76  0.001531526    2.352    0.575
        37 -10.2209    143.6615    146.0551   9.0333297301e+01   2.5548437845e+01    0.4132795    0.1518493 -55.80  0.001450282    4.307    0.768
        38 -11.4205     61.2869    204.0696   1.1355140413e+02   2.7979088606e+01     0.185807    0.1491434  59.42 0.0005299036    1.148    0.129
        39  -8.9026    113.5994    142.2816   9.6138437522e+01   3.1483738000e+01    0.1374038   0.08969869  67.94 0.0006677965    1.773    0.436
        40 -11.4057    108.9523    138.0059   9.6482441816e+01   3.3069334220e+01    0.5076362    0.2794272 -41.15  0.002410139    2.407    0.585
        41 -11.8757     97.6812    137.1615   9.8947144005e+01   3.5060108791e+01    0.2679763    0.2375842  76.41 0.0003624558    1.034    0.033
        42 -10.9362    105.9605    130.8452   9.5961199188e+01   3.4962485743e+01    0.3426219    0.2822138 -79.56  0.001107539    1.243    0.196
        43 -10.1949    135.7755    128.5168   8.8713688078e+01   3.0079584562e+01    0.3593883    0.1534645 -46.50  0.001500297    2.515    0.602
        44 -10.5473    135.1151    121.5708   8.7442499874e+01   3.1481263038e+01     0.495325    0.1195807 -48.43  0.001492642    4.575    0.781
        45 -10.2022    115.7478    128.8387   9.3311339102e+01   3.3676186538e+01    0.2700629    0.2388229  13.22 0.0009628751    1.410    0.291
        46  -9.9198    161.2585    128.4451   8.3300424809e+01   2.5139646244e+01    0.4109061    0.2740327  71.90  0.001911393    2.234    0.552
        47 -10.5651    103.7053    124.5865   9.5387917460e+01   3.6590286585e+01    0.2483569     0.225568  22.98 0.0007266662    1.327    0.247
        48  -9.6926    120.6337    123.2508   9.1104580155e+01   3.3883189790e+01    0.2967923    0.1554084 -33.70  0.001187658    3.000    0.667
        49  -9.4597    152.7060    119.5167   8.3152583959e+01   2.8366735897e+01    0.2467881    0.1914811 -42.39 0.0008881805    1.365    0.267
        50  99.0000     47.5738    205.4298   1.1608878618e+02   2.9305194844e+01    0.3496566    0.1230496  48.80  0.001470495    1.975    0.494
        51  -9.4571    110.9286    118.1109   9.2399770390e+01   3.6646359759e+01    0.1967954    0.1835392  64.97 0.0003191319    1.039    0.038
        52  -9.9185    231.2934    113.7638   6.7569762697e+01   1.3061106140e+01     0.245463    0.2082021  19.93 0.0008564752    1.074    0.069
        53  -9.5356    168.0179    112.8904   7.8468707036e+01   2.6314503462e+01    0.3154416    0.2351261 -83.09  0.001503913    2.077    0.519
        54 -10.1939    134.5663    105.2217   8.3913213952e+01   3.4664393143e+01    0.3989665    0.1370887 -44.75  0.001399204    2.986    0.665
        55 -11.2174    119.1441    110.5533   8.8816753735e+01   3.6654431829e+01    0.5057685    0.3308799  62.92  0.002438122    1.744    0.427
        56  -9.7178    205.3503    110.1282   7.0879258434e+01   1.8807047934e+01    0.3034797    0.1937298  42.70  0.000980302    1.497    0.332
        57 -10.2913     75.4394    248.1264   1.1386956496e+02   2.0076118152e+01    0.2266928   0.08182388 -60.35  0.001443052    3.724    0.732
        58  -9.5665    186.3928     86.4377   6.8185565904e+01   2.6421735646e+01    0.2793563     0.261067 -46.67  0.001300001    1.164    0.141
        59  -8.7822    152.6184     82.1586   7.3740202749e+01   3.4983224774e+01     0.204001     0.141504 -23.39 0.0004488448    1.614    0.381
        60 -11.2030    248.9866    238.7747   8.6818602229e+01  -1.4807828973e+00    0.4743254     0.211512  17.34   0.00296555    2.372    0.578
        61  -8.7877    167.8499    230.7356   9.7806739816e+01   1.0174376118e+01    0.1273266   0.09541596  48.98 0.0007235335    1.277    0.217
        62 -10.9717    193.5533    196.2298   8.9255775376e+01   1.0083116743e+01    0.6671076    0.3670858 -58.72  0.002884216    5.409    0.815
        63 -11.0905     71.9125    245.0521   1.1424628189e+02   2.0870595634e+01    0.1707039    0.1435113  76.23  0.001135852    1.369    0.270
        64 -10.5447     62.0768    220.0789   1.1441714888e+02   2.5440520713e+01    0.1458262    0.1061173  63.55 0.0008648763    1.097    0.089
        65  -9.2679     87.6638    202.9577   1.0869011550e+02   2.4901875259e+01    0.1654984    0.1558706  58.28  0.001098296    1.345    0.257
        66 -11.5557     58.1545    214.5363   1.1475978016e+02   2.6714617439e+01    0.1966683    0.1153002  55.55 0.0005869954    1.229    0.186
