#   1 NUMBER                 Running object number                                     
#   2 MAG_AUTO               Kron-like elliptical aperture magnitude                    [mag]
#   3 X_IMAGE                Object position along x                                    [pixel]
#   4 Y_IMAGE                Object position along y                                    [pixel]
#   5 X_WORLD                Barycenter position along world x axis                     [deg]
#   6 Y_WORLD                Barycenter position along world y axis                     [deg]
#   7 A_WORLD                Profile RMS along major axis (world units)                 [deg]
#   8 B_WORLD                Profile RMS along minor axis (world units)                 [deg]
#   9 THETA_WORLD            Position angle (CCW/world-x)                               [deg]
#  10 FWHM_WORLD             FWHM assuming a gaussian core                              [deg]
#  11 ELONGATION             A_IMAGE/B_IMAGE                                           
#  12 ELLIPTICITY            1 - B_IMAGE/A_IMAGE                                       
         1 -10.8186     30.5926     21.0520   9.1693961980e+01   6.8522920197e+01    0.3385672    0.1818703 -37.82  0.001038761    1.531    0.347
         2 -10.0067     22.6053      9.4174   9.0331703753e+01   7.1176004846e+01    0.3504908     0.194255  -8.02  0.001970967    2.052    0.513
         3 -11.8865     34.6052     12.7894   8.5999109809e+01   6.9376562274e+01     0.382943    0.2704062 -22.31  0.002430124    1.149    0.130
         4 -11.9580     30.1455      7.2372   8.5423636518e+01   7.0697981430e+01    0.3353425    0.2490324  15.82 0.0009131192    1.318    0.242
         5 -10.7713     42.7369     18.4276   8.4903546766e+01   6.7535097626e+01     0.510083    0.2383924 -25.40  0.002442644    2.262    0.558
         6  -9.7411     26.4403     15.8462   9.1400972925e+01   6.9792154475e+01    0.2529883     0.152917 -45.07  0.001535399    1.603    0.376
         7 -11.5650    234.6474     15.0349   4.1350504692e+01   2.4669168885e+01    0.2515644    0.2072258 -79.30 0.0001382475    1.083    0.077
         8 -11.0893     89.1982     13.7821   6.5367014438e+01   6.0364302042e+01    0.4040594    0.3415624 -60.27  0.001485837    1.658    0.397
         9 -10.2452     93.0527      8.8898   6.2083283799e+01   6.0094925354e+01    0.3778847     0.197944 -11.08  0.001732524    2.176    0.540
        10 -10.0678     88.8754      7.9167   6.2844576115e+01   6.1062754872e+01    0.3037686    0.1823644 -21.22  0.001529381    1.678    0.404
        11 -11.3375     68.6060     13.4199   7.2019460229e+01   6.4304661160e+01    0.7012597    0.2742977  48.28  0.003057093    2.681    0.627
        12 -10.0878    126.0101     11.0012   5.4974480088e+01   5.2400602392e+01    0.2143359    0.1411172  33.81            0    1.527    0.345
        13  -9.5756     15.4134      8.7303   9.3800606190e+01   7.1941104190e+01    0.1466926   0.08123386 -33.49 0.0002712565    1.407    0.289
        14  -9.9933    223.9879      7.6885   4.0516855573e+01   2.8012804818e+01    0.1872565    0.1539691 -83.90 0.0005361794    1.078    0.073
        15  -9.0116    156.2234      7.9578   4.8501205198e+01   4.5134878709e+01    0.1606948    0.1149636 -24.16            0    1.532    0.347
        16 -10.6172     36.9099      6.4427   8.1738478649e+01   6.9993240065e+01    0.2644331    0.1640649 -36.88 0.0008783687    1.612    0.380
        17  -9.3762    210.4901      7.4990   4.1723225549e+01   3.1328337341e+01    0.1344314    0.1181181 -82.00 0.0001333202    1.008    0.008
        18  -9.6002    144.3770      6.9374   5.0056599791e+01   4.8243085888e+01    0.2259346    0.1029177  12.90 0.0007028633    4.606    0.783
        19 -10.9390     71.1753      5.6466   6.7383707735e+01   6.4742657714e+01    0.3133424    0.2631858  13.20  0.001728145    1.031    0.030
        20  -9.7818     65.1010      6.8575   7.0133915813e+01   6.5692042908e+01    0.1785797    0.1605244  -4.08 0.0005993743    1.211    0.174
        21 -11.7412     57.4097      3.0705   7.1134920465e+01   6.7414372335e+01    0.3983684    0.2456477 -10.95   0.00230155    1.545    0.353
        22  -9.8938      8.3635      5.3369   9.6085045400e+01   7.3038965965e+01    0.3141207      0.16289  34.53  0.001875542    2.619    0.618
        23 -10.2111     10.0200      1.6599   9.3342675323e+01   7.3477115651e+01    0.1494283    0.1239893 -10.68  0.001165726    1.240    0.193
        24 -10.0532     41.0102      6.0851   7.9648301654e+01   6.9504729849e+01      0.18413    0.1427134  -6.37 0.0005003471    1.013    0.013
        25 -10.4266      1.9885      5.3502   9.9733783664e+01   7.3474139084e+01    0.3355796    0.1543393 -49.74  0.001806508    1.836    0.455
        26 -10.2585    107.8257      4.9059   5.6569044687e+01   5.7244112942e+01    0.2144811    0.1675099  48.07  0.001247501    1.144    0.126
        27  -9.7733    104.2865      4.6352   5.7301981048e+01   5.8066655587e+01    0.2082211    0.1282797  60.93 0.0005444136    1.603    0.376
        28 -10.4418    101.4472      2.1498   5.6936735424e+01   5.8920909059e+01    0.3949344    0.1687597  53.45  0.001424953    1.991    0.498
        29  -9.8065    235.6809      4.6437   3.8812803124e+01   2.5573960954e+01     0.124052   0.09494186  38.43 0.0005109344    1.755    0.430
        30  -9.4744    120.8652      4.1659   5.3406081535e+01   5.4272892018e+01    0.1896321    0.1375447  37.27 0.0004123994    1.280    0.219
        31  -9.5312    172.8489      2.8159   4.4571789312e+01   4.1340042976e+01    0.1915459     0.146123 -78.96 0.0003963714    1.331    0.249
        32  -9.3849    176.5093      1.9779   4.3870914518e+01   4.0476444467e+01    0.2541115     0.114158  38.98 0.0009829084    2.919    0.657
        33 -10.1298    129.9359      3.1702   5.1255070365e+01   5.2168410722e+01    0.1995522    0.1766222 -88.00 0.0004743538    1.255    0.203
        34  -9.3073    112.6022      3.2600   5.4804405780e+01   5.6294781380e+01    0.1296389    0.1010012 -78.06 0.0006966675    1.712    0.416
        35  -9.9940     90.7954      2.9023   6.0038397116e+01   6.1151605449e+01    0.2186074      0.16888 -82.22  0.001201883    2.034    0.508
        36 -10.7190     20.5686      2.1170   8.7722006170e+01   7.2451301010e+01    0.2133985    0.1507011  -1.50 0.0007176043    1.232    0.188
        37 -11.4553     80.4180      1.7084   6.2493978952e+01   6.3377534887e+01    0.3136225     0.156531  49.10   0.00107293    1.806    0.446
        38  -9.9428    187.1448      1.2792   4.2448661612e+01   3.7820095015e+01    0.1856704    0.1090148  83.16            0    1.635    0.388
        39  -9.7064     67.4981      1.3668   6.6542976098e+01   6.5855053707e+01    0.1967266     0.105946  46.13  0.001005216    1.752    0.429
        40  -8.9325     43.2372    145.2659   1.1693959963e+02   4.0205489581e+01    0.1148856   0.08640039 -53.50 0.0006741605    1.421    0.296
        41 -11.9359     14.0765    238.6137   1.2998903159e+02   2.3959238975e+01    0.3321028    0.1050455  56.94  0.001478585    2.304    0.566
        42 -12.1754     15.8284    248.9415   1.3016740621e+02   2.2002099413e+01     0.498789    0.1837588  35.54  0.002816779    2.950    0.661
        43 -11.6246     10.7117    244.8801   1.3078366118e+02   2.3212750265e+01    0.2509028    0.1523312  44.79  0.001311463    1.567    0.362
        44 -12.3563      6.3162    242.4523   1.3136193115e+02   2.4063961988e+01    0.5137217    0.2248808 -69.41  0.003349581    2.379    0.580
        45 -10.9296      2.0026    239.5067   1.3191104965e+02   2.4988061776e+01     0.241562    0.1521547  80.40  0.001921654    1.171    0.146
        46  -9.4722     24.6246    139.0964   1.2084487558e+02   4.3472182133e+01    0.1796138   0.08633161 -62.58 0.0009313485    1.745    0.427
        47  -9.1354     41.7311    138.6935   1.1647398141e+02   4.1906530228e+01    0.1227557   0.08690576 -49.43 0.0003178269    1.536    0.349
        48 -10.4337      4.1978    134.6023   1.2541422883e+02   4.6093921423e+01    0.1566759    0.1351238  89.49 0.0006205456    1.163    0.140
        49 -10.1589      1.5149    132.5429   1.2588497764e+02   4.6736486448e+01    0.1903335    0.1394064 -81.80 0.0006458771    1.035    0.034
        50 -10.2636    212.6563    133.9191   7.4295171362e+01   1.1431641908e+01    0.2617212    0.2156678  58.01 0.0005756478    1.368    0.269
        51  -9.2047     96.0045    133.7563   1.0132085026e+02   3.5665703348e+01    0.1773431     0.122045  41.35 0.0003846008    1.506    0.336
        52  -9.4556     35.2166    130.8650   1.1713453492e+02   4.4409892239e+01    0.1718183    0.1250833 -56.28 0.0004598321    1.333    0.250
        53 -11.0237     11.4555    129.2885   1.2311030424e+02   4.6791249431e+01    0.3206396    0.1774981  72.02  0.001784799    1.873    0.466
        54 -10.2352     28.6953    128.0460   1.1849324272e+02   4.5681597131e+01    0.1780491    0.1303721 -75.60 0.0003345015    1.109    0.098
        55  -9.7399     20.2660    125.0420   1.2035633685e+02   4.7098148822e+01    0.1730272    0.1247354 -76.17 0.0001729019    1.102    0.092
        56 -10.1698    248.3374    124.3299   6.5912933386e+01   5.7108013054e+00    0.1443558    0.1026024   5.76 0.0007051993    1.734    0.423
        57 -11.7758     23.8262    120.9842   1.1889624737e+02   4.7753858520e+01    0.4563474     0.252699  78.75  0.001171007    2.062    0.515
        58 -10.7793      8.3515    121.5853   1.2310908329e+02   4.8773579820e+01    0.2316365    0.1427416  64.45 0.0008185836    1.701    0.412
        59 -10.9804     17.2056    115.0718   1.1996143862e+02   4.9650472062e+01    0.1860053    0.1347184 -59.86 0.0004746765    1.229    0.186
        60  -9.4701     72.0746    112.9686   1.0373601307e+02   4.4312081320e+01    0.1670516    0.1456479 -64.98 0.0003432833    1.032    0.031
        61 -11.3319     65.9084    110.9412   1.0513365793e+02   4.5640441804e+01    0.3110807    0.2407677  82.77  0.001186231    1.465    0.318
        62 -12.0641      4.8965    108.6708   1.2261879141e+02   5.1948078877e+01     0.394536     0.277911 -15.33  0.002164472    1.998    0.499
        63  -9.9463     17.7164    122.0029   1.2067335822e+02   4.8003569204e+01    0.1704497    0.1253966 -73.38 0.0004024391    1.081    0.075
        64 -11.2568     57.1543    107.9329   1.0714257959e+02   4.7469805130e+01     0.272036    0.2001716  22.37  0.001175771    1.661    0.398
        65  -9.6826    235.6643    107.7029   6.4019332123e+01   1.0998297827e+01    0.1451423    0.1093664  11.22  0.000425741    1.651    0.394
        66  -9.8247    186.9033    103.1560   7.1658149938e+01   2.2947729136e+01    0.2283301    0.2083501 -80.68 0.0005151362    1.205    0.170
        67  -9.1576     35.6738    109.3090   1.1382085511e+02   4.9453657605e+01    0.1291442   0.08883964  74.95 0.0003851222    1.656    0.396
        68  -9.1550    161.5085    102.4542   7.6963695509e+01   2.9138203236e+01    0.1554194    0.1547074 -61.53  6.70134e-05    1.009    0.009
        69 -10.1663     24.5596    100.7031   1.1576418076e+02   5.2430851396e+01    0.2101605    0.1346028  55.69  0.001192013    1.859    0.462
        70  -9.8998     62.0074     97.9714   1.0352856264e+02   4.9207964144e+01    0.2281619    0.1506343 -34.51  0.001136689    1.711    0.415
        71  -9.2207     91.6791     96.7357   9.4043082493e+01   4.5035359155e+01    0.1421085    0.1132568 -12.77 0.0002108627    1.556    0.357
        72 -10.4081      3.4246     95.5471   1.2143921670e+02   5.5019362673e+01    0.2025808    0.1547643 -72.14 0.0004978606    1.012    0.012
        73 -11.9563     20.5989     92.9717   1.1573372724e+02   5.4520446081e+01     0.389915    0.2657072 -36.14 0.0006584543    1.601    0.376
        74 -10.2035     24.2892     88.6257   1.1378423766e+02   5.5242139532e+01    0.3129603    0.1541345 -73.30  0.000730955    1.912    0.477
        75 -10.4944    125.0417     93.2085   8.3484120027e+01   3.9343953648e+01    0.2414104     0.213679 -43.49 0.0002567198    1.104    0.095
        76  -9.2161     78.7225     94.6851   9.7487637486e+01   4.7609907702e+01    0.1425524    0.1048178 -27.86 0.0001827799    1.567    0.362
        77 -10.2916     43.9059     90.8003   1.0777121896e+02   5.2976228845e+01    0.3958229    0.2015771 -71.59   0.00172622    2.123    0.529
        78 -10.0650     29.5101     92.3044   1.1276165345e+02   5.3975447186e+01    0.2011991    0.1823934 -77.46  0.000616886    1.134    0.118
        79 -10.9380     57.6115     91.9014   1.0353987617e+02   5.1170809138e+01    0.2603714    0.2194342 -10.75 0.0007715794    1.395    0.283
        80 -11.4928     10.9548     90.6832   1.1842675944e+02   5.5690534928e+01    0.3763025    0.2442523 -48.93  0.002357729    1.399    0.285
        81 -10.1807     11.2068     85.1628   1.1747612374e+02   5.6927570607e+01     0.222195    0.1407924 -85.96 0.0006401078    1.586    0.369
        82  -9.7065     76.6621     89.0904   9.6686734421e+01   4.9197080188e+01    0.2027234     0.174071 -42.49  0.001139119    1.081    0.075
        83 -10.4987     64.9387     88.3878   1.0029794424e+02   5.1034154154e+01    0.2510382    0.1746516 -49.40  0.000513544    1.270    0.212
        84 -10.1360     18.8275     87.6216   1.1539424028e+02   5.5872762271e+01     0.302472    0.1651626 -53.78  0.001468867    1.478    0.324
        85  -9.0803    124.2957     86.6639   8.1777735044e+01   4.0877528957e+01    0.1555728      0.12287 -79.17 0.0004408417    1.649    0.393
        86  -9.3903    113.8057     85.7396   8.4429768303e+01   4.3280149492e+01     0.186862    0.1706961 -67.22 0.0009798562    1.176    0.150
        87 -11.2922     54.5825     84.3872   1.0274065224e+02   5.3257922438e+01    0.2722149    0.2166375 -71.89 0.0007396031    1.306    0.234
        88 -10.7007      3.9662     82.6822   1.1945788628e+02   5.7890786470e+01    0.3258781    0.1867648 -77.82   0.00173427    1.506    0.336
        89 -10.9847      5.4733     76.4169   1.1795190491e+02   5.9209782255e+01     0.397617   0.09714726 -48.85   0.00148974    3.065    0.674
        90  -9.9648    124.5050     82.8121   8.0564132381e+01   4.1622843452e+01    0.2610103    0.2154665  45.16 0.0005116773    1.235    0.190
        91  -9.4988     42.8687     81.6371   1.0607249323e+02   5.5179398238e+01    0.1677319    0.1514166 -41.19  0.001084452    1.105    0.095
        92  -9.7512    250.2513     81.0153   5.5489119089e+01   1.2123613547e+01    0.1833786    0.1078341 -34.10 0.0004511589    1.522    0.343
        93  -9.9175     89.2503     80.5437   9.0276555958e+01   4.9038767586e+01    0.2773249    0.1848896 -64.82 0.0008085654    1.862    0.463
        94 -10.7236     10.1479     79.7085   1.1691770415e+02   5.8217925847e+01    0.3138031    0.1661723 -68.31  0.001770386    1.493    0.330
        95  -9.4521    124.4729     78.9927   7.9401922389e+01   4.2399550448e+01    0.2045042    0.1315104 -64.44 0.0005287908    2.222    0.550
        96 -11.1013     27.5271     77.3753   1.1045909479e+02   5.7541258978e+01    0.3645062     0.213132 -10.52 0.0005863401    2.461    0.594
        97  -9.7677    176.7193     76.9575   6.6442556453e+01   3.0255847551e+01    0.2221635    0.2092619 -41.76  0.001034741    1.053    0.051
        98  -9.0625    240.6402     76.6827   5.5728654005e+01   1.4882085295e+01    0.1428079    0.1087136  17.68 0.0003626184    1.760    0.432
        99 -10.6966     55.4205     75.5249   1.0016319613e+02   5.5138304764e+01    0.2941683    0.2439136 -53.39 0.0009186411    1.094    0.086
       100 -11.4273     20.5832     73.1048   1.1202024812e+02   5.9020033228e+01    0.3992348    0.1768985 -46.35  0.001082844    1.902    0.474
       101 -10.4024     14.6457     75.1669   1.1454281053e+02   5.8959616345e+01    0.2361571    0.1883254  56.63 0.0009338787    1.563    0.360
       102  -9.5655     70.4548     75.4371   9.4942909588e+01   5.3141829811e+01    0.1396371    0.1230094 -34.95 7.201436e-05    1.042    0.040
       103  -9.8685     37.3164     75.3007   1.0651966765e+02   5.7148737857e+01    0.2088797    0.1552459 -46.17  0.001158821    1.150    0.130
       104 -10.4898     35.9872     72.0089   1.0619984890e+02   5.8003061466e+01    0.4273637     0.245459 -15.59  0.001902812    2.523    0.604
       105  -9.7456    216.9786     72.4126   5.8067926663e+01   2.1039705347e+01    0.2269223    0.1846495 -36.61 0.0004964711    1.175    0.149
       106 -10.8750     64.3562     79.1393   9.8062665165e+01   5.3189737771e+01    0.4207194    0.2340589 -58.00  0.001494336    1.742    0.426
       107 -10.6525    105.9391     72.0015   8.2481600022e+01   4.7693341872e+01    0.2529576    0.2060711  40.13 0.0004035042    1.267    0.211
       108  -9.4145     92.4657     72.4710   8.6784727681e+01   5.0167344403e+01    0.2176722    0.1333973 -53.23 0.0001409181    1.731    0.422
       109  -9.1682     91.2801     69.6366   8.6257392423e+01   5.0959537667e+01    0.1425843    0.1143032 -75.82 0.0006077506    1.677    0.404
       110  -9.6135     99.9609     70.7083   8.3877314974e+01   4.9125447081e+01    0.1884765    0.1847788   7.72 0.0004494399    1.072    0.067
       111  -9.5569     14.0421     71.4868   1.1404002501e+02   5.9813437859e+01     0.142176    0.1191918   3.80 0.0003195601    1.467    0.319
       112 -10.8960     46.3789     69.2997   1.0170657941e+02   5.7545533368e+01    0.2641806    0.2124286   0.28 0.0006310655    1.418    0.295
       113 -10.3566     10.4614     67.6155   1.1457004881e+02   6.0877784938e+01    0.3349303    0.1482891 -69.44  0.001278428    1.959    0.490
       114 -11.4455      7.3321     63.9964   1.1500497488e+02   6.1837631690e+01    0.2164334    0.1889641 -64.81  0.001598559    1.155    0.135
       115  -9.5673     79.2550     68.6487   8.9894234771e+01   5.3221125983e+01    0.3483324    0.1308217  29.16  0.001111218    4.117    0.757
       116 -11.1312     15.2266     64.9914   1.1225140135e+02   6.1161805013e+01    0.3983261     0.264505 -67.44  0.001419257    1.321    0.243
       117 -13.6756     20.0101     57.5378   1.0865217011e+02   6.2440171836e+01    0.4050435    0.2562566 -64.33  0.001306422    1.433    0.302
       118 -10.0068      1.4380     66.8768   1.1772285598e+02   6.1504028695e+01     0.175845   0.08955619 -68.11 0.0007512936    1.527    0.345
       119  -9.7944    133.2895     65.5748   7.2789100492e+01   4.2949869036e+01    0.2748154    0.1945022  -9.43    0.0011967    1.828    0.453
       120 -10.4510     34.4000     64.9585   1.0499651882e+02   5.9686921302e+01    0.2702461    0.1586463 -45.40 0.0007997738    1.414    0.293
       121 -10.6262     62.3743     63.4775   9.4156344053e+01   5.6813214494e+01    0.4104705     0.179457 -43.31  0.001349522    2.037    0.509
       122 -10.1248     39.4740     62.5196   1.0240655798e+02   5.9723088544e+01    0.2984679    0.1959284 -60.52  0.001675404    1.453    0.312
       123 -10.0741     41.6122     59.1685   1.0061947037e+02   6.0210315968e+01    0.3412478     0.220373  17.56  0.001911951    1.818    0.450
       124  -9.5950    193.2693     61.9586   5.9043686979e+01   2.8577892860e+01     0.202489     0.186933 -38.88 0.0002518988    1.083    0.076
       125 -11.1035    150.0422     62.0237   6.7594779190e+01   3.9530739211e+01    0.2349167    0.2154177  52.68            0    1.079    0.074
       126  -9.5138     53.5579     61.8105   9.6877605013e+01   5.8303631439e+01    0.1763258     0.117785 -59.47 0.0004525556    1.567    0.362
       127 -10.3545    100.8939     60.6180   8.0219983481e+01   5.0898189843e+01    0.3016393    0.1892444 -55.81  0.001317858    2.010    0.502
       128 -10.7800      9.9807     60.0620   1.1317303243e+02   6.2539929229e+01    0.1792727    0.1376509 -53.14 0.0003603151    1.013    0.013
       129  -9.6108      1.3055     59.3205   1.1635431872e+02   6.3138759336e+01    0.1231262   0.06190117 -44.74  0.000326531    1.635    0.388
       130 -10.7700     83.7526     56.6396   8.4358400896e+01   5.4840342176e+01    0.2634321    0.2225725 -33.03  0.001491791    1.102    0.093
       131 -12.0197     88.3777     52.7483   8.1426357456e+01   5.4733824133e+01    0.4763073    0.3708408  55.30  0.002074571    1.561    0.359
       132  -9.0494     48.3403     58.2725   9.7756268461e+01   5.9656827419e+01    0.1319089   0.08871455 -22.27 0.0003086224    1.610    0.379
       133  -8.9698     71.6907     57.2843   8.8767596674e+01   5.6700847298e+01    0.1251125    0.1097795 -87.10 0.0003841856    1.569    0.363
       134 -10.2289     33.6347     55.2339   1.0259615246e+02   6.1812364489e+01     0.411837    0.1452325 -44.14  0.001790134    2.355    0.575
       135 -11.6633    114.5904     53.8524   7.3814301357e+01   4.9253038975e+01    0.3559673     0.298335  34.63   0.00073172    1.182    0.154
       136  -9.9464    106.3337     53.1427   7.5945822600e+01   5.1140247291e+01     0.242773    0.1875634  36.00 0.0005834452    1.297    0.229
       137 -12.0339     65.8816     52.5521   8.9230621752e+01   5.8492371085e+01    0.5380393    0.2298152  34.08  0.002288913    2.579    0.612
       138 -11.2274     12.9752     41.0773   1.0712387602e+02   6.6294565260e+01    0.4629031    0.3620173  59.94  0.002968635    1.923    0.480
       139 -12.4124      5.7393     50.8058   1.1276369959e+02   6.4723180237e+01    0.2734338      0.19316 -40.19 0.0003297034    1.213    0.175
       140 -11.4862     13.5513     48.6603   1.0898664765e+02   6.4723743905e+01    0.5562238    0.4365537  -4.83 0.0001138886    1.436    0.304
       141 -10.0823    121.9114     51.2053   7.0874229356e+01   4.8062075920e+01    0.2094225    0.2008715  87.31 0.0003323873    1.177    0.151
       142 -11.2975     77.9688     46.8200   8.2780946701e+01   5.7634098917e+01    0.5162933    0.3165061  -8.89  0.001240135    2.346    0.574
       143 -10.4011     98.3386     48.1644   7.6553687701e+01   5.3628451831e+01    0.2351758     0.223213  17.80 0.0003907038    1.085    0.078
       144 -11.2269     57.3327     46.7701   9.0401748680e+01   6.0796458115e+01    0.3390556    0.2043881 -53.88 0.0007317272    1.848    0.459
       145  -9.4256     53.1534     48.2635   9.2568510756e+01   6.1062954782e+01    0.2256101    0.1229298 -17.11 0.0009507352    2.788    0.641
       146  -9.5870    154.5638     47.5423   6.1914259517e+01   4.0714853087e+01    0.1478768    0.1445225  55.87 5.955637e-05    1.009    0.008
       147  -9.7970    135.5329     46.4462   6.5774261758e+01   4.5610698610e+01    0.1471216     0.142096  33.55 7.544713e-05    1.015    0.015
       148  -9.4448    104.3195     46.3261   7.4054684521e+01   5.2712184092e+01    0.1503918    0.1076748   9.86 0.0007046455    1.680    0.405
       149  -9.4884     65.0256     46.5073   8.7366409912e+01   5.9752319794e+01     0.174638    0.1164755  60.72  0.000810364    2.610    0.617
       150  -9.5147     31.2938     45.6848   1.0062256855e+02   6.3961081561e+01    0.1798862    0.1645981 -73.66 0.0005863026    1.398    0.285
       151 -11.3090     26.4838     43.7759   1.0205834270e+02   6.4761742668e+01    0.3283038    0.2213904 -39.32  0.001180487    1.192    0.161
       152  -9.8235    159.5023     41.9464   5.9099648965e+01   4.0270139114e+01    0.2117499    0.1476887 -30.66 0.0009963297    1.483    0.326
       153  -9.1074     95.2843     42.3344   7.5305612892e+01   5.5202033556e+01    0.1445522    0.1039495   4.04 0.0007011641    1.621    0.383
       154 -10.5285     69.3031     41.9108   8.4029081925e+01   5.9918086334e+01    0.2522193    0.1915523   5.56  0.001422602    1.379    0.275
       155 -10.9613      3.7916     41.1630   1.1119638359e+02   6.6795380747e+01    0.4407943    0.1970102 -30.33  0.002374336    2.259    0.557
       156 -10.7516    140.1744     40.8438   6.2759508956e+01   4.5305734947e+01    0.2822554    0.2323478  87.98 0.0006291284    1.438    0.304
       157  -9.7881     42.8319     40.8127   9.4084223086e+01   6.3716625047e+01    0.1461511    0.1417118  -7.15 0.0004403144    1.286    0.222
       158 -10.4777     35.0150     41.1933   9.7532618546e+01   6.4478308680e+01    0.2687954    0.1728558  18.87 0.0008943231    1.742    0.426
       159  -9.4702    181.1966     40.3876   5.4748796620e+01   3.4876474044e+01    0.1941088    0.1372007  79.98 0.0001713108    1.513    0.339
       160 -10.1125    128.0621     38.7583   6.4847743589e+01   4.8545240603e+01    0.2055589    0.1953091  78.95 0.0003521361    1.161    0.139
       161 -11.8551    121.6119     37.2646   6.5905766927e+01   5.0276391239e+01    0.4158038    0.3829444  37.95  0.001192532    1.048    0.046
       162  -9.4743    114.9594     39.0378   6.8309465523e+01   5.1539522768e+01    0.1709284    0.1596002   4.67 0.0004360151    1.029    0.028
       163  -9.1970     87.4384     39.3946   7.6687745148e+01   5.7192286203e+01    0.1364572    0.1226151   1.37 8.254059e-05    1.016    0.015
       164 -10.3531     22.5289     38.4574   1.0206266832e+02   6.6125045591e+01    0.1900945    0.1275994 -55.28 0.0005053761    1.388    0.279
       165 -11.1529     26.5615     35.6542   9.9297267131e+01   6.6321275835e+01    0.4451916    0.2081425 -36.60  0.001615379    1.855    0.461
       166 -10.7975      2.9201     35.8783   1.1015233501e+02   6.7890247142e+01    0.3678878    0.1391467 -32.53  0.001822339    2.608    0.617
       167 -10.9883     38.9721     35.2936   9.3672228652e+01   6.5162366251e+01    0.2697891    0.1863075   3.39  0.001610438    1.566    0.361
       168 -12.0265     41.1033     29.8426   9.0590419862e+01   6.5883799161e+01    0.6217281    0.3557769   1.93  0.003122539    2.349    0.574
       169 -10.8358     96.7805     34.3567   7.1716781967e+01   5.6133558888e+01    0.3710166    0.1693586 -37.27  0.001085855    2.193    0.544
       170  -9.6345     90.7845     35.3743   7.3999988230e+01   5.7178599254e+01    0.1985259    0.1195378  35.94 0.0008555594    1.665    0.399
       171  -9.9284    134.2366     34.2705   6.1781123213e+01   4.7679914721e+01    0.1994825    0.1724048  30.99 0.0003415505    1.138    0.121
       172 -10.7065    144.7333     32.7990   5.8993084205e+01   4.5272165335e+01    0.2745732    0.2174389 -65.51 0.0004735228    1.496    0.332
       173 -11.0090     19.1654     32.1266   1.0144152544e+02   6.7592619351e+01    0.4599366    0.2118772   0.54   0.00213833    3.310    0.698
       174  -9.5625    128.8777     30.9056   6.1790924601e+01   4.9425964621e+01    0.1919904    0.1675166 -56.08 0.0005634776    1.315    0.239
       175  -9.8491     77.4696     30.9560   7.6651189874e+01   6.0330913360e+01    0.2031656    0.1629617  31.74 0.0007165738    1.237    0.192
       176  -9.7403     84.5069     30.4809   7.4049040547e+01   5.9113248574e+01    0.2317946    0.1312881  58.46   0.00102253    2.470    0.595
       177 -10.3208     72.6348     32.4001   7.8980777886e+01   6.0946711761e+01    0.2964166    0.1533083  33.61  0.001391894    2.023    0.506
       178 -10.4726      8.1402     28.8459   1.0555157026e+02   6.8962214773e+01     0.242071    0.1840308  47.24  0.001329492    1.987    0.497
       179 -10.6762    113.4348     25.6847   6.3585843499e+01   5.3713914311e+01    0.3681147    0.2274518 -42.27 0.0007221801    1.835    0.455
       180 -10.3363     97.4853     26.9455   6.8503132470e+01   5.7030711930e+01    0.3428041    0.2112011  -7.87 0.0006422897    1.942    0.485
       181  -9.8190    146.7022     26.9009   5.6561864106e+01   4.5519887716e+01    0.1988213    0.1788768 -21.31   0.00111018    1.177    0.151
       182 -10.5119    105.9726     27.4975   6.6295740188e+01   5.5145497545e+01    0.2562647    0.1359846  57.20  0.000487937    2.002    0.501
       183  -8.8546    153.6652     25.3272   5.4714014445e+01   4.3935939820e+01    0.1509737    0.1073715 -67.52 0.0007051709    1.720    0.419
       184  -9.0592     69.5092     25.4914   7.7178035627e+01   6.2519093695e+01    0.1322239    0.1114424  -1.98 0.0008104981    1.018    0.017
       185 -10.1172     58.8618     24.0712   8.0643544259e+01   6.4432016196e+01    0.2311772    0.1678388   8.25  0.001287184    1.355    0.262
       186  -9.4895    120.2288     22.9888   6.0854131785e+01   5.2473353402e+01     0.172937    0.1153334 -24.08 0.0003053231    1.561    0.359
       187 -10.6357      1.9725     22.1331   1.0634404487e+02   7.0557367121e+01    0.2400345    0.1317809 -55.73 0.0006407767    1.522    0.343
       188 -11.5926     76.0067     21.3640   7.3022797429e+01   6.1964051786e+01    0.3438577    0.2179634  36.99 0.0009520968    1.516    0.340
       189  -9.8553     35.1790     21.9018   8.9910702088e+01   6.7890081913e+01    0.1661895    0.1105754 -22.10 0.0003995452    1.306    0.234
       190  -9.7645    229.6764    248.0240   9.2999812916e+01  -8.3346722925e+00     0.152386     0.120909  10.95 0.0006026276    1.119    0.106
       191  -9.6672     57.9795    248.2759   1.2336034546e+02   1.7293295387e+01    0.1523498    0.1064832  58.14 0.0003775875    1.087    0.080
       192  -9.4900    225.1238    246.8014   9.3591804532e+01  -7.5373164574e+00    0.1632043     0.107656  16.35  0.001060964    1.343    0.255
       193  -9.1872    136.3698    245.7291   1.0931544380e+02   6.4689666234e+00    0.1232022   0.07485884  59.29 0.0006998262    1.671    0.402
       194 -11.5203     13.7242     20.9360   9.9937595797e+01   7.0035201290e+01    0.2545772    0.2333682  37.70   0.00180182    1.592    0.372
       195 -11.0943     13.9688     16.1741   9.7880604819e+01   7.0840317787e+01     0.244884    0.1630065  21.26  0.001009731    1.706    0.414
       196  -9.0918    175.7262     21.3491   4.9824891791e+01   3.8694115334e+01    0.1482828    0.1008497 -61.16 0.0003022395    1.631    0.387
       197  -9.4964    165.0201     20.9846   5.1352386032e+01   4.1512653043e+01       0.1714    0.1584076 -29.73 0.0009803172    1.163    0.140
       198  -9.9287     85.1101     20.9866   6.9805646950e+01   6.0305363889e+01    0.3035229    0.1597535  19.44  0.001188151    2.724    0.633
       199 -11.4154      2.9914    248.8880   1.3210791123e+02   2.3293041456e+01    0.3938813    0.2189743  57.82  0.003053482    1.267    0.211
       200  -9.6948    146.7588     18.9741   5.3814177449e+01   4.6423777492e+01    0.2028931    0.1904064  60.35  0.001185265    1.026    0.025
       201  -9.7424     58.2172     19.2730   7.8729905000e+01   6.5232191652e+01    0.1565121    0.1465715 -30.83   0.00105124    1.389    0.280
       202  -9.3965    199.5170     17.4807   4.5570106267e+01   3.3004436496e+01    0.1392729    0.1251311 -83.78 3.775119e-05    1.010    0.010
       203  -9.2335    114.9741     17.2198   5.9862785648e+01   5.4362577697e+01    0.1752169    0.1060156  56.58 0.0003098527    1.564    0.361
       204 -10.4078    108.3606     16.3811   6.1165031073e+01   5.5964177536e+01    0.2177763    0.1684248 -11.90  0.001213587    1.323    0.244
       205  -9.6138    202.4031    240.2392   9.6585761032e+01  -3.3034847462e+00    0.1333696    0.1151204 -41.67 0.0008331921    1.549    0.354
       206  -9.8142     20.1946     16.8709   9.4983976042e+01   7.0211020684e+01    0.1588194    0.1283586 -22.53 0.0004328218    1.097    0.088
       207  -9.4297     60.6638    241.0000   1.2240124799e+02   1.8203559029e+01     0.226292   0.05152976  38.90 0.0009130997    3.762    0.734
       208  -9.4750     35.6612    240.7087   1.2660195561e+02   2.1270985537e+01   0.08523577   0.08164955 -86.23 0.0007024883    1.645    0.392
       209  -9.4751    148.5078    238.9672   1.0627288051e+02   5.5621035320e+00    0.1554231    0.1226768 -54.41 0.0008839005    1.582    0.368
       210  -9.4236     90.8164    237.2867   1.1675022910e+02   1.4754398014e+01    0.1521219    0.0791181 -56.09 0.0007455421    2.361    0.577
       211 -10.0280    154.4182     15.0351   5.1136930164e+01   4.4892603529e+01    0.2162955    0.1734978  65.23 0.0004727254    1.148    0.129
       212 -11.9992     26.4056    235.4725   1.2784154551e+02   2.3224379228e+01    0.2860834     0.208758 -77.53  0.001563687    1.485    0.326
       213  -9.6919    190.9639     13.5193   4.5481287258e+01   3.5622483874e+01    0.2137201    0.1261088  69.90  0.000685308    1.558    0.358
       214 -12.5074      9.9977    228.5297   1.3019067002e+02   2.6165320506e+01    0.4620803    0.2458732  71.37 0.0009964234    1.396    0.284
       215 -12.0051      4.1782    232.6712   1.3130350101e+02   2.5982388450e+01    0.2685043    0.1356951  64.08  0.001885404    1.417    0.294
       216 -11.2100      1.6243    225.9144   1.3143493047e+02   2.7437542808e+01    0.3597752   0.09562012 -82.76  0.001754819    3.292    0.696
       217  -9.8935    249.3106    234.0269   8.7484917360e+01  -9.6105761483e+00    0.1553859    0.1189369   6.67 0.0004302567    1.076    0.070
       218  -9.2450    242.9713    230.2089   8.7921013054e+01  -8.2738064077e+00    0.1524918   0.07787611  36.24 0.0006547805    1.675    0.403
       219  -9.4460    209.5298    229.5134   9.3662756338e+01  -3.0591904715e+00    0.1233349   0.09815609  23.79 0.0001492052    1.004    0.004
       220  -9.8049    140.6819    228.8326   1.0646116152e+02   8.4406598709e+00    0.2127124    0.1085437 -43.19 0.0008526397    2.582    0.613
       221  -9.4650    204.4894    235.4297   9.5489254826e+01  -3.0203410780e+00    0.1217985   0.09559043  27.58 0.0001817419    1.014    0.014
       222 -10.5644      2.4855    220.0184   1.3104563757e+02   2.8440719872e+01     0.243818   0.09950858  78.15  0.001332343    2.045    0.511
       223 -10.7240      8.3860    218.3258   1.2998399569e+02   2.8204098029e+01     0.257635    0.2122912   3.58  0.001929515    2.361    0.577
       224  -9.2668    209.6721    211.2985   9.0627736489e+01  -6.0602084214e-01    0.1166772   0.09922867  63.04  0.000702809    1.636    0.389
       225 -10.1385     20.1505    209.8266   1.2748778733e+02   2.8674690003e+01    0.1771314    0.1056924  67.00 0.0008744011    1.295    0.228
       226 -10.4592      2.9715    205.5109   1.3029946501e+02   3.1151848906e+01    0.1451166   0.09241331  42.60  0.001042599    1.628    0.386
       227 -10.3687      9.9956    203.4758   1.2895112780e+02   3.0908649571e+01    0.1477238   0.09067599  45.73 0.0005161843    1.561    0.359
       228  -9.2372    123.4319    198.5051   1.0580059804e+02   1.6780098732e+01    0.1332043    0.1164548  59.33 0.0002009281    1.010    0.010
       229  -9.8813     23.1448    197.1706   1.2614336220e+02   3.0893459911e+01     0.161802    0.1330052 -83.22 0.0006306734    1.279    0.218
       230 -10.8393     13.9297    192.7188   1.2760530345e+02   3.2699246305e+01    0.1958628    0.1208807  82.58 0.0004522086    1.255    0.203
       231 -10.5829      6.4948    191.4607   1.2892953374e+02   3.3631521735e+01    0.1884523    0.1325672  77.45 4.442334e-05    1.037    0.036
       232  -8.8999     20.6770    188.7267   1.2604609767e+02   3.2876931421e+01   0.09851928   0.08119388 -59.00 0.0002215212    1.576    0.365
       233  -9.4337     22.4427    179.8120   1.2504919857e+02   3.4584469257e+01    0.1507335    0.0890236 -69.49 0.0005296472    1.538    0.350
       234 -10.6529      5.3810    167.4058   1.2767050868e+02   3.8759808510e+01    0.2287306    0.1351569  81.04  0.001091935    1.359    0.264
       235  -9.5316    226.5172    164.0541   7.8428165340e+01   3.5515117054e+00    0.2019769    0.1288857 -31.53 0.0006038873    1.525    0.344
       236 -10.2054     14.6602    163.6603   1.2543847841e+02   3.8799449993e+01     0.171571    0.1188838 -53.72  0.001110099    1.708    0.415
       237  -9.0746     41.2974    157.6956   1.1887848940e+02   3.7544349291e+01    0.1293671   0.08012587  72.34 0.0003490914    1.585    0.369
       238  -9.4033    247.4768    155.5172   7.2952631338e+01   1.0170862724e+00    0.1358066    0.1165964  -6.40 7.104135e-05    1.013    0.013
       239 -10.4832      2.4789    153.5149   1.2732074218e+02   4.2002385688e+01    0.1978641     0.109957  29.33  0.001218815    2.194    0.544
       240  -9.8341     23.4928    150.5119   1.2230011269e+02   4.0956703489e+01    0.1223161   0.09578591 -88.75 0.0008105324    1.002    0.002
