#   1 NUMBER                 Running object number                                     
#   2 MAG_AUTO               Kron-like elliptical aperture magnitude                    [mag]
#   3 X_IMAGE                Object position along x                                    [pixel]
#   4 Y_IMAGE                Object position along y                                    [pixel]
#   5 X_WORLD                Barycenter position along world x axis                     [deg]
#   6 Y_WORLD                Barycenter position along world y axis                     [deg]
#   7 A_WORLD                Profile RMS along major axis (world units)                 [deg]
#   8 B_WORLD                Profile RMS along minor axis (world units)                 [deg]
#   9 THETA_WORLD            Position angle (CCW/world-x)                               [deg]
#  10 FWHM_WORLD             FWHM assuming a gaussian core                              [deg]
#  11 ELONGATION             A_IMAGE/B_IMAGE                                           
#  12 ELLIPTICITY            1 - B_IMAGE/A_IMAGE                                       
         1  -8.9511     28.5033     21.6688   1.1364205978e+02   6.8393523778e+01    0.4002773    0.2286207 -30.54  0.002217477    1.682    0.405
         2 -11.4880     80.3050     23.4449   9.2471878467e+01   6.0906151413e+01    0.6090542    0.3122895  30.43  0.000702779    2.347    0.574
         3  -8.9020     46.0086     20.9002   1.0509874746e+02   6.6640739622e+01    0.4140478    0.1632156 -45.25  0.001251158    2.154    0.536
         4  -9.4612     63.9223     14.7035   9.4478840508e+01   6.5123712416e+01    0.5353503    0.3004038   4.36  0.002203119    2.962    0.662
         5  -9.2651    128.3851     15.5140   7.5156293077e+01   5.1520762025e+01    0.5441481    0.2973244   1.33  0.002138556    2.352    0.575
         6  -9.4703    134.5227     13.0750   7.2815426640e+01   5.0264241925e+01    0.5112774    0.2655554  26.58  0.001506731    2.355    0.575
         7  -8.6022     96.3934     13.3937   8.2496811153e+01   5.9173611790e+01    0.4534203    0.2244494  -5.22  0.001649587    3.015    0.668
         8  -9.3582     71.4254      9.0948   8.8702539788e+01   6.4673557580e+01    0.4170601    0.2657156  23.62  0.002060901    1.672    0.402
         9  -8.3592     76.9539      7.0000   8.5604767644e+01   6.3932731132e+01     0.241173     0.147067  38.54 0.0008738608    1.640    0.390
        10  -8.8975     75.9735      3.9885   8.4354714787e+01   6.4504682956e+01     0.246482    0.2026666  -7.30 0.0006914631    1.049    0.047
        11  -9.3001     79.3319     12.9588   8.7811107854e+01   6.2671041838e+01    0.4094273    0.2705929  46.25  0.001253475    1.641    0.391
        12  -9.0312    125.1198     10.5016   7.3746379676e+01   5.2885289581e+01    0.3103144    0.2065855  12.39 0.0005137671    1.616    0.381
        13  -8.7575    108.7275     10.7481   7.7807335931e+01   5.6762812231e+01    0.3354954     0.214621 -85.80  0.001303239    3.163    0.684
        14  -9.2991     31.5335     10.9469   1.0741356831e+02   7.0124761397e+01    0.3383398    0.2049887 -18.73 0.0003367056    1.758    0.431
        15  -9.0003    234.4712      8.3896   5.7646746446e+01   2.4896540815e+01    0.3557526    0.2282816  -7.46 0.0009055065    1.675    0.403
        16  -8.6179    104.1477     15.6840   8.1320031777e+01   5.7191603953e+01    0.5509554    0.2570626   9.25  0.001402832    6.241    0.840
        17  -7.9363    155.8433      7.8039   6.6799008110e+01   4.5281967524e+01    0.3235718    0.1749718 -11.91 0.0009777874    1.961    0.490
        18  -9.1592     74.4678     13.5032   8.9825945635e+01   6.3493458885e+01    0.3285012    0.2188176 -15.24  0.001311616    1.432    0.302
        19  -8.9171     32.2650      6.0748   1.0458314481e+02   7.0903059741e+01    0.2011382    0.1687445 -25.53 0.0003398355    1.130    0.115
        20  -8.9569    129.7270      6.5173   7.1048879878e+01   5.2152746116e+01    0.4367495    0.1962214  44.13 0.0009775208    2.101    0.524
        21  -8.9873    119.1200      6.9196   7.3523291746e+01   5.4729071355e+01    0.2476455    0.1971809  23.04 0.0002639565    1.178    0.151
        22  -9.6752     46.5564      6.5246   9.7754502984e+01   6.9034252186e+01    0.2933307    0.2384178   8.10  0.001076126    1.219    0.179
        23  -8.5577     41.2404      5.9257   9.9969895668e+01   6.9844010783e+01    0.2472989    0.1951582 -16.57 0.0007141097    1.050    0.047
        24 -10.1059      7.9013      5.3675   1.1785818717e+02   7.3173061745e+01    0.4826525    0.2312762  -7.97  0.002469426    2.919    0.657
        25  -8.4567    101.1118      5.6694   7.7435434458e+01   5.9068004013e+01    0.4115718    0.2191966  24.74  0.001734751    2.184    0.542
        26  -9.5277    110.6710      3.2677   7.3836020886e+01   5.7121789483e+01    0.4279258    0.2542316 -24.26  0.001331673    1.633    0.387
        27  -8.2283    105.7525      1.5826   7.4245305737e+01   5.8439561554e+01    0.3421717    0.1815607  54.32  0.001554249    1.811    0.448
        28  -7.3276    179.3242      5.3667   6.2525285923e+01   3.9268165438e+01    0.1625356   0.09849285  32.43 0.0007037386    1.798    0.444
        29  -8.2697     90.9236      4.8958   7.9968314659e+01   6.1377365599e+01    0.2183637    0.1635692  19.91 0.0004655727    1.255    0.203
        30  -7.9003     84.5255      3.9212   8.1453774055e+01   6.2821519760e+01    0.2148363    0.1234858 -20.91  0.001037729    1.612    0.380
        31  -8.3693     55.7189      3.4130   9.1921727617e+01   6.8136737742e+01    0.2175602     0.189108  11.65 0.0008587032    1.192    0.161
        32  -8.1793    134.3001      3.0253   6.8665445506e+01   5.1327712328e+01    0.1976422    0.1765906  13.87 0.0002577381    1.053    0.050
        33  -8.3207    158.8244      1.7373   6.4045452601e+01   4.5038626769e+01    0.2684392    0.1674589  60.44  0.001203835    1.504    0.335
        34  -8.1929    143.1908      2.1773   6.6710009657e+01   4.9112603091e+01     0.211091    0.1794891  28.06 0.0003347987    1.107    0.097
        35  -7.7522      3.2557      1.3630   1.1890233256e+02   7.4220709723e+01    0.1780963    0.1017298   2.90 0.0007250502    2.095    0.523
        36  -8.1647     96.4391     90.2902   1.1025168178e+02   4.4989026410e+01    0.3140789    0.2188276   2.38  0.001427236    2.265    0.559
        37  -8.7257    210.8445    249.8467   1.1436080395e+02   5.3212745518e-01    0.1397762   0.09934551  40.79 0.0004122163    1.340    0.254
        38  -8.9619     21.2942     90.7172   1.3288569409e+02   5.3803087051e+01    0.2196539    0.1290528 -24.97  0.001183851    2.575    0.612
        39  -7.8675    110.2476     90.7624   1.0650469132e+02   4.2468313867e+01    0.2200146    0.1173219  30.10 0.0008196815    2.418    0.586
        40  -7.7681    126.0108     83.8563   1.0035540049e+02   4.0817009267e+01    0.2494897    0.1698523  17.14  0.001078988    2.012    0.503
        41  -9.9416     37.4369     80.9799   1.2630210653e+02   5.4700721773e+01    0.5296389    0.3052908 -15.60  0.002513554    3.026    0.669
        42  -8.7378     88.3142     78.7483   1.0960677517e+02   4.8809860156e+01    0.4629408    0.2666773  18.19   0.00174225    2.861    0.650
        43  -9.7548      8.4763     77.1651   1.3503706868e+02   5.7673678517e+01    0.5213425    0.2178061 -38.80  0.002518489    3.006    0.667
        44  -7.6592    184.2548     78.0188   8.5294445222e+01   2.8672697316e+01    0.2134211    0.1876318 -18.49  0.000532836    1.090    0.083
        45  -8.9943     48.5532     77.2310   1.2191714156e+02   5.4460015351e+01    0.2925779    0.1922665 -29.97  0.001307135    1.873    0.466
        46  -9.0770     29.1917     68.7798   1.2671686780e+02   5.8173643724e+01     0.367617     0.166174 -40.92  0.001745003    2.407    0.585
        47  -9.4222     23.8665     73.6649   1.2944831893e+02   5.7475043846e+01    0.4573227    0.1465782 -52.62  0.001913576    2.489    0.598
        48  -8.1093     23.4739     69.4759   1.2883369495e+02   5.8452235268e+01    0.2299034    0.1474312 -76.67 0.0005449291    1.391    0.281
        49  -7.9079     74.9703     74.2906   1.1256660014e+02   5.1817600147e+01    0.1803082     0.168902  20.33 0.0003899334    1.191    0.161
        50  -7.5908    129.0046     69.5001   9.5207192771e+01   4.2955921900e+01    0.2204002    0.1248128  25.74 0.0008105866    2.570    0.611
        51  -7.8477    105.8674     67.7291   1.0106741840e+02   4.8015527777e+01    0.2496314    0.1587512  -2.54 0.0009520113    2.823    0.646
        52  -9.0215     83.9861     64.0989   1.0668706880e+02   5.2622084971e+01    0.4551079    0.2691374 -23.36  0.001919093    2.393    0.582
        53  -9.1050     17.3213     62.9988   1.2981257163e+02   6.0334927161e+01    0.4810454    0.1928302 -36.30  0.002125763    3.224    0.690
        54  -7.6459    122.6981     61.4812   9.4254756982e+01   4.5803552575e+01    0.4145495    0.2224096  13.92  0.001030052    6.278    0.841
        55  -8.1494     57.9714     62.4507   1.1503343059e+02   5.6685539951e+01    0.2613142    0.1911582  59.10  0.001213226    1.794    0.443
        56  -9.4846     63.8081     61.0378   1.1257335944e+02   5.6247188223e+01    0.6338097    0.3343433  14.63  0.002538407    3.350    0.701
        57  -9.0536     26.0009     60.8064   1.2621779622e+02   6.0220275444e+01    0.3420617    0.1818804 -39.95  0.001457516    1.921    0.479
        58  -9.2370     36.4289     59.2745   1.2201208573e+02   5.9693253590e+01    0.4575227    0.2507953  -4.07   0.00209567    3.179    0.685
        59  -9.3813    243.9224     57.1433   6.9935141182e+01   1.7470780092e+01    0.2954957    0.2144827  35.01 0.0003708844    1.469    0.319
        60  -8.6462    247.9100     52.9621   6.8341220633e+01   1.7074000817e+01    0.2258693    0.1978562  38.22 0.0005377149    1.217    0.178
        61  -7.7686    111.1791     58.0640   9.6313393180e+01   4.8846660853e+01    0.2357398    0.1621876  -7.74 0.0007777491    1.906    0.475
        62  -7.8701     99.3742     55.7912   9.9052760390e+01   5.1595078719e+01    0.2093945    0.1273189 -31.52 0.0005324822    1.641    0.390
        63  -7.3610     88.3411     54.2920   1.0203865181e+02   5.3890096583e+01    0.1445113    0.1068907  -6.56 0.0007026912    1.652    0.395
        64 -10.0439     74.8634     50.4187   1.0526455225e+02   5.6883532268e+01    0.4394998    0.2947254 -22.85 0.0004114398    1.688    0.408
        65  -9.0558     45.3077     49.0961   1.1584385317e+02   6.1046473215e+01    0.4312992    0.2353738 -32.17  0.001808151    2.068    0.516
        66  -8.1815    118.4891     51.1435   9.1794625724e+01   4.8572735753e+01    0.2471562    0.2051064  41.57 0.0004729571    1.247    0.198
        67  -8.3908    106.6563     49.0130   9.4410531245e+01   5.1435246097e+01    0.3662406    0.2126234  15.16  0.001326665    3.064    0.674
        68  -9.3081      3.6828     40.1237   1.3063423937e+02   6.6165253638e+01    0.4178495    0.1212502 -72.95  0.001667089    3.268    0.694
        69  -8.9601      6.6451     47.7337   1.3096019160e+02   6.4350671207e+01    0.2658363    0.1929485  56.78 0.0007657273    1.739    0.425
        70  -9.6460     11.9279     46.2618   1.2852098667e+02   6.4395015313e+01    0.5419332     0.267441 -40.78  0.002291219    1.919    0.479
        71  -9.4129     57.3676     41.8804   1.0873051884e+02   6.1119767577e+01     0.677088     0.317068 -24.47  0.002273345    4.323    0.769
        72  -8.6144     92.2906     38.5316   9.4852694357e+01   5.6131222818e+01    0.5789597    0.2958375 -39.69   0.00188337    1.821    0.451
        73  -8.4257     81.3074     44.2946   1.0079342826e+02   5.7043788242e+01    0.2843172    0.2096929 -22.91  0.000711704    1.348    0.258
        74 -10.4535     83.2411     40.0434   9.8488815985e+01   5.7509857658e+01    0.2719072    0.2403462   1.64 0.0002149404    1.126    0.112
        75  -8.4826     87.6675     37.6930   9.6045621810e+01   5.7142694157e+01    0.2458136    0.2001322   1.19 0.0006261262    1.267    0.211
        76  -8.3495    113.2733     42.6151   9.0073251836e+01   5.1166148507e+01    0.4827515    0.2703834   8.35  0.001554167    3.817    0.738
        77  -7.6879    123.8192     39.4285   8.5970469716e+01   4.9335800715e+01    0.2051662    0.1347672  37.91   0.00043215    1.561    0.359
        78  -8.3788    105.5197     36.9765   9.0105114824e+01   5.3753026019e+01     0.351366    0.2161168  16.10  0.001453465    2.276    0.561
        79  -9.5695     69.4927     36.6339   1.0208762591e+02   6.0416050116e+01    0.6200786    0.3404203  11.65  0.002346507    3.538    0.717
        80  -9.7702     37.2971     36.3687   1.1503531603e+02   6.4569598643e+01    0.4599864    0.2475007 -21.69  0.001808056    2.592    0.614
        81  -9.0053     18.9756     36.0000   1.2294880662e+02   6.6189877453e+01    0.1945838    0.1688848  -5.28 0.0007517238    1.361    0.265
        82  -9.2547     22.5321     35.5010   1.2122326552e+02   6.6040375535e+01    0.3017758    0.2628421 -87.25  0.001935572    1.395    0.283
        83  -9.0123     21.8435     32.1933   1.2051941391e+02   6.6793345610e+01    0.2512329    0.2134931  -1.16  0.001031553    1.378    0.274
        84  -7.5012    157.3555     36.2390   7.7079796949e+01   4.1607859038e+01    0.1593412    0.1073078  31.81 0.0003472681    1.582    0.368
        85  -9.1879     56.1905     35.3356   1.0676065317e+02   6.2582195365e+01    0.3239325    0.1804147 -25.92 0.0009793401    2.112    0.526
        86  -9.5019      6.4845     33.9038   1.2798691397e+02   6.7383663674e+01    0.3408224    0.2367095 -40.20  0.001598183    1.314    0.239
        87  -9.2767      2.1034     29.0114   1.2878997596e+02   6.8640606002e+01    0.4864264    0.1662074 -66.09  0.002342501    2.200    0.545
        88  -9.4984     41.9426     27.8086   1.0984104267e+02   6.5809630426e+01    0.3672712    0.1839441 -56.57  0.001300132    2.114    0.527
        89  -8.3548     61.8633     26.8555   1.0098278869e+02   6.3383295318e+01     0.203887    0.1594847 -15.31 0.0004826908    1.207    0.172
        90  -8.5144     25.6823     25.6444   1.1651319906e+02   6.7845336571e+01    0.3243573    0.1261004 -36.01  0.001416752    2.672    0.626
        91  -8.9284    224.1638    249.0024   1.1221719181e+02  -1.2142445783e+00    0.1706963   0.09370926  11.51 0.0006630122    2.039    0.510
        92  -8.0971    177.6626    249.0107   1.1944543885e+02   5.2223426068e+00    0.1422837   0.07734807 -12.34 0.0007051665    4.384    0.772
        93  -8.3173    144.8215     23.4174   7.4832071879e+01   4.6458071674e+01     0.248934     0.199016 -14.95 0.0002674057    1.227    0.185
        94  -7.1299    118.3218     24.3356   8.1307163570e+01   5.2823864658e+01    0.1591962    0.1057818  18.36 0.0007050312    1.708    0.415
        95  -8.7446     63.9036     22.7785   9.8343664840e+01   6.3792354137e+01    0.1876485    0.1616503  80.14 0.0009978855    1.860    0.462
        96  -9.6631    153.6262    249.1227   1.2327729044e+02   8.5435724396e+00    0.2734551   0.08607287  43.29  0.001429576    2.298    0.565
        97  -7.8203    128.9994     22.4784   7.7912712058e+01   5.0523622292e+01     0.221943    0.1417099  52.75 0.0005228581    1.547    0.354
        98  -8.4656     92.4630     20.8788   8.7209099983e+01   5.8957598601e+01     0.285005    0.1680434  29.90  0.001299779    1.873    0.466
        99  -8.3677    140.4478     20.0129   7.4397014018e+01   4.7978059603e+01     0.270647    0.1848325  39.82 0.0001919516    1.425    0.298
       100  -8.6408      9.5917     19.8645   1.2245298976e+02   7.0181438371e+01    0.2430763    0.1557219  -8.24  0.000878493    1.852    0.460
       101  -8.6005      5.3450     18.9163   1.2433370750e+02   7.0611555282e+01     0.165391     0.133612 -40.63 0.0003442315    1.140    0.123
       102  -7.4179    146.5939     19.4539   7.2938888043e+01   4.6474229334e+01    0.1509223    0.1365331  17.32 0.0001109845    1.044    0.042
       103  -7.9194    165.6711     18.3402   6.9094531621e+01   4.1618027708e+01    0.1583849    0.1100546 -57.00 0.0004000979    1.739    0.425
       104  -8.9505    190.5986    247.7600   1.1726017000e+02   3.5406302329e+00    0.1112875    0.1016227 -47.70 0.0009540462    1.676    0.404
       105  -9.7706    188.4034    234.3309   1.1597329527e+02   5.2368904903e+00    0.2452419    0.1996658 -59.72  0.001493131    2.003    0.501
       106  -7.1363     46.1944    236.0003   1.3942105673e+02   2.3587171149e+01    0.1069332   0.06389754 -84.28 0.0008369708    1.696    0.410
       107  -7.2304    126.2877    235.3029   1.2636639509e+02   1.3984540051e+01   0.09460548   0.07349245  21.58 0.0001715421    1.563    0.360
       108  -8.5090     31.3374    229.6230   1.4143289115e+02   2.6028704115e+01    0.1532205     0.125434  64.03 0.0005856359    1.251    0.201
       109  -8.0725     11.7696    207.0133   1.4361410711e+02   3.1401248191e+01    0.1868279   0.03890601  56.89 0.0008895327    3.598    0.722
       110  -9.9803    176.0710    202.5195   1.1376067359e+02   1.0901890252e+01    0.1957701    0.1696987  30.32  0.001405554    1.093    0.085
       111  -7.4175    176.9184    187.9905   1.1138742299e+02   1.2726343185e+01    0.1508292    0.1143562  35.76 0.0003037947    1.098    0.089
       112  -7.8732     38.0000     12.9582   1.0515630457e+02   6.9044743303e+01    0.2095125   0.05963135 -45.26 0.0007152439    2.923    0.658
       113  -7.7620    133.0000    147.9715   1.1342734150e+02   2.6869433891e+01    0.2051869   0.07592757 -49.15 0.0004462702    2.890    0.654
       114  -9.1737     67.4401    144.8604   1.2791187115e+02   3.7354597092e+01    0.3784134    0.2360746  64.17  0.002070235    1.656    0.396
       115  -6.9987    187.6616    139.2784   1.0019699441e+02   1.8030875145e+01    0.1295777    0.1119362  79.87 0.0007003982    1.617    0.382
       116  -7.5728      9.2861     12.6325   1.2003163326e+02   7.1664641823e+01    0.1069648   0.08456492 -83.50 0.0007020487    1.700    0.412
       117  -8.2765    232.9973    131.2078   9.0142416904e+01   1.0244021838e+01    0.2285556    0.1785009 -15.95 0.0004996028    1.190    0.159
       118  -7.2689    114.3145    128.3665   1.1403834800e+02   3.3925672897e+01    0.1376818    0.1068138 -14.26 0.0002499363    1.770    0.435
       119  -8.6615     12.1504    121.0504   1.3861135403e+02   4.7766959636e+01    0.1869508   0.09290076 -55.65  0.001076353    2.022    0.505
       120  -7.7520     99.1798    119.5687   1.1606601461e+02   3.8249455366e+01     0.184484    0.1303366  24.34 0.0009428107    1.743    0.426
       121  -7.6873    120.1583    118.5972   1.1059333549e+02   3.4895367977e+01    0.1969022    0.1309116  29.41 0.0009408511    1.728    0.421
       122  -7.2829    159.3527    117.2944   1.0109644558e+02   2.7514915704e+01    0.1510515    0.1106259  12.08 0.0006176184    1.684    0.406
       123  -9.0766    250.4420    113.2449   8.3213990864e+01   9.1559111895e+00    0.2471243    0.1544373 -27.60 0.0002375727    1.473    0.321
       124  -7.6299    184.4770    112.4260   9.4581560308e+01   2.3025166873e+01    0.1467196    0.1347204  13.26 2.048673e-05    1.011    0.011
       125  -8.4088     22.8857    111.6396   1.3497936381e+02   4.9017514812e+01    0.1673047    0.1239046 -68.34 0.0006964594    1.186    0.157
       126  -8.6854      1.9226    109.8047   1.4025595205e+02   5.0839681756e+01    0.2403012   0.08128547 -56.94  0.001188141    2.692    0.629
       127  -8.1413    133.8890    106.8249   1.0448066998e+02   3.4672724566e+01    0.4175122    0.1771226 -40.50  0.001544727    2.427    0.588
       128  -7.4553     61.0122    106.2393   1.2379306364e+02   4.6501564337e+01    0.1556599    0.1081395  34.81 0.0008811938    1.609    0.379
       129  -9.3147     14.2605    105.3182   1.3661046336e+02   5.1039326860e+01    0.3024744    0.1469306 -46.74  0.001634735    2.357    0.576
       130  -7.8017    129.7626     96.9920   1.0300441913e+02   3.7447274637e+01    0.2670838    0.1612546  10.05 0.0008975504    3.624    0.724
       131  -9.6702     16.1616     95.1607   1.3495702278e+02   5.3164966047e+01    0.3461524     0.238372  71.45  0.002066997    1.461    0.316
       132 -10.1069     12.2966     93.5910   1.3588919143e+02   5.3768733447e+01    0.4549563    0.2199526 -37.60  0.002337973    2.818    0.645
       133  -8.2918    242.3176     95.6915   8.0169018060e+01   1.3002104862e+01    0.1341129    0.1059375 -52.24 0.0007031625    1.636    0.389
       134  -7.7336    109.1679    106.5864   1.1070350695e+02   3.9335338550e+01    0.1974917    0.1338164  26.44  0.000942228    1.785    0.440
       135  -8.7712     43.5417     92.4731   1.2646526242e+02   5.1510831844e+01    0.2796734    0.1935048 -24.33  0.001573292    1.992    0.498
       136  -8.0690     56.3070     92.3096   1.2258376819e+02   5.0189879008e+01    0.1289768   0.09038262 -37.37 0.0007021572    1.615    0.381
