#   1 NUMBER                 Running object number                                     
#   2 MAG_AUTO               Kron-like elliptical aperture magnitude                    [mag]
#   3 X_IMAGE                Object position along x                                    [pixel]
#   4 Y_IMAGE                Object position along y                                    [pixel]
#   5 X_WORLD                Barycenter position along world x axis                     [deg]
#   6 Y_WORLD                Barycenter position along world y axis                     [deg]
#   7 A_WORLD                Profile RMS along major axis (world units)                 [deg]
#   8 B_WORLD                Profile RMS along minor axis (world units)                 [deg]
#   9 THETA_WORLD            Position angle (CCW/world-x)                               [deg]
#  10 FWHM_WORLD             FWHM assuming a gaussian core                              [deg]
#  11 ELONGATION             A_IMAGE/B_IMAGE                                           
#  12 ELLIPTICITY            1 - B_IMAGE/A_IMAGE                                       
         1 -12.2947    245.0753     22.4302   8.2468329784e+00   2.1733318859e+01    0.5095268    0.4581335  34.44  0.003314652    1.451    0.311
         2 -12.4892    239.0794     20.5501   8.2237337240e+00   2.3234656953e+01    0.6951776    0.3099146 -36.60  0.002961242    1.788    0.441
         3 -12.1971    243.7160     16.1466   6.8355782428e+00   2.2723908740e+01    0.5572279     0.373025 -79.36  0.002871955    1.506    0.336
         4 -12.1015      2.8883      9.6957   6.8559524412e+01   7.5747361240e+01    0.3991854    0.1874847 -45.69  0.002213391    1.633    0.388
         5 -12.6057    126.6322    229.1579   7.2763980476e+01   1.1409101781e+01    0.4175481     0.222427  47.92  0.002349301    1.637    0.389
         6 -11.3076     75.0719    247.1666   8.4106800772e+01   1.5514053122e+01    0.4518417     0.197015 -54.37  0.002500558    3.155    0.683
         7 -15.4515      7.6975    144.4000   9.1388675285e+01   4.3785945379e+01     5.873564     1.211403 -82.78   0.01855002    4.823    0.793
         8 -11.4257    154.3527    225.4953   6.7037791134e+01   7.8808015676e+00    0.2842979    0.2222244 -89.95  0.001566217    1.990    0.497
         9 -10.2192     91.8667    213.8367   7.8015133122e+01   1.9013490329e+01    0.1702024      0.14996  41.76 0.0003790944    1.189    0.159
        10 -10.5795    104.3241    209.9368   7.5028709417e+01   1.7936700386e+01     0.222781    0.1428212  48.97  0.000729258    1.324    0.245
        11 -10.3483    130.6848    206.3400   6.9151111351e+01   1.4570515602e+01    0.2104239    0.1667836  55.08 0.0005463655    1.220    0.180
        12 -11.4940    128.1666    198.1364   6.8551975082e+01   1.6422969898e+01    0.2424457    0.2226742 -77.63 0.0009090296    1.227    0.185
        13 -11.3805     82.5591    195.5965   7.8069217525e+01   2.3828665343e+01    0.3701918    0.2660291  80.00  0.002210959    1.415    0.293
        14 -11.7189    116.8595    195.1872   7.0549992573e+01   1.8765801530e+01     0.271463    0.2374518   7.77  0.001700777    1.396    0.284
        15 -10.5405     76.5317    183.3187   7.8055402077e+01   2.7216785941e+01    0.3247477    0.2087929  71.31  0.001305508    1.603    0.376
        16 -11.0450     98.9916    180.8199   7.2570116232e+01   2.4423401503e+01    0.2874272    0.2399092  47.79 0.0006632944    1.100    0.091
        17 -15.3786      8.5236    207.5203   9.4452749424e+01   3.0026718180e+01     1.083701    0.7867891 -13.29  0.006863941    2.806    0.644
        18  -9.7894     66.9216    169.9054   7.8774996472e+01   3.1475801511e+01    0.1980505    0.1641063  71.90 0.0003899072    1.045    0.043
        19 -11.6183     64.6442    164.4427   7.8684399212e+01   3.3021702035e+01    0.3874412    0.3055165  -0.52  0.001579529    1.947    0.486
        20 -12.7285     69.4778    160.0457   7.6915009281e+01   3.3375144065e+01    0.9479193    0.4967158  76.36  0.003635732    2.613    0.617
        21 -14.6046     12.3395    246.6243   9.5144369019e+01   2.2577831986e+01    0.5076227    0.2612705 -61.30  0.002477618    2.726    0.633
        22 -10.9625    247.0748    163.8115   4.0250030111e+01   2.1848145996e+00    0.3032721    0.1450929 -38.80  0.001143754    2.116    0.527
        23 -10.5059     89.4021    165.2149   7.2653558442e+01   2.9273143546e+01    0.1924454    0.1253962 -79.24 0.0009539876    1.691    0.409
        24 -11.8066     81.6078    163.0787   7.4275836379e+01   3.0934999700e+01    0.4895953    0.3734611  -5.05  0.002507577    2.116    0.527
        25 -12.9414     78.2964    153.5744   7.3747390054e+01   3.3613751624e+01    0.7132159     0.589945  67.49   0.00149443    1.118    0.105
        26 -13.3297     66.0844    147.8991   7.6144023932e+01   3.6702205785e+01    0.8154057    0.4158173 -61.80 0.0009641275    1.857    0.461
        27 -10.2481     50.8874    158.4864   8.1464041907e+01   3.6158908917e+01     0.341739    0.1277966  47.25  0.001439051    2.452    0.592
        28 -11.6928     32.2563    155.9617   8.5968404711e+01   3.8844170589e+01    0.3871483    0.2315558  72.22  0.001091978    1.542    0.352
        29 -11.0386    133.9503    147.7202   5.8754708861e+01   2.5375066595e+01     0.800682    0.2063928 -53.98  0.002131654    5.147    0.806
        30 -11.9364     85.4805    147.2659   7.0879436642e+01   3.3995848868e+01    0.4974258    0.3838078 -20.49  0.001480715    1.922    0.480
        31 -12.3968     70.5099    144.9965   7.4526547647e+01   3.6777795041e+01    0.5125782    0.3262324 -79.30  0.001390407    1.600    0.375
        32 -17.4176      6.9185    232.8599   9.5643103770e+01   2.5460649143e+01     2.475504     1.907181  62.06    0.0141281    1.163    0.140
        33 -10.1943     30.5667    142.9663   8.5168766150e+01   4.2112160982e+01     0.262958    0.1747584  35.39  0.001497955    1.606    0.377
        34 -11.7706     59.6915    134.5256   7.5946741596e+01   4.0811598883e+01    0.4980763    0.2665561  89.02  0.002069945    2.391    0.582
        35 -11.4330    102.0183    133.5034   6.3944133403e+01   3.4466184310e+01    0.5491855    0.3395552 -16.60  0.001832296    4.070    0.754
        36 -11.5450     87.7513    133.6145   6.7863673130e+01   3.6875479030e+01    0.2753894    0.2533772 -76.42 0.0003224491    1.055    0.052
        37 -10.6815    105.2929    130.4277   6.2431783551e+01   3.4596008832e+01    0.3258153     0.254151  82.78  0.001353947    1.462    0.316
        38 -10.8161     18.2205    125.4989   8.6904668402e+01   4.7508746626e+01    0.2957021    0.1553094  65.86 0.0009693559    1.923    0.480
        39  -9.9683     97.4744    122.2124   6.2832350362e+01   3.7941743668e+01    0.2599044    0.2280577 -11.95 0.0007032463    1.435    0.303
        40 -10.1125     62.0181    123.0408   7.3390772741e+01   4.3344831908e+01    0.2154591    0.1855308  84.22 0.0004112704    1.083    0.077
        41 -10.1620     32.3853    118.2172   8.1755344115e+01   4.8039197540e+01    0.2069486    0.1800193  43.77 0.0004057441    1.282    0.220
        42  -9.3350    106.9453    116.7171   5.8935209100e+01   3.7491017685e+01    0.2045385    0.1901835  60.61  0.000322563    1.081    0.075
        43  -9.5931    205.1974    110.1749   3.5256451146e+01   1.7859367761e+01    0.2159458    0.1887663  -2.86 0.0006775927    1.182    0.154
        44 -10.0412     29.8573    107.8311   8.1110763439e+01   5.0893946522e+01    0.1856186    0.1392515  74.02 0.0004240937    1.312    0.238
        45  -9.5456     68.5209    106.5064   6.8143750539e+01   4.6541262019e+01    0.1463366    0.1315646 -80.15 -8.395043e-05    1.032    0.031
        46 -16.5231     33.4835    185.8208   8.8074345106e+01   3.2001695991e+01     7.253618     2.947058  70.83   0.03219216    2.695    0.629
        47 -10.5749    133.0193    103.6037   4.8650015578e+01   3.5084729967e+01    0.2658361    0.2159049 -62.04  0.001287525    1.293    0.226
        48 -11.2131    143.9157    229.1232   6.9465919533e+01   8.8877622448e+00    0.1829582    0.1391879  50.04 0.0005586825    1.263    0.208
        49 -12.7534    107.6934    228.6625   7.6370066174e+01   1.4201155153e+01    0.5758646    0.2083142  36.34  0.002680122    2.335    0.572
        50 -10.8848     25.0118     65.7653   7.5084393134e+01   6.1785822606e+01    0.3364527    0.1708431  44.19  0.001219125    2.374    0.579
        51 -11.3879      1.9986     63.1338   8.4707924419e+01   6.3959368524e+01    0.3605261    0.1205827 -72.63   0.00153883    2.378    0.580
        52  -9.6541     73.2483     64.4414   5.4925078782e+01   5.5787523786e+01    0.1948051    0.1386708  54.03 0.0009376534    1.640    0.390
        53 -11.3441     13.3574     60.2783   7.9034337233e+01   6.3996204430e+01    0.2365888    0.1927849 -78.33 0.0005658867    1.164    0.141
        54 -11.4376    192.6827     59.2479   2.3644013101e+01   2.9003925390e+01    0.3326889    0.2975253 -55.12 0.0007929351    1.057    0.054
        55 -12.5430    205.0533     50.4904   1.9449256210e+01   2.7287020218e+01    0.8005701    0.6484278 -42.07  0.003100049    1.113    0.102
        56 -12.8809    214.8931     43.1170   1.6249878419e+01   2.5958989551e+01    0.6258039     0.599847  -2.19  0.001314218    1.205    0.170
        57 -10.6003     27.1775     32.7150   6.3547120673e+01   6.9048830625e+01    0.1814564    0.1596027  46.08 0.0006608684    1.428    0.300
        58 -14.6017      7.8868    184.2519   9.3584470520e+01   3.4824408729e+01     1.204885    0.7481959 -89.31  0.007781876    1.352    0.260
        59 -10.6546     99.4638    230.1043   7.8108842135e+01   1.5109225107e+01     0.152137    0.1135469 -71.42  0.001027911    1.583    0.368
        60 -10.5007     76.9713    230.4127   8.2485468428e+01   1.8064372257e+01    0.1951089    0.1532068  88.92 0.0005351829    1.341    0.254
        61 -11.4962      2.6470     25.0231   7.5101891413e+01   7.2642163179e+01    0.2852705     0.195905  33.50  0.001800023    1.817    0.450
        62  -9.7448     60.3077     21.0234   4.1554395150e+01   6.6353182316e+01    0.1887762    0.1592464 -21.55  0.000439659    1.095    0.086
