#   1 NUMBER                 Running object number                                     
#   2 MAG_AUTO               Kron-like elliptical aperture magnitude                    [mag]
#   3 X_IMAGE                Object position along x                                    [pixel]
#   4 Y_IMAGE                Object position along y                                    [pixel]
#   5 X_WORLD                Barycenter position along world x axis                     [deg]
#   6 Y_WORLD                Barycenter position along world y axis                     [deg]
#   7 A_WORLD                Profile RMS along major axis (world units)                 [deg]
#   8 B_WORLD                Profile RMS along minor axis (world units)                 [deg]
#   9 THETA_WORLD            Position angle (CCW/world-x)                               [deg]
#  10 FWHM_WORLD             FWHM assuming a gaussian core                              [deg]
#  11 ELONGATION             A_IMAGE/B_IMAGE                                           
#  12 ELLIPTICITY            1 - B_IMAGE/A_IMAGE                                       
         1 -11.7745      8.9430     24.9105   1.1496634392e+02   6.8539488395e+01    0.6047632     0.221246 -43.63  0.003293112    2.163    0.538
         2 -11.3755      4.4937     19.1836   1.1487631256e+02   6.9718489524e+01    0.4201561    0.2064975 -35.49  0.002704182    1.551    0.355
         3 -11.4235     26.3727     20.1867   1.0539369308e+02   6.7669869179e+01    0.4645283    0.2534823   1.53  0.002182546    2.066    0.516
         4 -11.5582     19.8006     17.1582   1.0704347056e+02   6.8735507469e+01    0.3458474    0.2542663 -24.17  0.002465284    1.181    0.154
         5 -11.5650     84.7229     21.5378   8.4808673453e+01   5.8947832030e+01    0.4241376    0.2331182   0.96  0.001996229    2.568    0.611
         6 -11.1980     76.5304     16.6131   8.5361116864e+01   6.0959540823e+01    0.4106015    0.2003608  33.50  0.002095103    1.941    0.485
         7 -11.4738     75.0408      4.8519   8.1151689514e+01   6.2344430239e+01    0.3255665     0.197652 -14.65  0.001089048    1.720    0.419
         8 -11.7510     78.5569     10.5494   8.2384224164e+01   6.1196539744e+01    0.4064542    0.2978553  -0.04  0.001677187    1.339    0.253
         9 -11.7818     81.3087      6.0870   7.9857823126e+01   6.1093211059e+01    0.2095409    0.1729595  25.85 0.0002582328    1.030    0.029
        10 -12.1106    132.2067     14.5972   7.1176644396e+01   4.9726912345e+01    0.5064143    0.3178644 -41.63  0.002764605    1.849    0.459
        11 -11.0799    164.2394     14.5578   6.5864444264e+01   4.2265541089e+01    0.2327774    0.1994842  89.09 0.0002474939    1.112    0.100
        12 -10.4200     70.7303     14.5518   8.6349435049e+01   6.2182734256e+01    0.2030018     0.148311 -14.55 0.0004805618    1.347    0.258
        13 -12.4896     25.7948     13.7405   1.0295861835e+02   6.8574135644e+01    0.2967685    0.2282219 -37.33 0.0003482449    1.639    0.390
        14 -12.3654     26.6547      3.8487   9.8207188861e+01   6.9645346806e+01     0.442886    0.2249279  11.55 0.0006522964    2.145    0.534
        15 -12.2049     31.6372      2.3118   9.5371938227e+01   6.9213931533e+01    0.2741047    0.1694356  32.05  0.001243018    1.540    0.351
        16 -10.7358     99.8550     12.9917   7.7602791276e+01   5.6864801756e+01    0.2874142      0.23171  20.43  0.001214695    1.175    0.149
        17 -10.5923    114.2288     12.2200   7.4027475295e+01   5.3926597519e+01    0.2555794     0.182003  74.11 0.0005244364    1.596    0.373
        18 -12.2288     61.7234     11.4508   8.8033103579e+01   6.3993247482e+01    0.3062573    0.2495331  63.55  0.000948164    1.911    0.477
        19 -10.0010      4.1747     11.0296   1.1179518156e+02   7.0898981695e+01    0.1760245     0.110484 -53.66  0.001000781    2.485    0.598
        20  -9.7788    108.9369     10.1588   7.4483582564e+01   5.5239812202e+01    0.3406224   0.09552449  52.04  0.001370235    2.685    0.628
        21 -11.0963      9.1674      7.9923   1.0809974114e+02   7.0902950501e+01    0.2359886    0.1475592  -1.91  0.000440149    1.357    0.263
        22  -9.2577    122.2590      8.6503   7.1197479923e+01   5.2493528066e+01    0.1169941   0.09268671 -65.99 0.0005924559    1.604    0.377
        23  -9.3298     37.4710      8.4964   9.5753124300e+01   6.7817116016e+01     0.113168   0.08454031   3.18 9.092105e-05    1.019    0.018
        24  -9.4635    183.4393      7.0736   6.1429114363e+01   3.8470225141e+01    0.1642856    0.1051583  18.45 0.0008071359    2.691    0.628
        25 -11.3162     17.7856      4.5395   1.0250248217e+02   7.0526317297e+01     0.370094    0.2121164   2.45  0.001380891    1.633    0.388
        26 -10.7018     12.9402      1.6125   1.0343295766e+02   7.1344119404e+01    0.3587076    0.1397427  20.24  0.001918984    2.790    0.642
        27 -10.5154    115.3140      4.6892   7.1276655585e+01   5.4341037780e+01    0.2484429    0.1932554   1.52  0.001589561    1.449    0.310
        28  -9.1817    162.3048      3.6156   6.3197529477e+01   4.3755115454e+01    0.1317211   0.08456386 -67.95 0.0007020223    1.793    0.442
        29  -9.1719    154.7662      2.3541   6.3892289900e+01   4.5623495235e+01    0.1195544    0.0858613 -64.49 0.0006898092    1.572    0.364
        30  -9.7961    142.7782      1.6022   6.5450248989e+01   4.8455560160e+01      0.16574    0.1052223  74.80 0.0003415369    1.463    0.317
        31 -10.2495     88.1025    227.1441   1.3246091166e+02   1.5545812110e+01    0.1857261    0.1771019  67.04  0.001207445    1.259    0.206
        32 -11.0400    246.9177    249.8090   1.0464709966e+02  -1.4193010154e+01     0.370342    0.2000073  17.31   0.00202265    1.936    0.484
        33 -11.0728    250.4568    244.1779   1.0306598538e+02  -1.3943639707e+01    0.5792781    0.1625798 -37.29  0.002408388    3.566    0.720
        34 -12.0934    225.9222    246.2137   1.0783413792e+02  -1.0719748632e+01     0.668735    0.4001392   2.84  0.003490363    2.119    0.528
        35 -12.1403    232.9268    246.8220   1.0665320753e+02  -1.1832603519e+01    0.5086084    0.3360169  -8.85   0.00304652    1.578    0.366
        36 -10.2871      1.4265    244.9876   1.4968551736e+02   2.2913618664e+01    0.1556002    0.1047274  81.17 0.0004394792    1.056    0.053
        37 -12.1701     17.2357    238.3241   1.4671148860e+02   2.2563813154e+01    0.5403089    0.2773097  34.73  0.003189669    2.344    0.573
        38 -11.7433      5.5914    244.6864   1.4900576974e+02   2.2548843919e+01    0.6127545    0.2320879  79.65  0.003109504    2.592    0.614
        39 -11.9474      9.1383    242.2619   1.4829607248e+02   2.2651394925e+01    0.5126233    0.1911467  79.73  0.002478839    2.799    0.643
        40  -9.8927      5.7729    226.7755   1.4794085272e+02   2.6079269548e+01    0.2747497   0.05538786  54.02  0.001067968    4.274    0.766
        41 -10.5038    115.9698    225.7655   1.2655643967e+02   1.1309155209e+01    0.1990114    0.1398189  84.46 0.0007094077    1.655    0.396
        42 -10.2692    180.8511    224.3988   1.1287609374e+02   1.1329500147e-01    0.2151958    0.1570812 -37.12 0.0005869165    1.495    0.331
        43  -9.8310     81.1869    224.5152   1.3355606364e+02   1.7153180495e+01    0.2628313    0.1537139 -88.65  0.001308479    1.931    0.482
        44 -10.7285    141.0862    221.5562   1.2066990205e+02   7.7760403107e+00    0.2802923    0.2311977  15.87 0.0009382089    1.470    0.320
        45 -10.9149    123.1718    221.4778   1.2444205515e+02   1.0951214552e+01    0.3309163    0.2392422  54.80  0.001262587    1.269    0.212
        46  -9.3243     51.4938    222.5399   1.3924686821e+02   2.1744644640e+01    0.1249082   0.09957883  78.63 0.0001200558    1.022    0.022
        47 -10.5302     13.1378    221.9661   1.4634548764e+02   2.6325538822e+01    0.1765487    0.1382064  71.06   0.00048744    1.162    0.139
        48  -9.9364    174.1685    219.8513   1.1346766636e+02   2.1300171419e+00    0.1901911    0.1555274  14.32 0.0005682742    1.318    0.241
        49 -10.3272     22.0055    220.2887   1.4462522588e+02   2.5739981488e+01    0.1592819    0.1194597  70.36 0.0004512437    1.116    0.104
        50  -9.6832    250.4716    219.1245   9.8603627112e+01  -1.0457734621e+01    0.1767933    0.1095091 -31.25 0.0006178094    1.498    0.333
        51 -10.0119    191.5661    217.2941   1.0946181410e+02  -5.2675374555e-01    0.2409885    0.1333136 -47.43  0.001086954    2.005    0.501
        52 -10.9545     10.0263    217.0776   1.4656902744e+02   2.7661856349e+01     0.272819    0.1592006  66.64 0.0007483869    1.427    0.299
        53 -10.8525    235.6723    213.3334   1.0019338867e+02  -7.3204670718e+00    0.1399739    0.1144515  -0.89 0.0008530106    1.102    0.092
        54  -9.7636    201.5386    215.5397   1.0714473077e+02  -1.9780195494e+00    0.1365678      0.12035  10.76 0.0005012417    1.055    0.052
        55  -9.7571    194.5338    215.4721   1.0853497783e+02  -7.3101720502e-01    0.1362922    0.1235858  17.12 -9.933065e-06    1.008    0.008
        56  -9.6674    170.3959    213.2347   1.1310569847e+02   4.0602691202e+00    0.1831051    0.1351813 -59.70 0.0009079647    1.598    0.374
        57  -9.5629    142.8374    213.3922   1.1899875077e+02   9.1015915639e+00    0.1954714    0.1273618  32.19 0.0006091227    1.625    0.385
        58 -11.0187     20.6593    211.7453   1.4422170412e+02   2.7705780828e+01    0.3142656    0.1576674  75.30 0.0009364888    1.884    0.469
        59 -10.3061    208.9714    212.0841   1.0503865966e+02  -2.6763926709e+00    0.2059369     0.182945   7.25 0.0004816829    1.028    0.027
        60 -12.2383      4.1477    207.8046   1.4700368483e+02   3.0190033093e+01    0.5169318    0.2712513 -79.51  0.003150484    1.493    0.330
        61 -10.1791     31.1083    215.8531   1.4257334403e+02   2.5671357552e+01    0.1984823    0.1304261  74.50  0.001237006    1.266    0.210
        62  -9.8808    184.6040    208.6821   1.0932539997e+02   2.3028425915e+00    0.2130202    0.1612341   0.55 0.0008196178    1.626    0.385
        63  -9.6000    193.3144    203.2970   1.0652770722e+02   1.7027936130e+00    0.1417737    0.1063663   3.16 0.0002831119    1.604    0.377
        64  -9.8647    223.3099    201.3358   1.0021897188e+02  -3.3053103620e+00    0.3130971    0.2284424 -87.58  0.001390416    3.029    0.670
        65  -9.8262    175.1935    202.4021   1.1013728972e+02   5.2651751008e+00    0.2020886    0.1284923  50.68 0.0004909828    1.630    0.387
        66  -9.3843     34.6909    200.9630   1.4053651898e+02   2.8536904597e+01    0.1695972    0.1301754  89.85 0.0003864831    1.041    0.039
        67  -9.8265     19.6727    200.6513   1.4351445184e+02   3.0230565777e+01    0.1149555    0.0808165 -53.09 0.0003996704    1.757    0.431
        68  -9.9664    227.0205    196.9714   9.8664904889e+01  -3.1919704331e+00    0.2080031    0.1836519  -4.96 0.0006451168    1.024    0.024
        69 -11.0982    192.7960    195.1072   1.0505807695e+02   3.3478934395e+00    0.3515722    0.2381968 -49.40  0.001722244    1.589    0.371
        70  -9.6349    202.8755    196.1109   1.0320023622e+02   1.2738059032e+00    0.1964588    0.1610061  -0.56 0.0007472557    1.302    0.232
        71 -10.5241    215.3891    194.7017   1.0044481012e+02  -7.4915683874e-01    0.2439191    0.1640693 -29.55  0.000621932    1.501    0.334
        72 -10.0051    232.0365    191.3687   9.6620517607e+01  -3.0861418416e+00    0.2641413    0.1389697 -24.10  0.001120684    2.328    0.570
        73  -9.4641    246.3202    190.3201   9.3830556734e+01  -5.2950766341e+00    0.1367546   0.09441537  -3.67 0.0006167605    1.667    0.400
        74  -9.2713    205.5106    190.4504   1.0155021667e+02   1.8406671718e+00    0.1417644    0.1309299   1.23 0.0001701465    1.026    0.025
        75  -9.2387     56.6665    197.6933   1.3558409895e+02   2.6577612885e+01    0.1215222   0.09881338 -41.56  0.000516983    1.667    0.400
        76 -10.3615    167.8405    184.0725   1.0820470405e+02   1.0434836792e+01    0.4440561     0.242354  63.81  0.001547934    3.112    0.679
        77  -9.3965     61.6420    184.8240   1.3289373364e+02   2.8912784575e+01    0.1973396    0.1131514 -78.78 0.0009468344    1.715    0.417
        78 -11.5227     16.1031    182.7322   1.4266930531e+02   3.4604665090e+01    0.4059172    0.2034381  83.75  0.002061783    1.982    0.495
        79 -10.1247    246.9400    183.6993   9.2402416873e+01  -4.2869717275e+00    0.2121587   0.09714174  23.35 0.0007036243    4.297    0.767
        80 -10.2201      2.1529    180.1541   1.4533260766e+02   3.6416749484e+01    0.1968504    0.1415063  70.39 0.0006189145    1.264    0.209
        81 -11.0788    244.5831    178.1372   9.1692046407e+01  -2.9412938549e+00    0.2772371    0.1547365 -25.91  0.001277815    1.924    0.480
        82  -9.4656     36.0569    178.5074   1.3790932492e+02   3.3544193956e+01    0.1612615    0.1224748  43.74 0.0004588445    1.459    0.314
        83 -10.3878    200.1664    176.8085   9.9841798995e+01   5.4903070624e+00    0.2045401    0.1698123  -5.22  0.000629288    1.333    0.250
        84  -9.5548     70.1967    177.6073   1.2990655289e+02   2.9443589374e+01    0.1643578    0.1353227  26.95 0.0005002394    1.514    0.339
        85 -11.0736    224.3074    178.2881   9.5412099845e+01   6.1507364201e-01    0.2760327    0.2536975 -15.87 0.0004712642    1.009    0.008
        86  -9.1894     60.0000    171.9845   1.3152623955e+02   3.2197937657e+01    0.2260825   0.06938336 -64.28 0.0007979691    2.912    0.657
        87  -9.6854     74.6907    171.4243   1.2789532017e+02   3.0282671002e+01    0.1678905    0.1394773  26.16 0.0007449062    1.484    0.326
        88 -10.8335     13.0033    171.0457   1.4222933960e+02   3.7561925974e+01    0.2539156    0.1248548  77.75  0.001214335    2.231    0.552
        89  -9.7788      4.5322    168.4727   1.4382940619e+02   3.8861026896e+01    0.2595522   0.09147106 -73.54  0.001212705    2.181    0.541
        90  -9.6487    210.0102    166.4690   9.5677144155e+01   5.5803518616e+00    0.2127803    0.1436165  41.06 0.0005569013    1.538    0.350
        91  -9.6708     67.1862    165.1409   1.2875753270e+02   3.2880406869e+01    0.1975933    0.1500354  78.90 0.0006541499    1.341    0.254
        92 -10.6064     51.4274    164.5966   1.3255069366e+02   3.5072209016e+01    0.3037574    0.1788786 -36.61  0.001387984    2.487    0.598
        93 -10.0477     41.6869    165.7098   1.3505206816e+02   3.5950268880e+01    0.1253387   0.09242886 -44.66 0.0002396217    1.588    0.370
        94  -9.6207      9.7790    165.0151   1.4235083068e+02   3.9225387917e+01    0.1648942   0.07887388 -74.29 0.0004378298    1.636    0.389
        95 -10.3175     44.7284    163.4506   1.3402016636e+02   3.6145081924e+01    0.2928935    0.1447341 -80.91  0.001286429    2.178    0.541
        96  -9.4650    200.2209    162.8132   9.6844078768e+01   8.2745310522e+00    0.1978794    0.1720683   1.85 0.0005207611    1.265    0.209
        97 -10.2326    246.4970    162.4879   8.8138368285e+01  -5.3009196500e-01    0.1372764    0.1214528 -30.88 -1.659707e-05    1.030    0.030
        98 -11.3146     36.7504    158.9749   1.3536005692e+02   3.8103172780e+01    0.4137515    0.2943069 -75.93 0.0009609276    1.177    0.150
        99 -10.3662    238.5045    158.4943   8.8675775049e+01   1.6300623714e+00    0.2556774    0.1865205  -5.73  0.001146669    1.718    0.418
       100 -11.0892     22.8022    155.6618   1.3831699176e+02   4.0270681576e+01    0.3972774    0.2796437 -68.38  0.002442696    1.165    0.142
       101 -10.5045    247.9302    158.5093   8.7065599615e+01  -7.7052732638e-02    0.1943032    0.1368162  43.92  0.001034232    1.594    0.373
       102  -9.5689    216.7712    154.8030   9.1835638612e+01   6.5115997328e+00     0.224589     0.114452  55.79 0.0008715065    2.470    0.595
       103  -9.7300    197.0183    153.7486   9.5495547020e+01   1.0784266548e+01    0.2006825    0.1304056  46.36 0.0008920449    1.594    0.373
       104  -9.3370    151.6800    153.3306   1.0542518030e+02   2.0544418195e+01    0.1620182    0.1239203  88.11 0.0004912661    1.692    0.409
       105 -10.3987     11.7353    153.4154   1.4069354282e+02   4.1750068865e+01    0.2495685    0.1259553  21.88  0.001312376    2.690    0.628
       106 -10.0335    205.5779    152.2131   9.3430482132e+01   9.3078807049e+00    0.2172296    0.1380688 -31.27 0.0006862986    1.680    0.405
       107 -10.4230    178.1671    151.4483   9.8964955360e+01   1.5288341026e+01    0.3256538     0.272053  80.70  0.001586179    1.420    0.296
       108  -9.9388     26.5554    149.2760   1.3659874105e+02   4.1434046991e+01    0.2458043    0.1072749 -73.02 0.0006107425    2.001    0.500
       109  -9.6302     92.9863    148.2295   1.1913151274e+02   3.3070976747e+01    0.1907319    0.1235952  39.67 0.0008143682    1.633    0.388
       110  -9.8396     16.2728    147.3704   1.3890343286e+02   4.2789790356e+01    0.1451883    0.1095861  49.88 0.0005459763    1.495    0.331
       111  -9.3432    233.5338    146.5387   8.6974023916e+01   4.7812818733e+00    0.1428517     0.129479 -34.88 6.855037e-05    1.007    0.007
       112 -10.5236    206.8861    146.0540   9.1789522584e+01   1.0271755965e+01    0.2473845    0.2228553  42.26 0.0007003786    1.168    0.144
       113 -11.2135      9.4269    145.5164   1.4035899401e+02   4.3765331774e+01    0.3832745    0.1559369  49.28  0.001809352    2.902    0.655
       114 -10.4417      2.8975    144.1186   1.4178352750e+02   4.4562782555e+01    0.1944072    0.1103253 -50.91  0.001128105    1.714    0.417
       115  -9.6477     49.6237    141.7010   1.2950821229e+02   4.0833418481e+01    0.2061812    0.1403126 -37.85 0.0005845882    1.712    0.416
       116  -9.6044     81.5198    139.9274   1.2054315098e+02   3.6938718878e+01    0.2134187    0.1325091 -56.48 0.0003079805    1.469    0.319
       117 -10.4282    236.6937    138.9711   8.4780420312e+01   5.5781440757e+00    0.2178924    0.2052159  52.99 0.0003873477    1.184    0.155
       118 -10.7804     54.4907    135.8865   1.2718624097e+02   4.1657866663e+01    0.5793864    0.2879088  65.30  0.002061963    3.840    0.740
       119 -12.0600      9.2229    136.7260   1.3936446220e+02   4.5817596242e+01    0.2416946    0.2021725 -47.02 0.0002137623    1.316    0.240
       120 -11.3530      3.4467    136.8875   1.4083782660e+02   4.6185428564e+01    0.5008056    0.1515566 -53.57  0.001698024    2.702    0.630
       121 -10.3728     40.3657    135.8435   1.3103976205e+02   4.3270953834e+01    0.2003334    0.1922999   5.77 0.0006063046    1.278    0.217
       122 -10.7461     21.8550    135.5780   1.3594836592e+02   4.5090710695e+01      0.33417     0.239196 -75.15  0.002046596    1.167    0.143
       123  -9.8310    137.8713    135.3870   1.0465047683e+02   2.7580901937e+01    0.2289272    0.1494709  32.46  0.000950406    1.780    0.438
       124  -9.2629     74.5913    135.5040   1.2155795442e+02   3.9055320158e+01     0.144088    0.1277326 -64.76 9.422321e-05    1.018    0.018
       125  -9.5723     79.6951    133.3054   1.1969197502e+02   3.8823578037e+01    0.1449178    0.1097072  81.38 0.0006374394    1.602    0.376
       126 -11.6505     36.6599    130.5654   1.3118950565e+02   4.4909620023e+01    0.3616362    0.3408939 -73.76  0.002418726    1.137    0.120
       127  -9.5695    123.6760    131.2913   1.0729747047e+02   3.1460587122e+01    0.1571614    0.1222309  83.67 0.0003623678    1.613    0.380
       128 -10.2226     74.0022    129.3658   1.2046761543e+02   4.0621739625e+01    0.2501035    0.1823345 -47.84 0.0008884938    1.290    0.225
       129  -9.7151    249.2060    129.6060   8.0722236550e+01   4.8786643657e+00    0.1770927    0.1313105  37.37 0.0007415613    1.616    0.381
       130  -9.4870    243.0065    128.4738   8.1451975552e+01   6.2793199932e+00    0.1875089    0.1414257  53.39 0.0004812681    1.496    0.332
       131 -11.0106      1.8531    125.6166   1.3988535269e+02   4.8864576377e+01    0.3866008    0.1273259 -60.60 0.0006703733    2.122    0.529
       132 -10.1008    219.9034    124.5289   8.4445678390e+01   1.1748530003e+01    0.2271667    0.1893811 -42.55 0.0006606004    1.115    0.103
       133 -10.3042    226.2317    124.3983   8.3316097810e+01   1.0435731564e+01    0.1947848    0.1407337  67.62 0.0008570994    1.645    0.392
       134 -11.1487     10.3078    122.4609   1.3719866732e+02   4.9028685708e+01    0.2478975    0.1946925  71.52 0.0008955637    1.427    0.299
       135 -10.2179     39.8360    121.9983   1.2881085107e+02   4.6614077523e+01    0.2311089    0.1177565 -43.55 0.0008857515    1.962    0.490
       136 -10.5970     19.4611    121.9280   1.3459057888e+02   4.8472753502e+01    0.2045046    0.1572802 -29.42 0.0006741551    1.514    0.339
       137  -9.2181    221.6781    119.6993   8.3026191456e+01   1.2292454940e+01    0.1430469    0.1168034   3.59 0.0005847538    1.628    0.386
       138 -12.1451     17.7698    117.0460   1.3430493220e+02   4.9728676446e+01    0.5905975    0.2190446 -49.79   0.00270852    2.255    0.556
       139 -12.3978     16.5485    108.1276   1.3319750669e+02   5.1848958167e+01    0.5622761    0.3567966 -37.97 0.0006848141    1.590    0.371
       140  -9.6125    117.6839    118.6786   1.0579179637e+02   3.5567517053e+01    0.1558916    0.1225184 -10.32 0.0004863507    1.661    0.398
       141 -10.6279     86.0991    116.5970   1.1413871525e+02   4.1779647247e+01    0.2388042    0.1868755 -60.93  0.001229211    1.254    0.203
       142  -9.6005    179.4642    116.5238   9.0340023171e+01   2.2407042952e+01    0.1551401    0.1498443 -63.55 0.0001079278    1.009    0.009
       143  -9.0862    125.6405    115.2418   1.0279538385e+02   3.4722659025e+01    0.1537267    0.1203925  76.62 0.0006927249    1.594    0.373
       144 -11.4193     36.1398    111.0980   1.2785953116e+02   4.9517108477e+01    0.5239022    0.2867407 -55.96  0.002448121    1.484    0.326
       145  -9.6803     66.4937    112.9026   1.1907186094e+02   4.5569334523e+01    0.2035071      0.12679 -57.62 0.0004198833    1.470    0.320
       146 -10.0326    248.5281    112.4843   7.7132722703e+01   8.0750158178e+00    0.1393002    0.1218187 -48.04 4.563973e-05    1.026    0.026
       147  -8.9644    212.7014    112.3297   8.2878302228e+01   1.5659263981e+01    0.1542568     0.111664 -71.10 0.0004016217    1.640    0.390
       148  -9.0118    107.6972    112.2669   1.0689735319e+02   3.8962083402e+01      0.14547    0.1187925  83.41 0.0001810513    1.526    0.345
       149 -10.2076     43.9134    109.7829   1.2523902174e+02   4.9030688190e+01    0.3430835     0.195861 -33.15 0.0007626358    2.037    0.509
       150 -10.1342     55.6601    109.8115   1.2165990879e+02   4.7683179395e+01    0.2802621    0.1641379   6.70   0.00122391    2.716    0.632
       151  -9.3011    167.2495    108.9843   9.1060292860e+01   2.6793360059e+01     0.205616    0.1316749 -43.27  0.000543809    1.538    0.350
       152 -10.5480     62.8109    107.3999   1.1892487666e+02   4.7327759489e+01    0.2856356    0.2060725  45.88 0.0006647281    1.604    0.377
       153 -11.0702     25.4952    108.4741   1.3057707751e+02   5.1072995135e+01    0.2115615     0.147916 -70.09 0.0007686743    1.296    0.228
       154 -12.0012     20.5080     97.9395   1.3013818894e+02   5.3829782431e+01    0.4841772    0.2939947 -77.19  0.001872793    1.812    0.448
       155 -10.9864      3.4991    100.4077   1.3582914576e+02   5.4414031993e+01    0.2937469    0.2209379 -88.74  0.001052772    1.432    0.302
       156 -10.7630      5.7968    107.2931   1.3623434541e+02   5.2754780961e+01    0.3061659    0.1529725 -49.85  0.001707472    1.639    0.390
       157 -10.3231      2.9465    105.0920   1.3673013818e+02   5.3412904358e+01    0.2055262    0.1337316 -63.38 0.0004199366    1.166    0.143
       158  -9.4784    133.4598    107.5193   9.8733710814e+01   3.4752555290e+01    0.1536084    0.1501011 -23.75 8.983791e-05    1.045    0.043
       159 -11.0480    243.7509    104.2345   7.6034749134e+01   1.0498274543e+01    0.1838596    0.1633167 -14.28  0.001058808    1.366    0.268
       160 -10.0584    223.3569    103.9395   7.9107081611e+01   1.4876801973e+01    0.2306666    0.1957691 -87.70 0.0005210458    1.244    0.196
       161  -9.3817     31.7114    104.3153   1.2788352036e+02   5.1475366391e+01    0.1209761   0.09335209  84.67 0.0001966617    1.589    0.371
       162 -10.9322    247.8839    102.3524   7.5031966856e+01   9.9889781065e+00    0.2499083    0.1703142 -51.80 0.0008984123    1.310    0.237
       163 -11.1110     69.9196    102.3588   1.1552081885e+02   4.7491472616e+01    0.3651118    0.2714023  12.56  0.001250077    1.618    0.382
       164 -10.6736      9.8985    102.6645   1.3426897494e+02   5.3527180551e+01    0.2165361    0.1449165  29.68 0.0009966992    1.852    0.460
       165 -10.5300     35.6210    101.2977   1.2604569098e+02   5.1790900546e+01    0.2156968     0.201936  12.75  0.001007958    1.253    0.202
       166 -10.3250     27.4827    101.1232   1.2856780240e+02   5.2562238754e+01    0.2371559    0.1512214 -33.98   0.00104928    1.614    0.380
       167  -9.9114    119.9707    101.2152   1.0057888586e+02   3.8950165835e+01    0.2505895    0.1773401  13.27 0.0009726911    2.006    0.502
       168  -9.5709     91.5296    101.4600   1.0872648361e+02   4.4292288576e+01    0.1463058    0.1346812 -28.86 7.260661e-05    1.053    0.050
       169  -9.6487     50.5018     99.1359   1.2084600365e+02   5.0709207290e+01    0.1967952    0.1166927 -55.60 0.0004330251    1.479    0.324
       170 -10.7067     63.5645     98.2557   1.1648566186e+02   4.9278418803e+01    0.3979311    0.1868445  31.65  0.001737986    2.380    0.580
       171  -9.3874    141.0413     97.0239   9.3977129583e+01   3.5266203526e+01    0.1807521    0.1737848 -46.29 0.0009584752    1.036    0.035
       172 -10.5167      1.9344     93.2814   1.3512942272e+02   5.6051814264e+01    0.3572089    0.1037079 -54.20  0.001658019    2.276    0.561
       173  -9.3582    227.4506     93.4861   7.6053649770e+01   1.5862619526e+01     0.144512     0.127767 -61.92 0.0001386899    1.014    0.013
       174  -9.2512     98.6238     93.5076   1.0445722403e+02   4.4735873594e+01    0.1447984    0.1340964 -36.24 -0.0001461745    1.035    0.033
       175  -9.0332     66.5762     93.4950   1.1431227499e+02   4.9906282672e+01     0.137653    0.1216176 -39.31 0.0001634197    1.013    0.013
       176 -11.5572     11.2898     91.2095   1.3178831099e+02   5.5945036445e+01    0.2992045    0.2100005   0.23  0.001926453    1.751    0.429
       177  -9.6347    171.3342     91.3107   8.5546143909e+01   2.9320945522e+01    0.1541526    0.1223737  16.25 0.0007043812    1.678    0.404
       178 -10.6541     96.3257     90.1948   1.0419918558e+02   4.5841530078e+01    0.4246938    0.2637076  -5.58  0.001593301    3.044    0.671
       179 -10.8161     26.3050     90.7344   1.2679914919e+02   5.4945080550e+01    0.2538109    0.1859591 -35.45   0.00158743    1.268    0.211
       180  -9.3940    158.3048     89.6757   8.7907748259e+01   3.2723993835e+01    0.1571881    0.1194273 -77.93 0.0006758434    1.642    0.391
       181  -9.5657    103.5120     88.5381   1.0161680914e+02   4.4845666147e+01    0.1445483    0.1388383 -19.84 0.0001867084    1.013    0.013
       182 -12.0017     47.8931     85.5543   1.1837143786e+02   5.3947617664e+01    0.4461744     0.413366  42.99  0.001211399    1.309    0.236
       183 -11.1203     39.4938     81.0071   1.2006024816e+02   5.5796786187e+01     0.228174    0.1966331  13.81 0.0003664092    1.297    0.229
       184 -10.8058    112.8435     85.8501   9.8186077868e+01   4.3550153966e+01    0.3209721    0.2961327 -70.50 0.0008979291    1.215    0.177
       185 -10.6410     67.0973     85.8627   1.1209226034e+02   5.1448714176e+01     0.204751    0.1862305 -61.60  0.001236203    1.232    0.188
       186 -10.0606      3.8673     85.9918   1.3321422166e+02   5.7504198773e+01    0.1891482    0.1623664 -31.40   0.00139941    1.227    0.185
       187 -10.9763    118.1649     83.2297   9.5955476438e+01   4.2967294760e+01    0.3493934    0.3211131  -3.60  0.001831186    1.119    0.106
       188 -11.8775     19.0479     80.7902   1.2705331830e+02   5.7624936896e+01    0.3168626    0.2614248  51.03  0.001280945    1.614    0.380
       189 -11.0501     23.4795     79.6166   1.2525550936e+02   5.7530538980e+01    0.3261739    0.1491651 -55.76 0.0009668783    1.763    0.433
       190 -10.4625     85.3667     80.8369   1.0481435869e+02   4.9642841835e+01    0.2105941    0.1202488 -35.16 0.0009500322    1.763    0.433
       191 -10.0532     75.4991     79.4883   1.0754639679e+02   5.1502475520e+01    0.2430991    0.1669473 -41.39 0.0007333843    1.346    0.257
       192 -11.1090     71.2022     79.2558   1.0887416521e+02   5.2199181919e+01    0.2743647    0.2304851   3.62   0.00035915    1.225    0.184
       193 -10.3043     74.6549     75.7174   1.0669854448e+02   5.2371886333e+01    0.2157438    0.1802187 -10.82 0.0009618118    1.181    0.153
       194  -9.1259     81.3219     79.2429   1.0561197598e+02   5.0626577627e+01    0.1351041    0.1022368  -2.47 0.0002376713    1.524    0.344
       195 -10.6720      2.1585     72.6071   1.3114525863e+02   6.0370098556e+01    0.2595924    0.1365691 -49.89 0.0006941768    1.394    0.283
       196 -11.3388      3.1188     77.9373   1.3190693499e+02   5.9229166996e+01     0.326135    0.2061739 -49.05  0.001083826    1.196    0.164
       197 -11.2302      7.6261     74.0790   1.2953935370e+02   5.9765564390e+01    0.3497109    0.2249861 -20.58  0.002231063    1.646    0.392
       198 -10.9844    150.0289     77.5732   8.6385824435e+01   3.6908208959e+01    0.2664263    0.2164316 -40.31 0.0001851607    1.256    0.204
       199 -10.3357     93.3997     77.0169   1.0119730612e+02   4.8983574055e+01    0.3208956    0.2230989 -16.03  0.001122285    1.733    0.423
       200 -11.7541     58.5362     75.4904   1.1200865333e+02   5.4711247431e+01    0.4936338    0.3541177  68.96  0.002451751    2.510    0.602
       201 -10.5686     65.2051     73.6320   1.0920170336e+02   5.4170411051e+01    0.2765784    0.2070976   9.69  0.001259489    1.451    0.311
       202 -11.1687     62.0745     71.7223   1.0968950875e+02   5.4973196918e+01    0.3500236    0.2002836 -34.79  0.001746926    1.661    0.398
       203 -10.0666     12.2216     77.1199   1.2859813026e+02   5.8857857548e+01    0.1817412    0.1262448 -86.12  0.001078753    1.953    0.488
       204 -10.6521     29.5001     82.6602   1.2389948819e+02   5.6394067287e+01    0.3694771    0.1279395 -43.45  0.001113048    2.477    0.596
       205 -10.3200     87.8128     76.0983   1.0262997116e+02   5.0145218443e+01    0.2080802    0.1903192 -65.97  0.001206634    1.309    0.236
       206 -10.3650     44.9397     75.0211   1.1657709657e+02   5.6440566570e+01    0.1877698    0.1601202 -32.78 0.0003250231    1.022    0.021
       207 -10.9907     40.2074     72.9246   1.1766716556e+02   5.7365211492e+01     0.313811    0.2585103 -67.17  0.000792934    1.469    0.319
       208 -10.7462    152.4659     72.2627   8.4329785000e+01   3.7264628188e+01    0.2719283    0.2546441  52.44 0.0006192296    1.047    0.045
       209 -10.7089    102.6872     72.9520   9.7193407970e+01   4.8006266844e+01    0.2539333    0.2053357  44.76  0.000493973    1.272    0.214
       210 -10.8280     27.5971     71.0082   1.2166985904e+02   5.8942005983e+01    0.4069471    0.1863428 -58.48  0.001998273    2.083    0.520
       211 -10.7296     31.1863     66.7555   1.1922030423e+02   5.9459359165e+01    0.3100205    0.1783904 -49.42  0.001529151    1.466    0.318
       212 -10.5917     16.9335     72.5722   1.2589472400e+02   5.9465092792e+01    0.2138738    0.1479598 -60.59 0.0006756751    1.352    0.260
       213 -10.7624     16.3977     67.5088   1.2485284991e+02   6.0514190062e+01    0.2471006    0.2087157 -72.08   0.00108179    1.433    0.302
       214 -10.5888     21.3602     65.9650   1.2262911988e+02   6.0447588695e+01    0.2557169    0.1745865  17.06   0.00121528    1.662    0.398
       215 -10.3443    245.0134     72.5148   6.8964874889e+01   1.5606593757e+01    0.1886171    0.1282973  67.74 0.0005314682    1.542    0.351
       216 -10.1490    175.1365     71.8360   7.9581459877e+01   3.1895017987e+01    0.2225766    0.1925166 -72.90 0.0004193398    1.176    0.150
       217 -10.9529    140.7778     71.1474   8.6655299262e+01   4.0187113781e+01     0.310535    0.2214071 -46.73  0.001503291    1.470    0.320
       218 -11.0135     78.1297     71.9964   1.0443682224e+02   5.2535542615e+01    0.3139883    0.1918493  44.00 0.0003693222    1.814    0.449
       219 -11.1502     51.6731     62.6654   1.1055237658e+02   5.8028667761e+01     0.702174    0.3101355 -25.40  0.002603361    3.682    0.728
       220 -11.6678     49.5833     70.8280   1.1375638625e+02   5.6737631189e+01    0.3290677    0.2434978  65.99  0.001284512    2.321    0.569
       221 -10.3542     50.7058     67.6441   1.1241938525e+02   5.7215859593e+01    0.2247483    0.1695984  -5.57 0.0008032368    1.365    0.268
       222 -11.1241     95.3209     67.9586   9.7803135865e+01   5.0299426930e+01    0.5280266    0.2834569 -36.45  0.001429135    1.852    0.460
       223 -10.1017     92.9804     61.7835   9.6523040541e+01   5.1802162827e+01    0.3085802    0.1842209 -32.70 0.0006771829    1.681    0.405
       224 -10.8649    157.5220     68.0113   8.2038870486e+01   3.6779963856e+01    0.4611048    0.2843996 -33.91  0.002086796    1.729    0.422
       225  -9.6043    131.6611     69.3028   8.8296678440e+01   4.2575485463e+01    0.1468395    0.1160722 -83.91 0.0003211105    1.671    0.402
       226 -10.9172     68.6825     67.3583   1.0610859427e+02   5.4855234063e+01    0.2761377    0.2155486 -30.31 0.0008592198    1.162    0.139
       227 -10.5821     37.0135     67.9744   1.1743429962e+02   5.8663415371e+01    0.3714904    0.1911881 -33.66  0.001284723    1.856    0.461
       228 -10.5302     41.3334     64.1181   1.1474213960e+02   5.8953108606e+01    0.1943913     0.167662  11.05   0.00027598    1.244    0.196
       229 -12.0223      4.4327     65.4245   1.2874506376e+02   6.1681675143e+01     0.463158      0.32128  72.92  0.002776136    2.482    0.597
       230 -10.0577    146.7899     66.0095   8.3776537034e+01   3.9654190487e+01    0.2113986    0.1895484 -74.03 0.0003594088    1.207    0.171
       231 -10.5519    129.9590     64.2055   8.7169555373e+01   4.3811887620e+01    0.2507195    0.2051893 -26.04  0.001332024    1.290    0.225
       232 -10.7793     77.0089     65.3278   1.0270253057e+02   5.3939732486e+01    0.1935169    0.1916966  68.80 0.0008834716    1.267    0.211
       233 -11.2440     83.6714     62.4516   9.9626873232e+01   5.3340774578e+01    0.4057491    0.2704511  42.32  0.002066636    1.564    0.361
       234 -10.1168     86.5083     59.4711   9.7754702698e+01   5.3356422627e+01    0.2598991     0.225436 -29.18  0.001413641    1.143    0.125
       235  -8.9925    189.2729     64.2810   7.5069720594e+01   2.9711937082e+01    0.1334311     0.112657  27.36 0.0001789083    1.497    0.332
       236 -10.0606    174.0013     63.9389   7.7668717813e+01   3.3467514190e+01    0.2190987    0.2018557  75.61 0.0004489716    1.026    0.025
       237 -10.9746     56.0739     62.2995   1.0886891869e+02   5.7536449464e+01    0.2276516    0.1770369 -33.40 0.0002005635    1.138    0.121
       238 -11.2865      4.8088     53.2215   1.2558540399e+02   6.3996318838e+01    0.3759788    0.1976703 -29.71  0.002274713    1.706    0.414
       239 -11.0786     10.8591     62.6278   1.2568441613e+02   6.1842950129e+01     0.213889    0.2020186   9.12 0.0004213286    1.347    0.257
       240 -10.5186      5.8061     58.5931   1.2658293068e+02   6.2927378793e+01    0.2176345    0.1859804  70.37   0.00137753    1.754    0.430
       241  -9.9429    202.2503     62.2340   7.2479467500e+01   2.6922696377e+01    0.1933664    0.1842155  74.81   0.00043994    1.141    0.123
       242 -12.1656     38.1005     51.6660   1.1207805119e+02   6.1558377169e+01    0.5725173    0.3761406 -27.78  0.002250432    1.325    0.245
       243 -10.3488     44.8135     51.8316   1.0958471087e+02   6.0779114587e+01    0.2442061    0.1650315 -28.24 0.0005147706    1.290    0.225
       244 -11.4018     26.7121     61.5119   1.1941551184e+02   6.0864080243e+01    0.3690507    0.1946611  12.86  0.001995201    2.245    0.555
       245 -11.0594     33.5040     59.9030   1.1639101987e+02   6.0542784908e+01    0.3009122    0.1937882 -23.32  0.000849475    1.487    0.328
       246  -9.8858    160.7064     60.9806   7.9402627758e+01   3.7151716404e+01    0.2000964    0.1874971 -46.33 0.0007597231    1.115    0.103
       247 -10.6847     69.8576     58.9556   1.0300561961e+02   5.6179529906e+01    0.3567899    0.3040789 -59.76  0.002148876    1.543    0.352
       248 -11.0663     64.4002     59.7778   1.0514209611e+02   5.6844817579e+01    0.3482488    0.1830266  34.86  0.001506778    1.974    0.494
       249  -9.7770     18.1434     59.4961   1.2210409638e+02   6.1936885980e+01    0.1922553    0.1321565 -76.60 0.0007283858    2.212    0.548
       250 -11.4119    123.2383     56.6908   8.6505050549e+01   4.6498987593e+01    0.2943451    0.2275299 -61.56 0.0008501945    1.626    0.385
       251 -10.5269     45.2178     57.9225   1.1141005877e+02   5.9661657624e+01    0.2824381    0.1771651  30.25 0.0007148264    1.726    0.421
       252 -10.0583    113.3042     57.5272   8.9343204665e+01   4.8494935701e+01    0.3554321    0.1247214  45.93  0.001294428    2.704    0.630
       253 -10.9721    101.5010     55.5100   9.1951108881e+01   5.1206954216e+01    0.4756969     0.209646  44.73  0.001484879    2.185    0.542
       254  -9.8500     75.3545     56.0066   1.0018339154e+02   5.5816855142e+01     0.182001    0.1490399 -27.56  0.000386531    1.153    0.133
       255 -12.1529    128.0404     51.3733   8.3658693327e+01   4.6237952725e+01    0.4207039    0.3206103  -7.45 0.0005300266    1.558    0.358
       256 -11.2074     11.3754     43.9938   1.2030910926e+02   6.5243727005e+01    0.3612273    0.2159599 -34.44  0.001834207    1.303    0.233
       257 -11.9748      6.9886     41.5776   1.2139695189e+02   6.5955961537e+01    0.5434534    0.1177362 -47.60 0.0007857602    2.961    0.662
       258 -10.7507     12.8618     51.3192   1.2187374726e+02   6.3835122124e+01    0.2848226    0.1888873 -49.84  0.001066037    1.307    0.235
       259 -10.0055     16.6651     51.7218   1.2047959541e+02   6.3488285507e+01    0.1642312    0.1468768  15.77 0.0004463621    1.391    0.281
       260 -10.5759     71.7683     51.2364   9.9752733944e+01   5.7168758584e+01    0.3774923    0.2094185  34.48  0.000869474    1.800    0.444
       261 -10.4582     76.5263     50.4924   9.7914810289e+01   5.6518903526e+01    0.2391949    0.1663238  12.50 0.0006764948    1.556    0.357
       262  -9.3416     50.0669     52.0071   1.0768673184e+02   6.0113750861e+01    0.1720093    0.1237379 -13.40 0.0002980081    1.323    0.244
       263 -11.0097     51.7383     48.6900   1.0594126357e+02   6.0456609884e+01    0.2669055    0.2220073  72.11 0.0008594366    2.164    0.538
       264 -10.3030     86.9875     52.4546   9.5250831122e+01   5.4411483637e+01    0.2238854     0.180477  49.72 0.0009377528    1.409    0.290
       265 -10.8048    114.4543     48.9392   8.6254260425e+01   4.9553841265e+01    0.3217887    0.2808069 -51.42  0.001874433    1.327    0.247
       266 -10.2857    107.4661     48.8883   8.8090211007e+01   5.1016822325e+01    0.2844681     0.154609  33.54   0.00118309    2.011    0.503
       267 -10.7400    101.2292     48.8944   8.9819458652e+01   5.2270504328e+01    0.2674641    0.2239404  10.02   0.00156429    1.179    0.152
       268  -9.7029    104.3445     46.3029   8.8076699569e+01   5.2025030374e+01    0.2282038    0.1515164  31.50 0.0006015619    1.517    0.341
       269  -9.3742    208.5959     48.5400   6.8257368297e+01   2.7479012211e+01    0.1362944    0.1197875 -79.44 7.719533e-05    1.017    0.017
       270  -9.9951    196.8624     48.1634   6.9809374445e+01   3.0320453065e+01    0.2009144    0.1665609 -78.24 0.0002638584    1.135    0.119
       271 -10.6655    153.4084     47.3413   7.6944139014e+01   4.0927541528e+01    0.3776381    0.2147608 -65.93  0.001490332    2.826    0.646
       272 -10.6383    142.7339     46.0222   7.8720142502e+01   4.3633328379e+01    0.2882914    0.2344344 -49.63 0.0007113887    1.345    0.256
       273 -10.0873     62.7223     47.0689   1.0141253183e+02   5.9207120177e+01     0.214895    0.1516611   3.47 0.0004469584    1.468    0.319
       274 -11.2787     80.8764     41.9684   9.3508096364e+01   5.7062664026e+01    0.2611572    0.2099016  34.37  0.001027951    1.210    0.173
       275 -10.4580     85.0583     38.9459   9.1119514479e+01   5.6743909943e+01    0.2240094    0.1675254  25.38 0.0004361508    1.245    0.197
       276 -11.8761     81.5554     36.2867   9.1241969941e+01   5.7729552053e+01     0.427513    0.2835979  22.19  0.002371791    1.522    0.343
       277 -10.6252    121.5306     41.5021   8.2065675244e+01   4.9060507558e+01    0.4454205    0.2529826 -55.34  0.001914862    2.652    0.623
       278  -9.8069     91.5691     45.0198   9.1296184940e+01   5.4694041843e+01    0.1882005    0.1244248 -31.24 0.0003091376    1.528    0.346
       279 -11.4532     96.4877     40.6117   8.8325817030e+01   5.4374545878e+01    0.4715097     0.346948  88.25  0.002311976    2.531    0.605
       280 -10.3398    163.1060     42.4301   7.3732485243e+01   3.9272566360e+01    0.2046783    0.1925708  -6.77 0.0003221367    1.230    0.187
       281  -9.1164    233.3110     45.3025   6.4480649112e+01   2.2282569196e+01    0.1183104     0.102532  37.78  0.000465451    1.609    0.378
       282 -10.0945     64.2373     41.7280   9.8970373656e+01   5.9801411752e+01    0.2463615    0.1388616 -38.41  0.001310053    1.758    0.431
       283  -9.9390    110.9312     42.1369   8.4917297875e+01   5.1249791563e+01    0.1911845    0.1768499  69.29 0.0003678152    1.244    0.196
       284 -10.0802     31.7473     34.0026   1.0848010792e+02   6.5117437938e+01    0.2150277    0.1336233  28.44 0.0008521033    1.710    0.415
       285 -10.1766     23.6500     41.6218   1.1448905310e+02   6.4680327202e+01    0.2231858    0.2046601 -38.56  0.001010432    1.397    0.284
       286 -10.3595     20.6505     37.6861   1.1439884078e+02   6.5591114605e+01    0.2232923     0.144247  -3.08  0.001443582    1.520    0.342
       287 -11.7358     25.0279     35.4545   1.1178782495e+02   6.5557429817e+01     0.348449    0.2229922  26.36  0.001213608    1.704    0.413
       288 -10.0537     90.0563     40.2302   9.0066461727e+01   5.5650769192e+01    0.2267359    0.1681242 -59.67 0.0009014572    2.057    0.514
       289  -9.5204     52.2638     41.6372   1.0325614803e+02   6.1511957342e+01    0.1083031   0.09609435 -56.66 0.0004501506    1.641    0.390
       290  -9.1330    235.7334     40.6632   6.3221103787e+01   2.2397501576e+01     0.112512     0.103071  25.67 0.0004132301    1.591    0.372
       291 -10.2047    226.4375     40.1431   6.4131454141e+01   2.4541844656e+01    0.2373813    0.1680062  87.60 0.0005408261    1.314    0.239
       292 -11.2001    135.6230     38.6978   7.7988853223e+01   4.6257311082e+01    0.3682617    0.2350331 -26.24  0.001857143    1.754    0.430
       293 -10.4960    130.4373     33.4893   7.7471596630e+01   4.8089393616e+01    0.3709732     0.244221  84.31   0.00173537    2.154    0.536
       294  -9.8053     44.0178     39.2431   1.0551291060e+02   6.2927698556e+01    0.2106867    0.1323809 -44.99 0.0009165728    1.720    0.419
       295 -10.8712     69.5931     37.0957   9.5429312713e+01   5.9636897576e+01    0.4375218    0.2506481  -9.32  0.002121423    2.268    0.559
       296 -11.2295      2.7437     33.0965   1.2055750485e+02   6.7655757455e+01    0.3382498    0.2669019  27.28  0.002588226    1.697    0.411
       297 -10.0388    137.0110    247.7378   1.2526500401e+02   3.5555423685e+00    0.1820175    0.1482812  47.33 0.0004812823    1.044    0.043
       298 -10.1069     72.6302    250.1246   1.3784807617e+02   1.3236337445e+01     0.176564    0.1675632  23.06  0.001252597    1.578    0.366
       299 -10.6687    101.7815     36.9326   8.5572422733e+01   5.3816376521e+01    0.2134729    0.1706246  40.27 0.0004500964    1.147    0.128
       300 -10.3477    169.6490     36.0626   7.0861248855e+01   3.8523919571e+01    0.2145178    0.1724306  79.49 0.0002807294    1.176    0.150
       301 -10.3301    106.0797     34.8347   8.3704057167e+01   5.3208604099e+01    0.3223082    0.1777753 -42.59   0.00155187    2.139    0.532
       302  -9.9096     56.7361     35.9395   9.9511211194e+01   6.1744912399e+01    0.1732392    0.1345718 -19.27  0.000616736    1.149    0.130
       303 -10.1449    146.7718     35.6324   7.4797971964e+01   4.4047758337e+01    0.1918523    0.1218588  69.43 0.0007717776    1.599    0.375
       304 -10.2600    110.9995     34.9562   8.2484653718e+01   5.2168592761e+01    0.1922098    0.1755033  34.97 0.0003186261    1.043    0.041
       305  -9.5703    150.8124     34.3747   7.3663347770e+01   4.3248253997e+01    0.1938805      0.11086  51.83  0.000295769    1.583    0.368
       306 -10.4577     96.2501     32.8914   8.5675851820e+01   5.5425404316e+01    0.2617399    0.1414882  29.15 0.0007920281    2.073    0.518
       307 -10.3507    122.7962     45.0080   8.2893342696e+01   4.8307430814e+01    0.2945786    0.2370639  37.85  0.001105883    1.172    0.147
       308 -10.2480     19.2775     32.1338   1.1303419988e+02   6.6596562315e+01    0.2048918    0.1767599  22.85    0.0015159    1.518    0.341
       309  -9.8149     89.8658     31.8405   8.7116553346e+01   5.6783021794e+01    0.1861112    0.1504222  19.20 0.0003230008    1.122    0.109
       310  -9.3978    217.6189     31.2474   6.3154424049e+01   2.7734609863e+01    0.1373049   0.08495128 -77.38 0.0006947258    1.649    0.393
       311  -9.5127    178.5433     31.5252   6.8269743693e+01   3.6944931475e+01    0.1371274    0.1174437 -88.69 4.276122e-05    1.088    0.080
       312  -9.6041     73.9483     31.1891   9.1777480531e+01   5.9711733224e+01    0.1703654    0.1408034  12.73 0.0003873872    1.033    0.032
       313 -10.4785     50.3150     27.8467   9.8785845969e+01   6.3760027872e+01    0.3838814    0.1620852 -23.86  0.001725189    2.820    0.645
       314  -9.2950    140.2920     29.3413   7.4164198209e+01   4.6317387848e+01    0.1374799   0.09508111  30.03 0.0007026885    1.652    0.395
       315  -9.7507    100.9815     28.6711   8.2898131719e+01   5.4992709515e+01    0.1782083    0.1471341  41.00 0.0003789051    1.102    0.093
       316 -10.3650    154.7094     27.3794   7.0943056386e+01   4.3152551595e+01    0.2088764    0.1590345  15.51 0.0006155244    1.693    0.409
       317 -10.1670    124.8714     27.8451   7.6874966521e+01   5.0000302612e+01     0.194515    0.1553263  36.03  0.000287254    1.189    0.159
       318 -11.2123     70.5113     26.0878   9.0956892774e+01   6.0924399996e+01    0.4211122    0.2047835  36.81  0.001603512    1.899    0.473
       319 -10.0450     24.7837     27.0140   1.0877257146e+02   6.6866850672e+01    0.2196565    0.1500329 -31.51 0.0004394806    1.251    0.201
       320  -9.5556    115.5014    244.5027   1.2908305023e+02   7.7156799074e+00    0.1296702    0.1087645  58.13 -0.0001740552    1.009    0.009
       321 -11.9801     74.2559    238.5053   1.3642207566e+02   1.5287804325e+01     0.571931    0.3492174  56.39  0.003295912    1.393    0.282
       322 -10.2010    146.0329     25.9835   7.2073667157e+01   4.5358573822e+01    0.1932796    0.1755569  68.90 0.0003664931    1.049    0.047
       323 -10.9221    129.3633     23.9052   7.4662882677e+01   4.9427048997e+01    0.3175253    0.2164896 -50.61  0.001589603    1.796    0.443
       324  -9.5181     90.5300     26.5609   8.5002976550e+01   5.7290018901e+01     0.125908    0.1094238  24.50 5.049202e-05    1.033    0.032
       325  -9.7116     16.7027     25.8870   1.1185965719e+02   6.7773177207e+01    0.2206101   0.07012875 -39.39  0.001071894    2.526    0.604
       326  -9.2767    220.5628     24.4986   6.1344441371e+01   2.7912294237e+01    0.1286001    0.1063655 -81.43 0.0001088841    1.011    0.011
       327  -9.8092    216.2975     24.6653   6.1833468478e+01   2.8864717357e+01    0.1369991   0.08252002 -68.24 0.0003781364    1.649    0.394
       328 -10.8323    122.7517     22.3076   7.5536806235e+01   5.1075401623e+01    0.5422889    0.1969351  48.22  0.001576127    2.353    0.575
       329 -11.3405     61.2724     23.5930   9.3116347443e+01   6.2708341779e+01    0.2735016    0.2358929  71.06  0.001621819    1.987    0.497
       330 -10.4668     54.3387     23.2797   9.5474779940e+01   6.3784128170e+01    0.2072221    0.1747034   3.09 0.0005791385    1.109    0.098
       331 -10.1822    179.3513    243.6671   1.1631654837e+02  -2.9062363264e+00    0.1287081   0.09717716  66.72 0.0007046831    1.780    0.438
       332  -9.8862     94.1016     22.5011   8.2529720574e+01   5.7054601395e+01    0.1873794    0.1104052  47.85  0.000484523    1.516    0.340
       333  -9.6645     35.5279     22.5310   1.0248913978e+02   6.6343333509e+01    0.1815611    0.1263256 -29.24  0.001226428    1.329    0.248
       334  -9.6315     35.7115     19.6747   1.0124728797e+02   6.6696896772e+01    0.1162684   0.09239813  -5.23 0.0003461333    1.077    0.071
       335 -10.5498     65.8557     21.0885   9.0549060121e+01   6.2280207193e+01    0.2395803    0.1477923  43.52 0.0009167417    1.611    0.379
       336 -10.7152    103.7800     19.2833   7.8873919693e+01   5.5447829829e+01    0.2810649    0.1501207  33.51  0.001390352    1.912    0.477
       337  -9.3592     45.5116     20.4889   9.7669371272e+01   6.5358363431e+01    0.1176603   0.09139946   0.54  0.000810429    1.015    0.015
       338  -9.9857    109.9415    242.9588   1.2998769024e+02   8.9128761391e+00    0.2136622    0.1347295  68.20  0.001008905    1.700    0.412
       339 -10.3713     31.5494    237.3294   1.4417258604e+02   2.1142729206e+01    0.2472775     0.151779  72.83 0.0006988545    1.315    0.240
       340 -10.9426     29.1611    232.9104   1.4427087899e+02   2.2317361164e+01    0.3038805    0.1604089  64.68  0.001782197    1.614    0.381
       341 -10.2796     88.5456    241.4170   1.3398190683e+02   1.2581182406e+01    0.2087853    0.1054819 -52.64  0.001025827    2.400    0.583
       342  -9.4219    250.4693     17.5591   5.7165754963e+01   2.2241085480e+01     0.122264   0.09360801 -74.98 7.675365e-05    1.009    0.009
       343 -10.8657    156.3340    240.9183   1.2046799964e+02   1.4779337910e+00     0.194293    0.1651748 -86.38   0.00118042    1.433    0.302
       344 -10.5153    217.5842     16.2592   5.9855539964e+01   2.9571334224e+01    0.3157667    0.1332148  60.21  0.001288608    2.223    0.550
       345  -9.9930     34.2365     15.9975   1.0032207341e+02   6.7337813019e+01    0.2588136    0.1256078   8.65  0.001232713    2.970    0.663
       346 -10.4209      9.6481     15.9656   1.1120391842e+02   6.9792455745e+01    0.1917428    0.1289621   1.92 0.0007211993    1.313    0.238
       347  -9.4880     50.3222    240.3105   1.4104910246e+02   1.8216416728e+01    0.1019454   0.09228424 -52.07 0.0003772564    1.650    0.394
       348 -12.0631     34.9386    241.6662   1.4389588136e+02   1.9871496873e+01    0.6411564    0.2142414  45.65  0.003182596    2.441    0.590
       349  -9.9827    195.7706    238.3914   1.1225348489e+02  -4.7988932244e+00    0.2376774    0.1445204  30.41  0.001154327    1.524    0.344
       350 -10.6137    177.5901    234.9324   1.1528112359e+02  -1.1505627686e+00    0.2784986    0.2044918   5.63  0.001208117    1.697    0.411
       351 -11.7204     14.2329    244.5659   1.4759666292e+02   2.1662615964e+01    0.4008882    0.1832639 -80.38  0.002384505    1.848    0.459
       352 -10.1780    159.9210    235.8490   1.1898312689e+02   1.7544870365e+00    0.2042924    0.1703416  20.99 0.0006361944    1.263    0.208
       353  -9.4392     50.3251     14.6773   9.3425606321e+01   6.5382157264e+01    0.1805706   0.08527444 -38.70 0.0009418009    2.492    0.599
       354  -9.1945     51.3201     11.2695   9.1617308491e+01   6.5611404055e+01    0.1172575   0.07182049  13.58 0.0002215723    1.563    0.360
       355 -11.2494     73.7283    232.9884   1.3596051687e+02   1.6486908365e+01    0.2814252    0.1831286  50.96  0.001126885    1.346    0.257
       356 -10.3020     66.4285    226.5688   1.3672547494e+02   1.8867405550e+01    0.2774882     0.153528  45.56  0.000876567    1.650    0.394
       357  -9.5449     30.4405     12.7715   1.0054047537e+02   6.8177860395e+01     0.153963   0.08526352 -20.62 0.0007502557    1.617    0.382
       358 -10.3180    167.0395    233.9377   1.1724555438e+02   8.5290929173e-01    0.2041846    0.1837278  31.15 0.0008508994    1.043    0.042
       359  -9.9120     79.7525    231.4052   1.3461212230e+02   1.5927797521e+01    0.2062626    0.1460564  42.57 0.0006749073    1.414    0.293
       360  -9.4941     12.8437    231.1572   1.4700269585e+02   2.4469962659e+01    0.1435355    0.1149431 -82.01  0.001070565    1.318    0.241
       361 -12.9135     21.1021    248.9590   1.4673447005e+02   2.0056376868e+01    0.8846497    0.4524859  49.14  0.005608055    1.661    0.398
       362  -9.4361     58.4913    230.4453   1.3864723600e+02   1.9149454417e+01    0.1246149   0.09902239  74.85 0.0001186918    1.017    0.017
       363 -10.7504    153.4427    233.6181   1.1995862869e+02   3.2882246602e+00    0.2465522     0.201986 -19.08 0.0008431005    1.545    0.353
       364 -10.2909    190.5265    226.8640   1.1134800031e+02  -2.0097851873e+00    0.3073617    0.1312544 -43.62  0.001027339    2.547    0.607
       365  -9.2111    249.3624    227.2582   1.0028225163e+02  -1.1476310595e+01    0.1259599   0.08125497   6.14 0.0003947925    1.629    0.386
       366  -9.9533     85.9777    233.1724   1.3357720702e+02   1.4627068838e+01    0.1915056      0.12481  81.26 0.0007259492    1.591    0.371
       367  -9.4637    140.1500    227.3569   1.2175072765e+02   6.8048952708e+00    0.2047046    0.1098943  49.62 0.0009424913    1.742    0.426
       368 -10.1436    108.1576     17.0842   7.7054274687e+01   5.4757279702e+01    0.1857592    0.1669802  46.14 0.0005694547    1.096    0.088
       369 -10.1565    129.9226    226.9278   1.2381541754e+02   8.6798234828e+00    0.3354894    0.1569704  58.16  0.001313264    2.725    0.633
