#   1 NUMBER                 Running object number                                     
#   2 MAG_AUTO               Kron-like elliptical aperture magnitude                    [mag]
#   3 X_IMAGE                Object position along x                                    [pixel]
#   4 Y_IMAGE                Object position along y                                    [pixel]
#   5 X_WORLD                Barycenter position along world x axis                     [deg]
#   6 Y_WORLD                Barycenter position along world y axis                     [deg]
#   7 A_WORLD                Profile RMS along major axis (world units)                 [deg]
#   8 B_WORLD                Profile RMS along minor axis (world units)                 [deg]
#   9 THETA_WORLD            Position angle (CCW/world-x)                               [deg]
#  10 FWHM_WORLD             FWHM assuming a gaussian core                              [deg]
#  11 ELONGATION             A_IMAGE/B_IMAGE                                           
#  12 ELLIPTICITY            1 - B_IMAGE/A_IMAGE                                       
         1 -14.9642    167.5490     42.5379   7.3631946090e+01   3.8062868637e+01     1.463999     1.182852   8.68  0.004385804    1.305    0.234
         2 -14.9842    186.7227      9.1553   5.9430060965e+01   3.6816778316e+01     2.565145      1.10102  62.10  0.007635077    2.086    0.521
         3  -9.9956    160.2780    246.5882   1.1893634484e+02   6.9864551452e+00    0.1440472   0.09899997 -42.00 0.0008973283    2.006    0.502
         4 -19.9679     67.3978    170.6739   1.2896263582e+02   3.1943770167e+01     15.07393     6.067229 -70.60   0.07200151    2.636    0.621
         5 -11.3169    125.0778    244.0570   1.2481509704e+02   1.2199748845e+01    0.1385635    0.1314005 -87.72 0.0005763838    1.389    0.280
         6  99.0000     13.0615    242.1093   1.4331703112e+02   2.5149893500e+01    0.2516755     0.101483 -66.23   0.00169725    3.021    0.669
         7 -10.4685    103.5792    194.5136   1.2380676027e+02   2.2740370525e+01    0.3269015    0.1666939  26.68  0.001594074    2.409    0.585
         8 -11.6055    152.7260    192.8449   1.1349350867e+02   1.5439677071e+01    0.2511878    0.2180201  72.83  0.001159838    1.457    0.313
         9 -12.8561    164.2028    187.1355   1.1028578904e+02   1.4401935450e+01    0.4653038    0.3126244  -3.77  0.002435927    2.105    0.525
        10  -9.6603    139.1116    249.9368   1.2294161840e+02   9.5363923795e+00    0.1374904    0.1014277  27.13 0.0007011844    1.310    0.236
        11 -11.5638    152.8129    185.5747   1.1237467457e+02   1.6570835204e+01    0.2243438     0.196028 -64.13  0.001441917    1.469    0.319
        12 -10.4940     37.7132    186.0802   1.3648790942e+02   3.2203601053e+01     0.187676      0.13064  38.94 0.0006603047    1.404    0.288
        13 -11.4503      3.9146    180.4580   1.4277021242e+02   3.6147063487e+01     0.242591    0.1769213  -4.81  0.001351422    2.390    0.582
        14 -12.8674    204.5828    176.5073   1.0045920227e+02   8.9115641376e+00    0.4303394    0.3934295 -26.76  0.001591608    1.397    0.284
        15 -12.8319    203.4956    166.1054   9.8691063446e+01   1.0547877000e+01    0.5869414    0.4379565  -0.80  0.001940466    1.332    0.249
        16 -12.7981    132.6217    168.4923   1.1401407627e+02   2.2884138159e+01    0.4075514    0.2754316 -82.23  0.001938761    2.399    0.583
        17 -12.8857    144.0098    174.5111   1.1248553114e+02   1.9894839156e+01    0.4363104    0.3413851  -8.60  0.002514583    1.611    0.379
        18 -11.1034    198.5141    177.5143   1.0180967941e+02   9.8414479103e+00    0.2942522    0.2629931  84.22  0.001776933    1.823    0.451
        19 -11.7395    190.1617    156.0081   9.9331271678e+01   1.4525096898e+01    0.5207691    0.4814347 -81.25  0.003096123    1.567    0.362
        20 -12.7796    194.0169    166.9739   1.0071713964e+02   1.2154647184e+01    0.4661467    0.3263177 -37.97 0.0008740666    1.654    0.396
        21 -11.1405     21.8111    239.8556   1.4189018785e+02   2.4702584951e+01   0.09845268   0.06006975 -86.62 0.0005583992    1.624    0.384
        22 -12.0303      9.5525    175.1449   1.4145801076e+02   3.6712758579e+01    0.1809408    0.1331916  52.72 0.0006463995    1.220    0.180
        23 -11.7135    191.0882    161.4733   1.0023414898e+02   1.3515759807e+01    0.3526793    0.3223536  39.34    0.0013612    1.260    0.206
        24 -12.4095    126.6003    172.9202   1.1603950925e+02   2.3078493357e+01     0.488649    0.2753469  57.70  0.002099939    2.140    0.533
        25 -10.4760      7.7082    237.8821   1.4401418425e+02   2.6240565165e+01   0.09814765   0.05779697  71.35 0.0008144842    1.288    0.223
        26 -10.6797    131.3071    237.2604   1.2305579049e+02   1.2246302347e+01    0.1228864    0.1083206  56.27 0.0004286754    1.243    0.196
        27  -9.6678    133.6357    229.2557   1.2180222411e+02   1.3008663757e+01    0.1151845   0.06851971  53.54 0.0004691732    1.628    0.386
        28 -11.7911    230.4084    167.1591   9.3899938266e+01   5.6120545932e+00    0.3597771    0.1802737 -43.35  0.001609728    2.966    0.663
        29 -11.8731    122.4327    165.5879   1.1584564352e+02   2.5106623654e+01    0.2762744    0.2072813  45.87 0.0006006478    1.198    0.165
        30  -9.6861     13.1296    164.8670   1.4022970282e+02   3.8413880222e+01    0.1421973    0.1287564 -80.20 0.0009325514    1.302    0.232
        31 -10.8745     17.7873    162.9998   1.3914932695e+02   3.8416372064e+01     0.309595    0.1846222  11.56  0.001744499    2.571    0.611
        32 -10.5360      1.8538    165.3393   1.4255771795e+02   3.9145277637e+01    0.1235514    0.1044681  66.96 0.0003503888    1.176    0.149
        33  -9.8865    143.0337    226.5719   1.1977499482e+02   1.2016168883e+01    0.1732178   0.08736829  38.75 6.322262e-05    1.505    0.336
        34 -10.5101     24.4613    165.6699   1.3789789092e+02   3.7337158078e+01    0.1734318    0.1233655  29.53  0.000666759    1.605    0.377
        35 -10.5616     19.8036    222.9576   1.4159722332e+02   2.7501299016e+01    0.1208295    0.1086972  82.01  0.001124621    1.402    0.287
        36 -13.9938    137.8146    171.3850   1.1333049819e+02   2.1491464584e+01     1.251051    0.6668586  37.15    0.0049724    1.666    0.400
        37 -11.0227    174.2955    148.6872   1.0115586509e+02   1.8758872119e+01    0.3012048    0.2671165 -80.47   0.00133954    1.587    0.370
        38 -10.7513    133.6945    246.4383   1.2353938768e+02   1.0716850237e+01    0.1011821   0.07815712  43.28 0.0001440952    1.081    0.075
        39 -12.0677      6.6795    137.5164   1.4010346303e+02   4.4411473090e+01    0.2779485    0.2389158  43.39  0.001822619    1.325    0.246
        40 -11.9286    152.5350    139.2670   1.0406317855e+02   2.4659757469e+01    0.2700765    0.2483185  84.49  0.001533456    1.332    0.249
        41 -13.6611     11.9730    206.1459   1.4229169312e+02   3.0955645509e+01     0.384687    0.2546088  32.54   0.00254431    1.657    0.396
        42 -11.0246      9.3515    201.8098   1.4258871080e+02   3.1914084914e+01    0.1334487    0.1052022  89.36 0.0003969363    1.271    0.214
        43 -11.3581     18.1506    129.1930   1.3674502973e+02   4.5398129408e+01    0.2549033    0.1560558 -63.08 0.0007099304    1.518    0.341
        44 -12.0447    160.6044    127.9503   9.9713353996e+01   2.5137069442e+01      0.38089    0.3397895 -53.86  0.001607241    1.316    0.240
        45 -11.7417      2.6397    125.1914   1.4031527237e+02   4.7258932896e+01    0.2057845    0.1740627 -31.33  0.001567879    1.570    0.363
        46 -11.6446      4.9538    120.4531   1.3942496155e+02   4.8141712478e+01    0.3412876    0.1850521 -11.60  0.001859003    3.193    0.687
        47 -10.6712    168.0547    113.0351   9.4425689943e+01   2.6275987109e+01    0.3476604    0.2579552 -84.33  0.001475415    2.409    0.585
        48 -11.2755      2.6672    112.6648   1.3947150613e+02   4.9957225195e+01    0.1705061    0.1458802 -78.61  0.001239245    1.134    0.118
        49 -11.1290      6.0009    111.4999   1.3849695551e+02   5.0030620132e+01    0.2776058     0.097065  24.99  0.001397546    3.124    0.680
        50 -13.9831    118.0328    110.2616   1.0631573894e+02   3.7040480254e+01    0.8322703    0.4312692  47.55  0.003188245    2.016    0.504
        51 -10.9819    205.2896    110.4995   8.5954609297e+01   1.8533781147e+01    0.3589684    0.2384884  26.77 0.0009824088    1.546    0.353
        52 -10.5053     14.0639    110.0938   1.3618048567e+02   4.9864045958e+01    0.1684085    0.1429997 -81.03 0.0003868872    1.066    0.062
        53 -11.3633     18.5037    108.9318   1.3483049553e+02   4.9835505895e+01    0.2324169    0.1652405  -6.19 0.0008594563    1.958    0.489
        54 -12.6831    106.0327    204.2557   1.2438493436e+02   2.0743049414e+01    0.3521621    0.2842322  87.10  0.001791704    1.396    0.284
        55 -11.3657    169.1359    201.8902   1.1157649810e+02   1.1412477040e+01    0.1878593    0.1524833  48.30  0.001226299    1.306    0.234
        56 -10.8799    146.1408     81.1105   9.0975247756e+01   3.7052090971e+01    0.2416292    0.2043324   8.46 0.0005137344    1.229    0.186
        57 -14.4788    155.3857     57.2342   8.1167707889e+01   3.8980878022e+01     1.473482     1.216849  44.64  0.002356439    1.176    0.150
        58 -10.5283    153.2583    200.6067   1.1450814582e+02   1.4169593343e+01     0.195215    0.1739579 -44.54  0.001350621    1.398    0.285
        59 -13.0439    171.7260     35.0023   7.0300457750e+01   3.7964958945e+01     0.462355    0.3921752  17.65 0.0009374325    1.197    0.165
        60 -10.3457    138.7447    200.3723   1.1737127495e+02   1.6507347978e+01    0.1879758    0.1404549  45.72 0.0005666595    1.151    0.131
        61 -10.7964     13.4850     59.9518   1.3008792149e+02   6.1256221692e+01    0.1858974    0.1563039  58.67 0.0004184419    1.418    0.295
        62 -10.3937    141.5540    198.7366   1.1658732838e+02   1.6321842763e+01    0.2082299    0.1606053  51.89  0.000785958    1.256    0.204
        63 -11.4138    187.8710     30.6710   6.6146459047e+01   3.4239381200e+01     0.262439    0.2077075  -0.82 0.0008466445    1.351    0.260
        64 -10.4151    135.1200     30.2746   7.6324187452e+01   4.8064800716e+01    0.2601596    0.2070469  76.63 0.0007820739    1.550    0.355
