#   1 NUMBER                 Running object number                                     
#   2 MAG_AUTO               Kron-like elliptical aperture magnitude                    [mag]
#   3 X_IMAGE                Object position along x                                    [pixel]
#   4 Y_IMAGE                Object position along y                                    [pixel]
#   5 X_WORLD                Barycenter position along world x axis                     [deg]
#   6 Y_WORLD                Barycenter position along world y axis                     [deg]
#   7 A_WORLD                Profile RMS along major axis (world units)                 [deg]
#   8 B_WORLD                Profile RMS along minor axis (world units)                 [deg]
#   9 THETA_WORLD            Position angle (CCW/world-x)                               [deg]
#  10 FWHM_WORLD             FWHM assuming a gaussian core                              [deg]
#  11 ELONGATION             A_IMAGE/B_IMAGE                                           
#  12 ELLIPTICITY            1 - B_IMAGE/A_IMAGE                                       
         1 -17.1430    244.9996     13.0718   5.8976242624e+01   2.3485809810e+01     4.064328     3.035645 -38.97   0.02590012    1.485    0.326
         2 -12.6262    219.0122     73.6495   7.5551120269e+01   2.0902678567e+01     2.872387    0.7247224 -43.81  0.008895928    3.602    0.722
         3 -11.4113    113.9319     31.0236   8.3436602648e+01   5.2290809182e+01    0.9300892    0.5604752 -35.59  0.004777211    1.796    0.443
         4 -10.5195    150.8760     30.0124   7.5170044858e+01   4.3955420389e+01    0.4461156    0.3109193 -54.02  0.002243248    1.664    0.399
         5  -8.1581    167.2201     15.9640   6.8376655373e+01   4.1552446592e+01    0.4044767    0.2080846 -55.93  0.001804743    2.436    0.589
         6 -10.4457    137.7679     15.5350   7.3155426177e+01   4.8631754554e+01    0.3102386    0.2688346 -52.88  0.001933322    1.328    0.247
         7  -9.2144    176.7666     14.7943   6.6699425627e+01   3.9349107566e+01    0.2234542    0.1873254 -89.59 0.0003598996    1.109    0.099
         8  -7.8935    171.1891     10.4599   6.6301415126e+01   4.1145116275e+01     0.241802     0.144487 -49.15 0.0009337139    1.836    0.455
         9 -10.6456    140.1814      7.1797   7.0117764356e+01   4.8849105698e+01     0.538206    0.2677107 -38.02  0.002459454    2.276    0.561
        10  -8.7073    151.5822     10.1731   6.9130812653e+01   4.5891191791e+01    0.2275704    0.1688909  48.20  0.001122666    1.261    0.207
        11  -8.7187    148.4942      7.9558   6.8970532164e+01   4.6828273383e+01    0.1760801    0.1304172 -23.22  0.001028824    1.578    0.366
        12  -8.2249    179.4763      8.9765   6.4810806472e+01   3.9282752732e+01     0.179647    0.1548671 -89.89 0.0005558242    1.068    0.063
        13 -10.5834    133.0411      7.8541   7.1595012986e+01   5.0439551878e+01     0.359625    0.2979336 -81.81  0.001984372    1.403    0.287
        14  -8.0999    166.1056      7.5212   6.6204218875e+01   4.2656684778e+01    0.2500961    0.1994456 -10.02  0.001510494    1.581    0.367
        15  -7.4945    166.4986      2.4920   6.4776000243e+01   4.3020766466e+01    0.2549048    0.1324983 -21.64  0.001261252    2.378    0.579
        16  -9.7955    160.0730      4.2712   6.6151061717e+01   4.4402113699e+01    0.3195173    0.2564119 -52.23 0.0009675131    1.383    0.277
        17  -9.6368    175.6723      2.9786   6.3726189061e+01   4.0772946777e+01    0.3119638     0.224038 -27.74  0.001846352    1.648    0.393
        18  -8.0742     15.2497      5.0481   1.0710255759e+02   7.0802968495e+01    0.1480625    0.1030566 -18.26 0.0004521098    1.102    0.093
        19  -9.2517    180.9718      2.1137   6.2860154729e+01   3.9578326230e+01    0.1862902    0.1714878  88.97 0.0003632674    1.126    0.112
        20  -9.3880    147.0240      2.7545   6.7657277815e+01   4.7628401876e+01    0.3192135    0.1886772  67.95  0.001709378    1.465    0.317
        21  -9.2768    126.6280      2.2585   7.0969068362e+01   5.2365296569e+01    0.2401143    0.1422375  72.95   0.00125879    1.742    0.426
        22 -10.3538    150.8948     36.1587   7.7017636998e+01   4.3195888894e+01    0.4817655    0.3263754  84.90  0.001911217    1.811    0.448
        23  -9.6171    214.5159    117.5918   8.6897981149e+01   1.4053948576e+01     0.360096    0.2480474  33.10 0.0005388049    1.815    0.449
        24  -9.2605    231.7332    117.5779   8.3908980271e+01   1.0251491383e+01    0.2734896    0.1387748  48.45  0.001141675    2.132    0.531
        25  -9.7365    233.4910    112.4058   8.2431500729e+01   1.0814863700e+01    0.3166593    0.2336118 -44.09 0.0007439702    1.244    0.196
        26  -8.0005    210.5174    114.4904   8.6882835897e+01   1.5556053931e+01    0.1512021    0.1432788 -58.86 -7.233719e-06    1.001    0.001
        27 -10.2870    225.5788    111.9316   8.3629104237e+01   1.2636001942e+01    0.4329089    0.2534229  54.67  0.001422431    1.815    0.449
        28  -9.7711    220.2531    112.5315   8.4680631475e+01   1.3714632930e+01    0.3371455    0.2205767  68.68  0.001345218    1.828    0.453
        29  -8.4294    226.9545    106.7045   8.2175542989e+01   1.3287768511e+01    0.2499266    0.1950869 -31.02 0.0006812417    1.335    0.251
        30  -8.3565    217.2934    106.0255   8.3642672711e+01   1.5596969800e+01    0.2161113    0.1855589 -48.56  0.001138614    1.098    0.089
        31  -8.2992    197.1366    105.1451   8.7088461052e+01   2.0475553071e+01    0.2286271    0.2084635  22.26 0.0004285191    1.268    0.211
        32  -7.9266    226.4926     99.0889   8.0460664524e+01   1.4767402439e+01    0.2254621    0.1359622 -40.89 0.0005930268    1.552    0.356
        33  -7.4941    210.4895     99.5661   8.3260290102e+01   1.8369955843e+01    0.1503909    0.1402242 -70.51 0.0001306902    1.018    0.018
        34  -9.5156    230.3722     96.9232   7.9338960078e+01   1.4279897247e+01    0.4682478    0.3156543 -88.70  0.002136725    1.961    0.490
        35 -10.3817     12.4251    200.5436   1.4682095722e+02   3.1525342438e+01    0.6587781     0.253538 -82.00  0.003295307    2.236    0.553
        36  -9.2876    210.8109     92.4585   8.1459007996e+01   1.9591032601e+01     0.408352    0.3324153  58.38  0.000791215    1.260    0.207
        37  -8.8943    188.4385     91.1187   8.5173631819e+01   2.5220277236e+01    0.3906413    0.2427102 -55.93 0.0009849198    1.764    0.433
        38  -9.1978    224.7958     90.1740   7.8620767717e+01   1.6733913434e+01    0.3413397    0.2418764  57.86 0.0007129108    1.471    0.320
        39  -7.0504    202.6852     87.7283   8.1686708346e+01   2.2382773308e+01      0.14388    0.1187785  23.93 0.0002612108    1.557    0.358
        40  -7.6095    211.4838     83.5043   7.9139370339e+01   2.1018306921e+01    0.1496739    0.1360088 -72.34 0.0001593029    1.025    0.025
        41  -9.2160    174.0409     79.3596   8.4866569159e+01   3.0884957719e+01    0.5118523    0.3591098  41.84  0.002365034    1.544    0.352
        42  -7.2037    206.4359     81.4632   7.9469055137e+01   2.2583704438e+01    0.1483535    0.1375083 -73.53 0.0002567222    1.006    0.006
        43  -8.4526    156.6848     80.4742   8.8845381832e+01   3.4908096990e+01    0.2902401    0.2305873   1.26 0.0007316938    1.655    0.396
        44  -8.3088    103.4983     76.7582   1.0132612929e+02   4.7272749255e+01    0.4291551    0.2402412 -17.96  0.001559031    3.141    0.682
        45  -7.7887    181.2620     74.2839   8.2082170158e+01   2.9991112118e+01     0.255124    0.1877135 -36.26 0.0008787182    1.415    0.293
        46  -7.9765     79.8006     74.9825   1.0797323548e+02   5.1779094097e+01    0.1937207    0.1536431  59.16  0.001051916    1.640    0.390
        47  -8.0521    211.8324     73.2088   7.6543234727e+01   2.2687507614e+01    0.2068285      0.18024 -77.26 0.0005146437    1.083    0.077
        48  -9.2956    202.5240     70.8872   7.7451018168e+01   2.5327664366e+01     0.568962    0.2488751 -47.94    0.0021724    2.325    0.570
        49  -9.4741    196.5556     65.0166   7.6928448250e+01   2.7749589898e+01    0.4153884    0.2273911  56.28 0.0008709502    1.771    0.435
        50  -8.4209    201.8493     61.2013   7.5100315026e+01   2.7053554916e+01    0.4823736    0.2514132  42.11  0.001920207    2.514    0.602
        51  -7.4942    201.2943     58.2935   7.4448245767e+01   2.7641302666e+01    0.1923009    0.1598455  74.98 0.0001879575    1.138    0.121
        52  -8.1080     61.5018     78.4932   1.1492266818e+02   5.3746292558e+01    0.2303665    0.1295751  32.22  0.000767158    1.955    0.488
        53  -9.6454    168.9563     67.2757   8.2535631860e+01   3.4212271267e+01    0.4049813    0.3366145  20.34  0.002059813    1.474    0.322
        54  -7.7585    156.4639     65.4781   8.4586102647e+01   3.7564707113e+01    0.1473482    0.1413246  60.75 6.362515e-05    1.015    0.015
        55  -8.3985    209.4287     65.3688   7.4975179620e+01   2.4546269287e+01    0.2430065    0.2125783 -51.36 0.0005825985    1.130    0.115
        56 -13.6587    236.3008     60.7206   7.0143753011e+01   1.8950878465e+01     2.206941    0.8820338  66.76  0.008806257    2.659    0.624
        57  -9.4213    194.5799     71.0731   7.8830957819e+01   2.7245172673e+01    0.3561695    0.2076069  58.56 0.0005670275    1.672    0.402
        58  -7.1799    187.5128     58.5009   7.6731155099e+01   3.1014528572e+01    0.1447121    0.1360636  61.91 3.631409e-05    1.110    0.099
        59  -8.5750    149.6398     57.0900   8.3572021767e+01   4.0549989994e+01    0.3196542    0.1709665  42.05  0.001328838    1.984    0.496
        60  -7.8510    206.7723     55.8065   7.2996357464e+01   2.6681017967e+01    0.1887444    0.1789329  87.59 0.0003764144    1.106    0.096
        61  -9.1760    181.8372     54.8764   7.6727307562e+01   3.2977930648e+01    0.2599447    0.2158207  79.36  0.000383595    1.163    0.140
        62  -7.8543    170.2568     52.1880   7.8044010929e+01   3.6253891300e+01     0.278528    0.1827263 -85.71  0.001221307    2.026    0.506
        63  -7.4665    187.5972     47.8442   7.3887864160e+01   3.2579410793e+01    0.2064479    0.1214396 -48.65 0.0009419608    1.751    0.429
        64  -7.9445    181.1255     46.9424   7.4698011096e+01   3.4315077071e+01    0.2043863    0.1909521  75.65 0.0003317582    1.050    0.048
        65  -8.9924    152.1080     46.4095   7.9858593890e+01   4.1532567929e+01    0.2635278    0.2176662 -80.99 0.0007419417    1.374    0.272
        66  -9.2950    193.1459     44.9054   7.2257214821e+01   3.1621005323e+01    0.2568392    0.2333148 -24.32 0.0004887216    1.299    0.230
        67  -9.9119    195.5534     40.6857   7.0815010233e+01   3.1609324570e+01    0.2983931    0.2373791 -31.98 0.0003175769    1.414    0.293
        68  -6.9960    189.5752     42.4889   7.2168509137e+01   3.2839784220e+01    0.1399431    0.1272747  84.97 0.0001465532    1.023    0.022
        69 -10.7112    122.9111     35.5007   8.2784480212e+01   4.9779399863e+01    0.5257021    0.3764919  -7.81  0.001280596    1.638    0.389
        70  -7.3493    189.5122     38.9135   7.1242433656e+01   3.3339462871e+01    0.1959332    0.1374574 -35.97  0.000766519    1.526    0.345
        71  -9.5913      5.2288    202.5595   1.4828194293e+02   3.1785083064e+01    0.4878566    0.1825683 -76.38  0.002573645    2.097    0.523
        72  -8.9093    160.8449     34.7588   7.4761569270e+01   4.0956609821e+01    0.3347959    0.2553794 -60.58  0.001799365    1.461    0.315
        73 -10.1373    136.6872     32.4283   7.8719351389e+01   4.7026085730e+01    0.4352416    0.2281701 -46.43  0.001938474    2.297    0.565
        74  -8.4644    192.3878     31.7614   6.8977536760e+01   3.3558318779e+01    0.1905415    0.1699937 -18.50 0.0005849685    1.379    0.275
        75  -9.4824      8.2093    198.4239   1.4744658088e+02   3.2376961863e+01    0.2616286    0.1576918  63.91  0.001195472    1.443    0.307
        76  -7.6487    196.9488     27.8592   6.7374184598e+01   3.2925674308e+01    0.1805174    0.1566211  65.40            0    1.158    0.136
        77  -8.2794    162.5049     27.7191   7.2442391538e+01   4.1405244567e+01    0.2419375    0.2094487  34.22 0.0006827017    1.269    0.212
        78  -7.3827    185.2480     27.7261   6.8933779484e+01   3.5813415864e+01    0.1307103   0.09463033 -71.23 0.0001850345    1.448    0.309
        79  -8.7245    154.3478     24.6111   7.2932416921e+01   4.3742470477e+01    0.2271075    0.2109701 -61.68 0.0006761788    1.169    0.145
        80  -8.7539    201.4487     28.0139   6.6833290230e+01   3.1809508828e+01    0.2094971    0.1621906 -82.73 0.0003816079    1.202    0.168
        81  -7.4315    175.5623     23.7651   6.9280963761e+01   3.8661592600e+01    0.1803516    0.1195821 -47.84 0.0009367994    1.603    0.376
        82  -9.1856    180.7591     21.1436   6.7832287640e+01   3.7683710479e+01    0.2202781    0.1881411  62.72 0.0004057697    1.124    0.110
        83  -7.8522    190.1208     21.2983   6.6609255348e+01   3.5373830751e+01    0.1775578    0.1455179  84.34 0.0003324108    1.071    0.066
        84  -7.9031    174.0867     19.6421   6.8379004572e+01   3.9484899501e+01    0.1856419    0.1424661  68.32 0.0003009311    1.139    0.122
        85  -8.5473    163.6477     18.9669   6.9762008238e+01   4.2105294380e+01    0.2776444    0.1857415 -59.36  0.001449496    1.720    0.418
        86 -10.6098    170.6915     36.9550   7.3687281379e+01   3.8255744786e+01    0.2803257    0.2349818  79.71 0.0004454542    1.130    0.115
        87  -8.0288    184.1022     17.5920   6.6447825504e+01   3.7259589923e+01    0.1863738    0.1393017  70.60 0.0003710176    1.165    0.141
        88  -9.8523      9.2923    205.2859   1.4773642185e+02   3.0831225095e+01    0.3982573    0.2257058  88.54  0.002531658    1.378    0.274
        89  -9.7065     37.2795    182.9791   1.4031258625e+02   3.2772753606e+01    0.3327417     0.246232 -62.98  0.002102399    1.367    0.268
        90  -7.5786    191.9234     16.1863   6.5089316704e+01   3.5507978100e+01    0.2171506    0.1582986 -72.04  0.001227034    1.360    0.265
        91 -10.1016     41.5590    179.2401   1.3898650727e+02   3.3133064985e+01    0.3195441    0.3045153  -5.00  0.001394921    1.521    0.342
        92  -8.4720    124.6446     15.6659   7.5783996624e+01   5.1618432174e+01     0.142867   0.08440483  33.08 6.233699e-05    1.795    0.443
        93 -10.0729     50.2276    172.6548   1.3627704947e+02   3.3617088467e+01    0.5279451    0.2931202  86.74  0.002541038    2.018    0.505
        94  -9.8904     55.4088    167.3478   1.3438803365e+02   3.4210233731e+01    0.3972149     0.202974 -72.94  0.001886239    1.819    0.450
        95 -10.2753    179.0661    150.9500   1.0185172779e+02   1.5295544788e+01    0.7633421    0.5680162 -66.65  0.003500633    1.600    0.375
        96 -11.2089    242.0568    138.3347   8.6857192799e+01   4.3335449896e+00     1.006879    0.5457612 -52.07  0.004353577    2.037    0.509
        97  -9.8412    247.7954    131.9339   8.4511074501e+01   4.3407031682e+00    0.4325809    0.3199343 -51.37  0.002258402    1.328    0.247
        98  -8.8354    227.8356    138.1448   8.9268095476e+01   7.2656252978e+00    0.2650165    0.2335118 -70.37 0.0003668059    1.257    0.205
        99  -7.9151    220.8355    138.0481   9.0510768648e+01   8.7599802832e+00    0.2403439    0.1662398 -16.09  0.000658362    1.892    0.472
       100  -7.3485    208.5263    137.4759   9.2695689907e+01   1.1535282284e+01     0.150034    0.1442317 -22.96 0.0008090281    1.053    0.051
       101 -14.3054    242.6387     33.6727   6.3474144751e+01   2.1412057677e+01     1.260257    0.3514281  54.47   0.00443982    4.156    0.759
       102  -7.8769    225.5471    130.2901   8.7889492580e+01   9.2205232615e+00    0.2745316    0.1346754 -42.79 0.0009040324    1.905    0.475
       103 -10.3267    232.8213    127.6619   8.6028972922e+01   8.1659365722e+00    0.5093928    0.2507054 -53.87    0.0019647    2.424    0.588
       104  -8.3248    212.6448    127.2265   8.9521148568e+01   1.2623005482e+01    0.2117103    0.1379656 -31.93 0.0004158143    1.617    0.381
       105 -13.0215    243.6319     94.6743   7.6838337063e+01   1.1758264274e+01     2.080651     1.048798 -54.29   0.00880977    2.091    0.522
       106 -12.6967    227.2768     55.7685   7.0159219864e+01   2.1786419246e+01    0.7325516    0.3799955 -27.46  0.001489536    2.472    0.596
       107  -7.9471    169.7710    207.5095   1.1522510015e+02   5.7274926532e+00    0.2407007    0.1923263 -47.64 0.0007060328    1.369    0.269
