#   1 NUMBER                 Running object number                                     
#   2 MAG_AUTO               Kron-like elliptical aperture magnitude                    [mag]
#   3 X_IMAGE                Object position along x                                    [pixel]
#   4 Y_IMAGE                Object position along y                                    [pixel]
#   5 X_WORLD                Barycenter position along world x axis                     [deg]
#   6 Y_WORLD                Barycenter position along world y axis                     [deg]
#   7 A_WORLD                Profile RMS along major axis (world units)                 [deg]
#   8 B_WORLD                Profile RMS along minor axis (world units)                 [deg]
#   9 THETA_WORLD            Position angle (CCW/world-x)                               [deg]
#  10 FWHM_WORLD             FWHM assuming a gaussian core                              [deg]
#  11 ELONGATION             A_IMAGE/B_IMAGE                                           
#  12 ELLIPTICITY            1 - B_IMAGE/A_IMAGE                                       
         1 -11.7427    185.1565     80.4773   5.9967174738e+01   2.7552540713e+01     3.357002     1.107101 -36.41  0.003717709    2.916    0.657
         2 -11.8193    218.5595     63.2862   4.9945530124e+01   2.2301603523e+01      1.39589     1.161993  12.76  0.007557962    1.554    0.356
         3 -13.2996    243.2261    113.0250   5.8372397609e+01   8.9577174525e+00     4.815151    0.8954901 -36.04   0.01321576    4.683    0.786
         4 -13.8595    233.9474     32.7554   4.0703590162e+01   2.2988058883e+01     8.238243    0.9317372  57.55   0.02266953    6.418    0.844
         5 -11.7146    178.0858     71.1816   5.8682994890e+01   3.0882178085e+01     1.005141    0.5711893 -37.60  0.002110697    1.728    0.421
         6 -13.0946    232.5544     59.4758   4.7180161196e+01   1.9667896823e+01     3.568046     1.119468 -47.11  0.007738526    3.158    0.683
         7 -10.1630    132.9734     19.6958   5.1117026727e+01   4.9358467769e+01    0.6881295    0.3589955  40.95  0.003065789    1.922    0.480
         8  -8.1593    236.5627      8.5161   3.4997081226e+01   2.5234319578e+01    0.2022258    0.1679458  70.62  0.000565028    1.298    0.230
         9  -9.7425    233.2246      6.3901   3.4782290140e+01   2.6201071789e+01    0.5033277    0.2333054 -30.29  0.002421787    2.204    0.546
        10  -7.9561    214.4210      9.5214   3.7061813727e+01   3.0182803633e+01    0.1273442    0.1105731 -79.03 8.763089e-05    1.028    0.027
        11  -7.3924    224.6650      8.6403   3.5968812978e+01   2.7896758741e+01    0.1240106   0.09191578  39.98 0.0007039453    1.810    0.447
        12 -10.1242    247.6941      3.1427   3.3060973029e+01   2.3398005431e+01    0.4460069    0.3034551  79.22  0.002831592    1.400    0.286
        13  -7.5895    207.1423      7.5793   3.7256711202e+01   3.2109577533e+01    0.1555727    0.1086702  63.96 0.0002142887    1.390    0.281
        14  -7.6076    123.4800      6.9788   4.8403643854e+01   5.2879070391e+01    0.1777465    0.1326884 -15.79 0.0004123249    1.488    0.328
        15  -8.1278    217.8545      4.4659   3.5564463659e+01   2.9898972689e+01    0.2042314    0.1539577 -40.39 0.0005943227    1.338    0.253
        16  -8.0159    185.2996      4.8656   3.8746057862e+01   3.7695565719e+01    0.2141732    0.1462686 -55.93  0.001174361    1.477    0.323
        17  -7.7455    209.1641      3.0091   3.5956735323e+01   3.2082852006e+01    0.1605897    0.1394136 -63.29 0.0003255275    1.107    0.096
        18  -8.0075    146.4366     10.2642   4.5490298842e+01   4.6940014458e+01    0.2321348    0.1382876 -14.59  0.001125437    1.998    0.499
        19  -9.1800     59.1693    186.5143   1.1416328130e+02   2.8630833786e+01    0.2192404    0.1861541  89.57 0.0004266688    1.060    0.057
        20  -9.7720     21.8958    181.4423   1.2196330679e+02   3.3924787329e+01    0.3548656    0.1420848  75.16  0.001477833    3.125    0.680
        21  -8.9011    195.7528    178.8334   8.1756896631e+01   6.7249457581e+00    0.2346585     0.202913  25.25 0.0002957824    1.089    0.082
        22  -7.4858    181.4533    176.4736   8.4271819917e+01   9.8829238551e+00    0.1423432    0.1363255  28.05 0.0001073836    1.106    0.096
        23 -11.0575     14.2267    169.8199   1.2271505860e+02   3.7233457050e+01    0.6311901    0.2313781 -83.10  0.002814195    2.537    0.606
        24 -10.7003     19.1966    166.5201   1.2131015551e+02   3.7553099527e+01    0.5671598     0.132621  29.94   0.00222152    4.206    0.762
        25  -8.6936     60.0851    171.0069   1.1209082822e+02   3.2082030652e+01    0.1905756    0.1682179  88.51 0.0002793258    1.032    0.031
        26 -11.9388     34.8265    166.0979   1.1760619697e+02   3.6152543188e+01    0.6403555    0.5858785 -80.73  0.001615588    1.179    0.152
        27 -11.8489     45.5983    159.8269   1.1425762489e+02   3.6473589446e+01    0.8898623    0.7300295 -64.68  0.002798285    1.191    0.161
        28  -7.5650    223.3204    247.6563   8.8787687182e+01  -8.0923652402e+00    0.1026353   0.09048273  47.53 0.0007049818    1.725    0.420
        29  -8.1549    161.0236    129.8050   7.8373824039e+01   2.3590095414e+01    0.3005357    0.2048936 -55.91  0.001051797    1.663    0.399
        30  -8.4671    182.5031    127.4803   7.2962161768e+01   1.9292074247e+01    0.1557799    0.1479119  -7.19 7.094628e-05    1.032    0.031
        31  -9.7893    199.2790    124.8753   6.8863642644e+01   1.6085288506e+01    0.2677111    0.2486968 -28.31 0.0002460206    1.028    0.028
        32  -8.8341    142.9680    126.0276   8.1836947489e+01   2.8358380970e+01     0.227027    0.2230762 -29.53 -0.002661949    1.009    0.009
        33  -7.3757    230.7059    243.3174   8.6776887560e+01  -8.6081182104e+00   0.09945973   0.09018397  35.44 0.0004828303    1.605    0.377
        34  -8.4190    204.3718    121.6286   6.7075918934e+01   1.5577746773e+01    0.3060657    0.2387314   7.96  0.001191754    1.538    0.350
        35  -9.3720    185.5565    120.7421   7.0624859254e+01   1.9938005259e+01    0.3990912      0.14489 -41.73  0.001309206    2.668    0.625
        36  -9.0456    162.2557    119.9920   7.5598390697e+01   2.5379056259e+01     0.469994    0.2809841 -63.19  0.001181971    2.525    0.604
        37  -7.3855    105.7195    119.9997   9.0393188419e+01   3.7294271821e+01    0.1828393    0.1321958 -50.63 0.0003005042    1.335    0.251
        38  -9.2970    135.1904    109.6280   7.9563784219e+01   3.3657396099e+01    0.6657998     0.240486 -46.86  0.002111174    2.807    0.644
        39  -8.5247    202.2665    114.7279   6.5764099496e+01   1.7323325132e+01    0.3519523    0.2002507  40.91  0.001283523    1.914    0.477
        40  -9.5596    202.9872    110.9961   6.4688840132e+01   1.7850257019e+01    0.4996767    0.2997383  45.30  0.002179673    1.753    0.429
        41  -8.5811    247.2194    241.8050   8.3641071874e+01  -1.0679414898e+01    0.1654044     0.128788  11.93 0.0005799127    1.137    0.121
        42  -8.8443    202.0409    104.2686   6.3154155871e+01   1.9294777868e+01    0.2752599    0.2165565 -35.93 0.0009752954    1.209    0.173
        43  -7.4728    167.6921    113.3489   7.2608812801e+01   2.5504000485e+01    0.1624981    0.1263048 -76.36 0.0007043626    1.707    0.414
        44  -8.6898    149.9139    101.1694   7.3479005527e+01   3.2121987485e+01    0.3354374    0.2762073   8.42   0.00070028    1.435    0.303
        45  -8.0286    146.4454    100.4462   7.4131673888e+01   3.3073375149e+01    0.2385413     0.201858 -52.64 5.601664e-05    1.229    0.186
        46  -8.5279     89.0206     99.9843   9.0284292785e+01   4.4959098087e+01    0.2123738    0.1999244 -59.14  0.001169292    1.089    0.082
        47  -8.5017    135.7578     97.5059   7.6024316508e+01   3.6121904582e+01     0.299091     0.262585 -87.53 0.0009807382    1.354    0.261
        48  -8.5877    159.4943     95.5283   6.9606188762e+01   3.1000015867e+01    0.3050987    0.2602549  19.80  0.001482059    1.299    0.230
        49  -9.5811    162.3238     94.3241   6.8617698152e+01   3.0559161244e+01     0.306835    0.3004994  -3.47  0.001620444    1.022    0.022
        50  -8.0007    107.8127    238.2296   1.0966535498e+02   1.1159034779e+01    0.1842941    0.1379463  58.37 0.0007625367    1.187    0.157
        51  -9.1060    143.9998     90.9509   7.2004384744e+01   3.5568731918e+01    0.3305377    0.2979111 -46.79 0.0007992553    1.125    0.112
        52 -10.3221    159.6590     85.1979   6.6592555795e+01   3.2943325810e+01    0.3691975    0.2937087 -21.58  0.001062406    1.364    0.267
        53 -10.3590    105.3718     79.9329   7.9309031560e+01   4.6286301501e+01    0.2558208    0.2318924  34.86 0.0002994146    1.128    0.114
        54  -8.9575    201.6547     77.4883   5.6215713560e+01   2.4058658034e+01    0.3690024    0.2511608 -28.69  0.001155893    1.520    0.342
        55  -9.8197    196.1094     75.1052   5.6517222403e+01   2.5791284931e+01    0.3340198    0.2721049  37.92  0.001027561    1.361    0.265
        56  -9.9917    201.8307     72.2648   5.4796012408e+01   2.4871602353e+01    0.4434525    0.2681979  41.86  0.001019872    1.922    0.480
        57  -7.7231    117.0504     78.2793   7.5333215496e+01   4.4177926668e+01    0.2074421    0.1969851  23.18 0.0005588913    1.047    0.045
        58  -7.6562    110.5072     73.4948   7.5695511405e+01   4.6509893247e+01    0.1509481    0.1439537  -5.86 0.0008105935    1.013    0.013
        59  -8.4504    218.0984    231.1035   8.7053885169e+01  -5.2268454257e+00    0.1794161    0.1464762  14.58  0.000308502    1.069    0.064
        60  -8.2535    196.9071     63.4696   5.3225115602e+01   2.7463379678e+01    0.2748851    0.1818629 -49.08 0.0006702293    1.508    0.337
        61  -9.6097     68.1527    144.3825   1.0609255731e+02   3.7417645098e+01    0.6422626    0.3563571  60.34  0.002761557    2.280    0.561
        62 -10.1294    248.9402     56.7198   4.4645854712e+01   1.6502838837e+01    0.3727553    0.3169847 -49.71  0.001378033    1.040    0.038
        63 -10.1919    249.5729     47.8458   4.2582083446e+01   1.7597547809e+01     0.549355    0.3173487 -40.27  0.002245076    1.497    0.332
        64  -7.8236    244.4855     48.5730   4.3269613525e+01   1.8584609286e+01    0.2196778    0.1742009 -81.92 0.0005966707    1.250    0.200
        65  -9.2430    131.7014     62.2728   6.6138155131e+01   4.3796963025e+01    0.3222518    0.1653904  33.61  0.001172052    2.490    0.598
        66  -9.0797    217.0534    213.6289   8.4219794692e+01  -2.6242612450e+00    0.2789809    0.2502055 -71.90  0.001413386    1.852    0.460
        67  -8.5531    196.0800     53.3089   5.0585419192e+01   2.9195780563e+01    0.3126126    0.1947918 -40.80 0.0006982051    1.551    0.355
        68  -9.6767    143.6657     47.5152   5.8404128640e+01   4.3221915593e+01    0.3454389    0.2414322 -23.31  0.001646532    1.552    0.356
        69 -10.9261    148.3668     44.3951   5.6379158894e+01   4.2496292199e+01    0.5847765    0.4004643 -57.57  0.002048168    1.774    0.436
        70 -10.8354    140.3343     41.6090   5.7154883315e+01   4.4882997030e+01    0.6960063    0.4360505  78.15  0.002971548    2.121    0.529
        71  -8.6875     59.0520    147.2510   1.0902519720e+02   3.7909384884e+01    0.2938425    0.1360064 -43.94  0.001177755    2.652    0.623
        72  -9.7024    123.1915     38.8912   6.0170690200e+01   4.9407840500e+01     0.321446    0.3040783 -70.70  0.001849668    1.221    0.181
        73  -7.9163    187.8813     33.1302   4.6208215390e+01   3.3973099059e+01    0.2109222    0.1683562 -61.75 0.0007380038    1.255    0.203
        74  -9.8720    149.6693     32.7474   5.2309431495e+01   4.3705901427e+01    0.2656743    0.2318037 -68.79  0.001470884    1.258    0.205
        75  -7.9237    133.3591     33.2390   5.5797897740e+01   4.7701668364e+01    0.1864405    0.1293806 -38.83 0.0002079856    1.553    0.356
        76  -7.8047    163.8433     24.7839   4.7326716221e+01   4.1053799795e+01    0.1973771    0.1681925  48.77 0.0003143306    1.162    0.139
        77  -9.1174    205.3111    208.2179   8.5495419683e+01   1.1220215311e-01    0.2628894    0.1835459  36.10 0.0002496808    1.331    0.249
        78  -8.1728    200.5076     21.4922   4.1474511654e+01   3.2223119632e+01    0.1350183    0.1201382 -83.73 0.0008105974    1.002    0.002
        79  -8.8027    240.6284     17.3429   3.6617105795e+01   2.3359131502e+01    0.2310031    0.1695737  32.68  0.001315803    2.068    0.516
        80  -7.9047    159.5537     15.0043   4.4968576281e+01   4.3182929454e+01    0.1871565    0.1375541 -22.64 0.0004679635    1.528    0.345
        81 -10.5064    236.6128    207.0011   7.9400670080e+01  -4.7409090548e+00    0.2470099    0.1978344  11.85 0.0003711598    1.070    0.065
        82  -9.1195    206.1883    203.6731   8.4491263986e+01   6.7590103374e-01    0.2467449    0.2010146  -1.20 0.0002884786    1.141    0.123
        83  -9.0089    206.9991    198.9945   8.3457674466e+01   1.2817588030e+00    0.2670437    0.2285417  -8.40 0.0003234076    1.104    0.094
        84  -7.3679    216.4883    199.4577   8.1710443851e+01  -4.0207005037e-01    0.1344127    0.1132638   7.71 3.120095e-05    1.003    0.003
        85  -8.2410    233.4831    195.0220   7.7691992081e+01  -2.5216319287e+00    0.2139571    0.1761884  44.49 0.0005983188    1.532    0.347
        86 -10.2983    174.4493    194.1819   8.9206314757e+01   7.9143220656e+00    0.2473529    0.2341962  23.58 0.0003220474    1.087    0.080
        87  -8.2910    191.8343    192.0764   8.5179123201e+01   5.1155701997e+00    0.3432677    0.2262556 -64.91  0.001496764    2.747    0.636
        88  -8.1814    126.8381    193.0580   9.9527726440e+01   1.6773282876e+01     0.196529    0.1834162  45.96 0.0003597507    1.035    0.034
        89 -11.0978      2.7692    187.1457   1.2635081663e+02   3.4367778184e+01    0.5671154    0.2941919 -69.91  0.002740765    1.690    0.408
        90 -10.3590      2.4070    182.2102   1.2612363572e+02   3.5462105967e+01    0.3796623    0.1885945 -80.53  0.001411746    1.610    0.379
