#   1 NUMBER                 Running object number                                     
#   2 MAG_AUTO               Kron-like elliptical aperture magnitude                    [mag]
#   3 X_IMAGE                Object position along x                                    [pixel]
#   4 Y_IMAGE                Object position along y                                    [pixel]
#   5 X_WORLD                Barycenter position along world x axis                     [deg]
#   6 Y_WORLD                Barycenter position along world y axis                     [deg]
#   7 A_WORLD                Profile RMS along major axis (world units)                 [deg]
#   8 B_WORLD                Profile RMS along minor axis (world units)                 [deg]
#   9 THETA_WORLD            Position angle (CCW/world-x)                               [deg]
#  10 FWHM_WORLD             FWHM assuming a gaussian core                              [deg]
#  11 ELONGATION             A_IMAGE/B_IMAGE                                           
#  12 ELLIPTICITY            1 - B_IMAGE/A_IMAGE                                       
         1 -14.4394    192.8573     83.0339   2.4074290900e+01   2.3873542219e+01     3.281709     2.616516 -23.38   0.01545892    1.348    0.258
         2 -13.3010    195.3863     36.1424   9.6573384293e+00   3.0813141046e+01     2.405113     1.752796  -1.69  0.007123913    1.804    0.446
         3 -12.5179    199.4449     48.0464   1.2664782147e+01   2.7963128815e+01     1.689577    0.9199487  17.91  0.004532553    4.875    0.795
         4 -12.6060    226.0053     22.5868   1.9667528334e+00   2.4413701511e+01    0.6091741    0.5546385  -1.95  0.001318914    1.333    0.250
         5 -12.1814    232.8918      3.9439   3.5637422842e+02   2.4854358062e+01     1.309402    0.6893483  -6.88  0.005211921    3.121    0.680
         6 -13.9477    218.9322     56.2791   1.2190823041e+01   2.1536533851e+01     2.131787     1.491664 -84.77  0.003451953    1.673    0.402
         7 -13.8928    244.4189      8.4953   3.5663103069e+02   2.1478192563e+01      1.28819    0.6116229 -79.36  0.005404868    2.413    0.586
         8 -12.7223    221.5158      8.3176   3.5850466654e+02   2.7287327761e+01    0.7591119    0.3568243 -59.54  0.001300015    2.217    0.549
         9 -11.6289    210.5860     21.3422   3.2826875260e+00   2.8638811157e+01    0.6321877    0.4039487  49.33  0.001904618    1.747    0.427
        10 -12.1536    204.7077     18.1576   3.0243284098e+00   3.0617088516e+01    0.6783215    0.3633348 -74.21  0.001172465    2.260    0.557
        11 -14.2895     10.4277     68.4190   7.2889732960e+01   6.0859113310e+01     1.907648     1.444193 -22.81   0.01296154    1.662    0.398
        12  99.0000     30.8738     21.4602   5.0646847332e+01   6.9135679937e+01     1.127969    0.7197076 -63.17  0.006230291    2.089    0.521
        13 -14.0926     94.8674     71.5967   4.4558637501e+01   4.9681724277e+01     2.306378     1.391417 -67.61  0.009335765    2.300    0.565
        14 -13.8627     58.4173     64.6773   5.4610834376e+01   5.7121495614e+01     2.167643     0.896975 -45.03  0.009016196    2.232    0.552
        15 -14.1561     11.9869     38.2643   6.5525358728e+01   6.7365766180e+01     1.398815     1.039805 -77.15  0.009400017    1.430    0.301
        16 -12.8792     24.6047     39.8707   6.0406433637e+01   6.6111532014e+01     1.557839    0.4874459 -55.91  0.006812934    2.408    0.585
        17 -11.5383     78.6063      9.7708   2.4973462955e+01   6.3743924848e+01     0.291022    0.2196546  31.86  0.001503249    1.275    0.215
        18 -13.3695     56.7658      4.1356   3.0106837215e+01   6.8389721797e+01     0.630101    0.3419054  46.75 0.0007084082    2.034    0.508
        19 -11.6854     47.3641      2.1997   3.3048585856e+01   7.0114581460e+01    0.4048423    0.2761613 -14.06  0.001445452    1.312    0.238
        20 -12.3030     51.0705     21.1792   4.1253252989e+01   6.6726219842e+01     2.074858     1.746752 -71.71  0.009231614    1.800    0.444
        21 -14.0329     42.6814     55.9149   5.7870189094e+01   6.0959529712e+01     1.874043     1.163193 -14.77  0.008064415    2.428    0.588
        22 -12.2597     80.2988     22.9938   3.0757890193e+01   6.1585723587e+01    0.6439807    0.4801706  -0.18  0.003498643    1.444    0.307
        23 -12.5825     72.9432     24.9283   3.4266420494e+01   6.2636278868e+01     0.476097    0.3777076 -34.53 0.0003239368    1.199    0.166
        24 -12.9825    174.6021     41.2887   1.4608009837e+01   3.5798477029e+01     2.805369     1.510262  12.76  0.007524014    5.186    0.807
        25 -13.9660    116.7452     62.9039   3.5214617470e+01   4.6931521677e+01     1.237856     1.034423  50.09  0.002449438    1.238    0.192
        26 -11.8144    219.9793     29.3326   4.4865968162e+00   2.5116019032e+01     1.680005    0.8062714  84.82  0.006322092    2.564    0.610
        27 -12.9502    176.3189     23.5339   8.4628117908e+00   3.7780523231e+01    0.3819247    0.3468151  27.59 0.0005446373    1.233    0.189
        28  99.0000    244.0887     18.2938   3.5912905546e+02   2.0393139310e+01    0.5326318    0.3217884 -43.37  0.002664453    1.428    0.300
        29 -11.0828    154.9203     18.0798   1.0032965473e+01   4.4360028617e+01    0.5185283    0.2483693 -41.15  0.000695509    2.137    0.532
        30 -11.0666    150.0688     13.1160   9.0500346766e+00   4.6252998048e+01    0.2743336    0.2324406 -52.79 0.0006900901    1.240    0.193
        31 -11.6635    115.6982     10.3781   1.4839236412e+01   5.5460998847e+01    0.5332369    0.3138564  -4.99  0.001839935    2.053    0.513
        32 -10.2568    120.6373      8.9823   1.3125254839e+01   5.4393765472e+01    0.2517367    0.2076233 -21.32  0.000204028    1.249    0.199
        33 -10.3412    121.0192      4.7625   1.1246475953e+01   5.4733177802e+01    0.2479866    0.1958457   2.86 0.0005284523    1.340    0.254
        34 -10.8092    131.9840      9.8821   1.1136761502e+01   5.1408874463e+01    0.4727286    0.3452719 -54.55  0.001763195    1.573    0.364
        35 -10.4663    124.8697     10.1009   1.2683590690e+01   5.3209279810e+01    0.3802301    0.2638311  -0.47  0.001598208    1.644    0.392
        36 -10.4537     87.9534     11.8286   2.2973011612e+01   6.1597627660e+01    0.2384818    0.2212116  53.89  0.001465837    1.233    0.189
        37 -10.3180    108.8471     10.2001   1.6408501780e+01   5.7128068158e+01    0.3051287    0.1778962 -32.32  0.001434701    1.736    0.424
        38 -12.7438    173.3185      6.2403   3.1290669192e+00   4.0601959562e+01    0.5936384    0.3627266  -6.46  0.002601871    2.087    0.521
        39  -8.7124    101.3160      9.9784   1.8250549153e+01   5.8901406022e+01    0.2209099    0.1055529   2.90 0.0007011251    4.095    0.756
        40 -13.2519     65.1463     15.8078   3.2871332737e+01   6.5385448586e+01      1.63765     1.194696   8.26  0.009398638    1.445    0.308
        41 -10.7579     26.4595      9.7500   4.7397488967e+01   7.1627152204e+01    0.2539021    0.1605123 -20.12  0.001142606    1.524    0.344
        42 -11.6366    193.6135      7.5367   1.0920813993e+00   3.4864524024e+01    0.3150548     0.268776  70.06 0.0007154655    1.140    0.123
        43 -10.5090    177.2530      1.2817   1.0023835376e+00   4.0011670474e+01    0.1650134    0.1278041  57.11 0.0002441173    1.264    0.209
        44  -8.9699    156.5298      7.4729   5.9337591704e+00   4.5098913511e+01    0.1485102    0.1353909 -81.36 0.0001500669    1.095    0.087
        45 -10.4124    146.7600      5.5942   6.7937971089e+00   4.7940388977e+01    0.3081729    0.2095412  21.35  0.001360598    1.755    0.430
        46 -11.1235      2.7235      6.1204   5.8981057419e+01   7.4184601389e+01    0.2265541     0.158293 -20.99 0.0009633276    1.343    0.255
        47  -9.8603    210.5638      6.2651   3.5895741991e+02   3.0408837145e+01    0.1760612    0.1412611  -6.35 0.0005767383    1.540    0.351
        48  -8.8561     90.6856      6.3724   1.9505885932e+01   6.1661701213e+01     0.135424    0.1016297 -55.97 0.0007033395    1.786    0.440
        49 -10.1853    111.2180      4.2408   1.3175020219e+01   5.7194092493e+01    0.2725214    0.1870948  35.20  0.001198037    1.421    0.296
        50  -9.8178    183.3941      3.5954   1.0265518404e+00   3.8088620857e+01    0.4031794    0.2276243 -67.40  0.001708437    1.989    0.497
        51  -9.8673    187.2048      1.3383   3.5988608991e+02   3.7266518583e+01     0.264333    0.1247533  68.80 0.0006364771    1.910    0.476
        52 -10.0532    135.1362      2.8336   7.7160084486e+00   5.1297075702e+01    0.3149973     0.173491  19.31  0.001276708    2.441    0.590
        53 -10.8305    216.9575      2.3864   3.5728446194e+02   2.9132857819e+01    0.4615564    0.2328439  77.63  0.002032025    1.890    0.471
        54  -9.6058    207.2203      2.8687   3.5830659107e+02   3.1668251665e+01    0.1750694    0.1582323  19.10 0.0005972099    1.364    0.267
        55  -9.9404    143.4516      2.7639   6.2629291420e+00   4.9102208552e+01    0.1869213    0.1691117  88.17 0.0001915466    1.116    0.104
        56 -12.0434     85.6191      1.4083   1.8523241935e+01   6.3272375935e+01     0.390462    0.1279982  54.57 0.0009951533    2.833    0.647
        57  -9.4789    250.4205      1.4649   3.5446680830e+02   2.0826578695e+01    0.1361927    0.1097015 -60.41 0.0001616434    1.021    0.021
        58  -9.7984     15.8175    238.4182   8.5715889688e+01   2.4457416247e+01    0.1182618    0.0809555  46.50 0.0004555731    1.604    0.376
        59 -13.2015    210.3561     59.5535   1.4373078448e+01   2.3262981726e+01     2.302196     1.028229 -64.99  0.002018004    5.514    0.819
        60  -9.6806    101.1023    176.1010   6.4990529060e+01   2.4754858790e+01    0.1743267    0.1288296  71.64            0    1.209    0.173
        61 -12.6551    242.0080     60.7203   1.0327334119e+01   1.5114164124e+01    0.6677921    0.5685456 -64.26 0.0004564248    1.159    0.137
        62 -13.2756    234.7028     47.6208   7.7671944151e+00   1.8812209414e+01     2.131975     1.113114 -71.14  0.007167139    2.761    0.638
        63  -9.5709    236.7298    146.0291   3.1984998084e+01   3.0782519915e+00     0.188012    0.1634593 -10.06 0.0003112098    1.070    0.065
        64  -9.4110    184.6733    134.7086   3.9099557037e+01   1.6191008486e+01    0.1528657    0.1178273  15.95 0.0003064508    1.619    0.382
        65  -9.5502    152.8502    124.1574   4.3511118525e+01   2.5602065843e+01    0.1964524    0.1837921   5.23  0.000268827    1.247    0.198
        66 -10.0306    220.2964    121.3848   2.9146192726e+01   1.0454693190e+01    0.2811734    0.1347325  47.20 0.0009111253    2.101    0.524
        67 -11.9379     12.0074     97.0033   7.6641612629e+01   5.4179215022e+01    0.4261576    0.2129368 -57.47  0.001709909    1.726    0.421
        68 -13.0326     71.9133     73.8779   5.2631664963e+01   5.3121965032e+01     1.567501    0.7135217  35.84  0.006532839    2.549    0.608
        69 -10.8336    181.4577    118.1512   3.5777531530e+01   2.0106711261e+01    0.3603872    0.2650576 -39.87 0.0009225841    1.377    0.274
        70 -13.1040      4.5472     55.0987   7.2601882565e+01   6.4165593308e+01    0.8575234    0.4587699 -64.41    0.0029698    1.365    0.267
        71 -11.9975     10.9157     24.8756   6.1852444763e+01   7.0153136347e+01    0.4726005    0.3444527  10.68  0.001130557    1.654    0.395
        72 -11.9096     90.5553     51.2536   3.8981951107e+01   5.4707734160e+01    0.3114934    0.2343695 -50.26 0.0004397388    1.327    0.247
        73  -9.4560     72.9994    119.0062   6.2723114182e+01   4.2277132090e+01    0.1660591    0.1428687 -84.56 0.0009605256    1.009    0.009
        74 -14.1547     65.1881     84.5451   5.7673577415e+01   5.1645603908e+01     1.414216     1.086035 -32.19  0.004042226    1.537    0.350
        75 -14.2661     44.1301     72.9501   6.1896945989e+01   5.6973835654e+01     1.477878      1.35839  15.22  0.009761564    1.333    0.250
        76 -10.2729    203.6641    115.9566   3.0836037155e+01   1.5227455357e+01    0.4700561    0.2214046  66.06  0.001488356    3.486    0.713
        77 -10.5890     90.1689    113.8000   5.6986371325e+01   4.0772003853e+01    0.1989103    0.1724223 -39.51  0.001029046    1.366    0.268
        78  -9.1711    242.4940    112.4449   2.3309265396e+01   7.0197965486e+00    0.1423249    0.1307292 -17.73 4.864697e-05    1.006    0.006
        79 -11.1476    138.2561    112.3853   4.4089469344e+01   3.1459310379e+01    0.3610865    0.1957189  35.59  0.001333391    2.349    0.574
        80 -11.2042     63.7741    111.4385   6.3881213502e+01   4.5416731666e+01    0.3991323    0.1848571  65.55  0.001387216    3.761    0.734
        81  -9.1736    211.0640    112.0000   2.8477335597e+01   1.4182889377e+01    0.2501594   0.08654004  53.21 0.0008045936    2.957    0.662
        82 -10.2468     38.4585    110.4820   7.0889704383e+01   4.8696582495e+01    0.1309162    0.1041522 -81.46 2.024922e-05    1.012    0.012
        83 -11.2958    196.0423    107.7614   3.0199341451e+01   1.8546628219e+01    0.4893958     0.311109 -61.26  0.001935956    2.073    0.518
        84 -13.3706     79.9289     41.1742   3.8697910610e+01   5.8592488893e+01     1.881698     0.548831  42.35   0.00267814    3.740    0.733
        85 -11.9104    162.0646    107.3135   3.7176662650e+01   2.6955595458e+01    0.6498311    0.3415385 -60.13  0.002208993    2.712    0.631
        86 -11.7452     34.7789     52.7370   6.0040097385e+01   6.2465013305e+01    0.3034039     0.217223 -42.34 0.0006721464    1.242    0.195
        87 -12.9207     81.6207     49.7061   4.1395598032e+01   5.6665174140e+01     0.914939    0.6070909  12.94  0.004132366    2.239    0.553
        88 -11.8900     75.9715     52.0164   4.4201109710e+01   5.7181503593e+01    0.3204747    0.2188947 -51.64 0.0003158849    1.416    0.294
        89 -10.5880    153.0130    108.0547   3.9445018291e+01   2.8974659119e+01    0.2440796    0.2302674 -83.13 0.0004839731    1.041    0.039
        90 -11.7251    155.9857    105.0134   3.7950211290e+01   2.8902524192e+01    0.3292382    0.2842987  36.85  0.001347958    1.250    0.200
        91 -12.2718     47.6527     95.0678   6.5534217437e+01   5.1377850396e+01    0.4553334    0.2311302  39.62   0.00222608    2.193    0.544
        92 -10.6533    249.7759     94.3124   1.7809399900e+01   8.2408152949e+00     0.329732    0.2188001 -44.46 0.0008102997    1.450    0.310
        93 -12.1106    116.8319     93.1169   4.4536785999e+01   4.0469235492e+01    0.4230932    0.3435546 -44.80  0.001025475    1.226    0.184
        94 -12.1096    165.6097     65.6989   2.4252695370e+01   3.4202544352e+01    0.9894667    0.5332657  50.47  0.003816796    1.863    0.463
        95 -13.0538    177.1171     70.6772   2.3461967185e+01   3.0241894126e+01     1.598602    0.5137818 -45.05  0.004627769    3.282    0.695
        96 -12.9880    184.0220     57.3489   1.8061069703e+01   3.0681295176e+01     1.142798    0.8086628 -57.37 0.0005130635    1.505    0.336
        97  -9.7635     79.0671     91.4589   5.5042706964e+01   4.7929077417e+01    0.2798828    0.1599434 -28.20 0.0008990458    3.263    0.694
        98 -10.5997    172.9132     90.9754   3.0311732193e+01   2.7530831423e+01    0.2805569    0.2347454  59.34 0.0006296922    1.202    0.168
        99 -10.5509    167.8211     89.9491   3.1110103920e+01   2.9029767372e+01    0.3621442    0.2374585  62.99 0.0008193899    1.639    0.390
       100 -12.0997      5.7152     88.4389   7.7446031522e+01   5.6569053800e+01    0.4027808    0.2703854  60.80  0.002614851    1.621    0.383
       101 -11.4865    222.7021     88.4075   2.0380729242e+01   1.5425031256e+01    0.3629521    0.2448944  68.70   0.00163937    1.709    0.415
       102 -10.8977    225.8785     85.2039   1.9033390921e+01   1.5183301086e+01    0.3014008    0.2375136 -11.98  0.000502903    1.418    0.295
       103 -11.4070     51.0208     88.1737   6.3066297832e+01   5.2625824968e+01    0.3336205    0.1521682 -51.22   0.00149973    1.958    0.489
       104 -12.1367     47.5908     85.2543   6.3544500874e+01   5.3716104507e+01    0.4473994    0.2472339  23.15  0.002070212    2.464    0.594
       105 -11.9716    238.1615     86.3518   1.7480138587e+01   1.2088329287e+01    0.6590484    0.3081595  63.22  0.002112987    2.523    0.604
       106 -11.1222    231.0283     83.7364   1.7860188545e+01   1.4183210231e+01    0.3363933    0.2646416 -82.06  0.001062778    1.526    0.345
       107 -11.8640    175.7530     85.6370   2.8185116188e+01   2.7828543930e+01    0.5706145    0.3677643  28.00  0.001394086    2.203    0.546
       108 -11.5882    114.5140     87.0063   4.3444903821e+01   4.2326438998e+01    0.3438858    0.2210645  47.46  0.001455621    1.618    0.382
       109 -11.7134    147.6306     83.0949   3.3697589480e+01   3.5492054552e+01    0.7376235    0.4367066 -43.94   0.00294899    1.661    0.398
       110 -10.3618     30.7178     85.0739   6.9007949457e+01   5.5479411974e+01     0.229513    0.1844467 -89.69 0.0007348935    1.199    0.166
       111  -9.6963    234.9561    108.5436   2.3548668725e+01   9.2807632757e+00    0.2022683     0.143827  51.23 0.0003110218    1.489    0.329
       112 -12.2472     83.3052     83.9810   5.1791326071e+01   4.8976541871e+01    0.2677349     0.246775  51.12  0.000561509    1.187    0.157
       113 -11.7608    161.6435     84.3041   3.0822528792e+01   3.1718164734e+01    0.8434637    0.5214695  42.06  0.003402689    1.770    0.435
       114 -12.1312    114.3415     80.6053   4.1599384591e+01   4.3770194416e+01    0.5518076    0.4924048 -51.41  0.002432936    1.071    0.066
       115 -11.6756    222.1561     79.9379   1.8211078055e+01   1.6955394981e+01    0.4445184     0.304936 -79.92  0.001921329    1.968    0.492
       116 -12.3397    168.5419     79.7477   2.7963312219e+01   3.0822057230e+01     0.650966    0.4896004 -47.29  0.001460309    1.320    0.242
       117 -10.5783    232.8053     79.1741   1.6402840435e+01   1.4486193572e+01    0.3942423    0.2152409  70.64   0.00159134    2.301    0.565
       118 -11.2150    249.3261     82.6860   1.4985820989e+01   1.0110567752e+01    0.4537908    0.3564509  32.52  0.002400636    1.490    0.329
       119 -10.3773    161.9030     77.4292   2.8698752766e+01   3.2990133549e+01    0.2622837    0.2140182 -54.41 0.0006391117    1.240    0.194
       120 -10.7103    155.9375     76.6572   2.9795606180e+01   3.4677608554e+01    0.4151157    0.3090453  75.33  0.001255137    1.543    0.352
       121 -11.4982    249.9285     74.8004   1.2925928559e+01   1.1164828582e+01    0.3500586    0.2657287 -31.94 0.0006853633    1.194    0.162
       122 -10.9852    249.1667     68.5973   1.1454701978e+01   1.2265039892e+01    0.4822674    0.2817246 -19.73  0.001606374    1.933    0.483
       123 -11.5087    233.6412     72.0092   1.4398065019e+01   1.5411573145e+01    0.4789488    0.3055876  18.69  0.001922815    2.549    0.608
       124 -12.3053    228.2110     72.4387   1.5287245513e+01   1.6669586407e+01    0.7400668    0.4112915  26.15  0.002542572    3.386    0.705
       125 -11.1701    240.9481     71.6040   1.3290660013e+01   1.3727143501e+01    0.6287392    0.3242889 -41.28   0.00268645    1.741    0.426
       126 -12.4914    161.5063     38.1673   1.5946158506e+01   3.9862220087e+01    0.7734194    0.6016868  23.06  0.003604907    1.549    0.354
       127  -9.8421    210.2601    105.7801   2.7038401483e+01   1.5462203347e+01     0.261144    0.2259437  50.67  0.001058146    1.184    0.156
       128 -12.0398    145.4254     66.9549   2.9159984088e+01   3.9232115702e+01     1.056753    0.7773199   4.28  0.003447755    1.976    0.494
       129 -11.3844    154.3315     62.4654   2.5641156022e+01   3.7767207892e+01     1.089039    0.5742204 -47.10  0.003669661    1.971    0.493
       130 -10.3315    139.6829     61.8132   2.8836244393e+01   4.1653633101e+01    0.8794257    0.3767613  50.36  0.003087648    2.323    0.570
       131  99.0000    133.7017     39.9300   2.2499173087e+01   4.6962104303e+01     1.146071    0.5809066  54.31  0.004546907    1.921    0.479
       132 -11.2835    132.1135     33.7698   2.0541593625e+01   4.8312887120e+01    0.7011469    0.3570335 -63.02  0.002126039    4.071    0.754
       133 -11.4631    139.6733     54.8678   2.6460164546e+01   4.2924266879e+01     1.136526    0.6472622  71.47  0.003040041    2.356    0.575
       134 -11.2091    144.2163     45.2275   2.2005557274e+01   4.3397519389e+01    0.6320323    0.3951897  45.44  0.001888562    1.648    0.393
       135 -12.7542    148.9782     40.6591   1.9335559540e+01   4.2867135605e+01    0.7297087    0.4136766 -46.01  0.002526368    1.853    0.460
       136  -9.2872    151.2311     72.6525   2.9626453796e+01   3.6659487117e+01    0.1632439    0.1196258 -63.14 0.0002885445    1.556    0.357
       137 -11.5241    134.2820     70.6053   3.3093706947e+01   4.1289428800e+01    0.8443831    0.6569266 -78.26  0.003390572    1.569    0.363
       138 -11.8784    127.9395     58.3721   3.0618308743e+01   4.5192446212e+01    0.5234842    0.3191451  36.21  0.001488625    1.948    0.487
       139 -10.2980    108.8076     56.0969   3.5105586388e+01   5.0023291071e+01    0.5024573    0.2434564 -43.55  0.001972872    1.989    0.497
       140 -11.1373    100.2561     54.1654   3.6976392464e+01   5.2209709483e+01    0.6663366     0.518968  45.76  0.002347685    1.354    0.261
       141 -11.3021    144.3943    103.4303   4.0267141190e+01   3.1998514898e+01    0.4438806    0.3218005  40.75  0.001198852    1.480    0.324
       142 -10.4313    161.0004     57.9778   2.2727197778e+01   3.6799080335e+01    0.3489028    0.2885871  76.02 0.0003492991    1.265    0.210
       143 -10.8705    163.4719     55.4899   2.1398154552e+01   3.6564089825e+01    0.3050822     0.299655 -54.40  0.000951378    1.035    0.034
       144 -10.6743    159.3009     54.0266   2.1775017451e+01   3.7932735926e+01     1.146359    0.5803633 -17.26  0.003676798    3.154    0.683
       145 -10.2365    174.2067     54.9443   1.9110174956e+01   3.3748867529e+01     0.400851    0.2120374 -48.25 0.0008023456    1.991    0.498
       146 -10.1858    170.3104     56.2643   2.0283713580e+01   3.4586013282e+01     0.303195    0.2356608  72.47 0.0007717653    1.335    0.251
       147 -10.1079    250.4882     49.9882   6.5703112551e+00   1.4656330185e+01    0.6053653    0.2164718 -48.99   0.00213607    2.852    0.649
       148 -10.2938    245.4973     50.0842   7.1535703877e+00   1.5824724279e+01    0.3120361    0.2754602 -34.86 0.0003640957    1.111    0.100
       149  -9.8561    134.4405     47.3174   2.5042134867e+01   4.5563198493e+01    0.2930602      0.15527 -28.12  0.001121133    2.050    0.512
       150 -10.7433     99.4316     47.5582   3.4773838301e+01   5.3632281906e+01    0.2885305    0.2365078  -2.46  0.001078771    1.388    0.279
       151 -10.8038    146.0643     52.3870   2.4105144771e+01   4.1713765509e+01    0.3478149    0.2875451  24.11 0.0008066538    1.394    0.283
       152 -10.7249     41.3003     44.8475   5.4930119234e+01   6.3467671004e+01    0.2753953    0.2509308 -83.23  0.001336608    1.328    0.247
       153 -10.4063     39.6372     40.1961   5.4019064338e+01   6.4603427461e+01    0.7476225     0.381692  11.09  0.003294969    3.313    0.698
       154  -9.7380    121.0705     44.7823   2.7501034017e+01   4.9280611187e+01    0.3172763    0.1765841 -57.48  0.001171212    2.555    0.609
       155 -11.0938    246.7045     41.8839   4.9102672922e+00   1.6683015375e+01    0.3927316    0.2401448 -58.10  0.001247149    1.627    0.385
       156  -9.5973    239.4992     35.6563   4.0569919489e+00   1.9286902516e+01    0.2382211    0.1326793  71.19  0.001068142    1.880    0.468
       157 -10.6260    240.3683     40.5823   5.2549906313e+00   1.8400582691e+01    0.4067944    0.2793688  30.65  0.001257707    2.066    0.516
       158 -10.8500    234.3450     37.1247   5.0028504937e+00   2.0372334772e+01    0.6261425    0.2624248 -56.81  0.002078205    2.877    0.652
       159 -11.6649    215.1571     42.0100   8.6687587696e+00   2.4642866764e+01    0.4681118     0.307247  68.93 0.0009076369    1.546    0.353
       160 -11.7880    226.6673     40.8076   6.8861622001e+00   2.1812952942e+01     0.904461    0.3075755  55.71  0.003142731    2.966    0.663
       161 -12.1395    220.8020     38.1151   6.8509309815e+00   2.3709115764e+01    0.3809407    0.3160639  39.41  0.000378123    1.427    0.299
       162 -10.6828    217.4815     34.9905   6.3768377996e+00   2.5012947460e+01    0.2776174    0.2165318  78.51 0.0006131961    1.281    0.220
       163  -9.0700    106.1218     43.0356   3.1010987703e+01   5.3013520680e+01    0.3665175    0.1614979  41.53  0.001359833    2.506    0.601
       164 -10.2744    100.2594     41.5156   3.2172179828e+01   5.4544596291e+01    0.3134505    0.2511393 -13.22  0.001622336    1.331    0.249
       165  -9.1440    211.0000     37.8979   8.0306680899e+00   2.6331853047e+01     0.248058   0.08385017 -29.08 0.0007340024    2.906    0.656
       166  -9.8451    168.4739     36.7483   1.4180326972e+01   3.8158085546e+01    0.2084834    0.1556706 -10.10 0.0006843469    1.599    0.374
       167 -10.1359    124.4684     24.4260   1.8661825714e+01   5.1567381380e+01    0.4590135    0.2042672  60.42  0.001752225    2.260    0.557
       168  -9.8764    123.8293     20.9721   1.7406939913e+01   5.2182147490e+01    0.2106549    0.2075523  18.91  0.001207665    1.040    0.038
       169 -11.4270    122.4893     33.3404   2.2712003681e+01   5.0781477584e+01    0.4703173    0.2786625 -51.79  0.001430018    2.038    0.509
       170 -11.4925    123.8945     29.1441   2.0696163780e+01   5.1053723907e+01    0.3112525    0.2762322 -65.11 0.0008517409    1.262    0.207
       171  -9.4080    109.7977     36.3617   2.7306997925e+01   5.3311701824e+01    0.2000134    0.1317495  42.28 0.0003597268    1.550    0.355
       172 -10.8507    112.5573     32.6682   2.5047375121e+01   5.3257908188e+01    0.4288149    0.2844655  48.22  0.000519059    1.496    0.332
       173 -11.1884     92.1668     33.8678   3.1586975884e+01   5.7525847911e+01    0.3907737    0.2882638  16.82  0.001341072    1.576    0.366
       174 -10.3672     75.1003     33.6075   3.7302423367e+01   6.0806247729e+01    0.2753474    0.2191677  33.56 0.0008574042    1.332    0.249
       175 -10.8053    169.2059     32.3281   1.2558632736e+01   3.8584392165e+01    0.5051169    0.2637575  75.24  0.001901507    2.175    0.540
       176  -9.1484    152.2645     33.6659   1.6157347570e+01   4.3030587970e+01     0.158901    0.1141469 -60.52 0.0006657793    1.582    0.368
       177 -10.0946    241.6781     30.3014   2.4370514824e+00   1.9461726993e+01     0.315645    0.1836243 -51.42  0.001458704    1.569    0.363
       178  -9.8320    237.8127     30.6254   2.9106886759e+00   2.0376104630e+01    0.3690102    0.2251989  79.74  0.001740367    1.727    0.421
       179  -9.2833    105.0254     30.6973   2.6343661730e+01   5.5281608458e+01    0.2211605    0.1237235  78.41 0.0007033333    4.153    0.759
       180  -9.5314    104.1982     27.2280   2.5116088923e+01   5.5988589508e+01    0.2102783    0.1693344 -34.36 0.0003917909    1.237    0.191
       181  -9.6408     80.8320     30.1050   3.3759276894e+01   6.0360583482e+01    0.2482114    0.2198179  17.40  0.001422832    1.132    0.117
       182 -11.3022     86.3897     28.4536   3.1147628620e+01   5.9559427448e+01    0.3766383     0.258797  40.35 0.0007620208    1.495    0.331
       183  -9.9093    162.7717     29.0635   1.2560233592e+01   4.0806934885e+01    0.2345914     0.194641 -65.46 0.0005182088    1.261    0.207
       184  -9.9852    114.5543     27.9879   2.2594200458e+01   5.3486325758e+01    0.2304614    0.1818283  37.54 0.0004956367    1.266    0.210
       185  -9.9255    168.1738     26.5627   1.0773062736e+01   3.9649318368e+01    0.3358154    0.2245633 -67.19  0.001458538    1.740    0.425
       186 -11.4549    140.8588     96.3349   3.9191379447e+01   3.4356709224e+01    0.5156881    0.3672946 -66.58  0.001447302    1.630    0.386
       187  -9.7462    151.0245     20.4864   1.1602943773e+01   4.5127787730e+01    0.2289485    0.1439824  65.45  0.001011658    1.529    0.346
       188  -9.9013    144.7052     26.3616   1.4994217088e+01   4.6072338555e+01    0.3078805    0.1694433 -69.95  0.001045146    3.128    0.680
       189 -10.8178    148.1392     24.2397   1.3528549726e+01   4.5432060706e+01    0.3646406    0.2520494  27.21 0.0009546038    1.734    0.423
       190 -10.7114     20.4448     24.4476   5.6968104602e+01   6.9538366806e+01    0.3493184    0.2962693  61.97  0.002433018    1.733    0.423
       191 -10.4431     20.0141     19.4956   5.5207120796e+01   7.0509409147e+01     0.228004    0.1840318 -66.79 0.0009287187    1.531    0.347
       192 -10.9762    234.3585     24.1492   1.5472493502e+00   2.2080489827e+01    0.4582682     0.290051  69.02  0.001635819    1.603    0.376
       193 -10.5923    142.9764     79.4684   3.3720766652e+01   3.7379788318e+01    0.2634589    0.2194439 -20.53 4.889906e-05    1.376    0.273
       194 -11.1239    247.1606     22.6020   3.5995110772e+02   1.9112212920e+01    0.3010945    0.2057063  55.95  0.001044169    1.672    0.402
       195 -11.1755    242.0605     23.0000   5.1373431455e-01   2.0305940937e+01    0.3541939    0.1781072  66.42 0.0009898935    2.022    0.506
       196 -10.9058    239.2854     20.6581   1.6404952786e-01   2.1285191913e+01    0.3002601    0.1908085 -56.46  0.001008783    1.440    0.306
       197 -10.8159    135.3804     24.7277   1.6314966908e+01   4.8745208684e+01    0.3639866    0.2515178  72.16  0.001413922    1.561    0.359
       198 -10.7894    113.9511     23.1139   2.0718983669e+01   5.4312808428e+01    0.4358051     0.276411  35.95  0.002003846    1.670    0.401
       199 -11.3711     99.5421     22.0994   2.4233525960e+01   5.7758644447e+01    0.4499982    0.2700722  61.82  0.001493151    1.942    0.485
       200  -9.4149    103.4590     19.4383   2.1940740761e+01   5.7245800475e+01    0.1403593    0.1307891  12.92 0.0001748062    1.005    0.005
       201  -9.6853     90.3216     27.0075   2.9227897721e+01   5.8996282772e+01     0.190759    0.1360729 -28.43 0.0009830785    1.335    0.251
       202 -10.1744    119.3350     21.8236   1.8829155130e+01   5.3183737855e+01      0.22719    0.1985543  77.81 0.0005978023    1.270    0.213
       203 -11.0150    132.0330    101.5806   4.2840294096e+01   3.5248095091e+01    0.3098105    0.2310366 -49.54 0.0002959433    1.316    0.240
       204 -13.9843    131.2938     95.5060   4.1370971246e+01   3.6753357889e+01     1.970553    0.9265217  33.78  0.006160597    3.415    0.707
       205  -9.4312    163.3164     20.7196   9.5571752210e+00   4.1734985492e+01    0.1561088    0.1111237 -67.45 0.0003502024    1.576    0.365
       206 -10.3675    130.1691     19.3825   1.5335606088e+01   5.0777650170e+01    0.2701864    0.2195432  51.96  0.000476046    1.175    0.149
       207  -9.8520     14.7831     19.3066   5.7818931994e+01   7.0957932965e+01     0.263993    0.1455254 -67.98  0.001395568    2.385    0.581
       208  -9.5136    170.3277     19.3090   7.9582221762e+00   3.9967286535e+01    0.1586279    0.1099267  36.42 0.0007039428    1.659    0.397
       209 -10.0861    138.2950     18.1730   1.3161648985e+01   4.8813707305e+01    0.4289449    0.2213979  37.07  0.001005448    2.279    0.561
       210  -9.7986    121.8563     17.1029   1.6267804325e+01   5.3159486855e+01    0.2106658    0.1897362 -59.05 0.0003893425    1.238    0.192
       211  -9.8662    172.5154     15.8718   6.4694314172e+00   3.9768150900e+01     0.222789    0.1503376 -24.51  0.001027294    1.578    0.366
       212 -11.2566     94.2295     15.9561   2.3018317078e+01   5.9742788890e+01    0.2893649    0.1949676  44.28   0.00148991    1.444    0.307
       213  -9.4331    160.1791     14.0065   7.7004779399e+00   4.3392157329e+01     0.187848    0.1842604  72.53  0.001052368    1.049    0.047
       214  -9.1588     11.2208     14.3224   5.7680948678e+01   7.2144084095e+01    0.1154916   0.06177006 -37.80 0.0001947937    1.498    0.332
       215 -10.3759    187.0463     12.9823   3.5633620873e+00   3.6070452652e+01    0.3095239    0.1715966 -73.50 0.0008238605    2.174    0.540
       216  -9.4946    141.4762     13.0189   1.0552259676e+01   4.8571266874e+01    0.2163451    0.1481911 -17.08  0.001019193    1.586    0.369
       217 -13.6552    123.2224     85.6888   4.0679180616e+01   4.0718805092e+01     1.566146    0.8528116 -29.18  0.005554927    2.652    0.623
       218 -11.6733    137.3529     87.2093   3.7449546774e+01   3.7133244435e+01      0.56932    0.4599455  13.45  0.001960984    1.644    0.392
       219 -11.2913    133.3927     83.2713   3.7284029566e+01   3.8901684121e+01    0.3863137    0.2898034  80.85 0.0007802646    1.653    0.395
       220 -11.7745    136.1231     80.8661   3.5856925543e+01   3.8756723381e+01    0.5562521    0.4097047  78.26  0.001599818    1.681    0.405
       221 -11.4781    132.9704     77.4922   3.5620730242e+01   4.0207492893e+01    0.2959206    0.2712702 -79.14 0.0003212904    1.119    0.106
       222 -12.9647    128.8510     89.5384   4.0311606336e+01   3.8612114726e+01     1.205386    0.6705126  29.38  0.004146027    2.941    0.660
       223  -9.2421    212.2920     11.6521   3.1933228145e-01   2.9342855947e+01    0.1592352   0.09409542 -58.53 0.0004939645    1.667    0.400
       224 -11.5241     76.0075    103.9883   5.8867319842e+01   4.5429050366e+01    0.2211117    0.1922514 -73.70 0.0003379821    1.010    0.010
       225 -12.0506     73.5744     97.5418   5.8152453341e+01   4.7342725543e+01    0.5222542    0.2632432 -61.57  0.002274061    1.823    0.451
       226 -11.6480    226.0044     98.9794   2.2594268179e+01   1.2884244306e+01    0.7129176    0.3087403 -43.99  0.002577328    2.321    0.569
       227 -10.3925    165.2005    102.1147   3.5083849485e+01   2.7251620622e+01    0.2420997    0.2264975  -2.46 0.0007740001    1.200    0.167
       228 -10.8902    158.7209     99.2862   3.5767857636e+01   2.9425576514e+01    0.2465667    0.2213703 -74.10 0.0001948577    1.145    0.127
       229 -12.4657    156.7324     95.8306   3.5262444481e+01   3.0626808247e+01     1.106843    0.6346807  43.22  0.003040545    1.861    0.463
       230 -13.0041     87.3606     98.6092   5.4323971961e+01   4.4864825457e+01    0.6877893    0.4436243  29.46  0.003154253    2.004    0.501
       231 -11.1127     33.9906    100.3439   7.0611448431e+01   5.1561427911e+01    0.2291251    0.1508631  87.05 0.0005925971    1.487    0.328
       232 -10.0274    244.3047     98.5249   1.9638766401e+01   8.7913750829e+00    0.3786406    0.1827829 -18.50  0.001367299    2.826    0.646
       233 -11.0299    169.8643     97.3231   3.2747282968e+01   2.7053860852e+01    0.5479798    0.3877148 -73.37  0.002268584    1.861    0.463
       234 -11.5593     96.2181     90.9370   4.9774962887e+01   4.5079563447e+01    0.5807753    0.4071369  61.03   0.00128907    1.621    0.383
       235 -13.2042     79.8903     59.3615   4.5413160456e+01   5.5005014625e+01     0.725641    0.5536087  20.11  0.003786295    1.598    0.374
       236 -12.1461    102.3443     96.1168   4.9380032331e+01   4.2721875760e+01    0.3531352     0.334707 -54.97  0.001099152    1.097    0.089
       237 -12.2396    106.8718     96.6325   4.8240501593e+01   4.1717181415e+01    0.4639613    0.3106306 -29.41   0.00183287    2.033    0.508
       238 -12.4624    107.7622     92.5306   4.6889035507e+01   4.2478698394e+01    0.6021227    0.3264897  50.27  0.002446469    1.955    0.488
       239 -11.2760    113.6769    246.4224   7.0427862079e+01   1.0220248724e+01     0.247243    0.2347548   1.30  0.001383125    1.723    0.419
       240 -10.7909     36.1628    248.7111   8.3060724448e+01   2.0472920196e+01    0.1691467    0.1018555 -74.93  0.001271617    1.854    0.461
       241 -13.7166    202.9102     60.4208   1.5785899082e+01   2.5092955136e+01     2.190566     1.066659 -65.05  0.002012526    3.763    0.734
       242 -10.3039    180.8127    243.6015   5.8777316434e+01  -1.2969575267e-01    0.1714864   0.08368249  49.43 0.0009510821    1.722    0.419
       243 -12.0960    210.5243     47.1161   1.0766660272e+01   2.5126676693e+01    0.6577368    0.4707964 -62.27  0.002605217    1.446    0.309
       244 -10.7800     88.1935    238.8370   7.4066643714e+01   1.5205739311e+01    0.1419106    0.1153118  53.68 0.0004377348    1.318    0.241
