#   1 NUMBER                 Running object number                                     
#   2 MAG_AUTO               Kron-like elliptical aperture magnitude                    [mag]
#   3 X_IMAGE                Object position along x                                    [pixel]
#   4 Y_IMAGE                Object position along y                                    [pixel]
#   5 X_WORLD                Barycenter position along world x axis                     [deg]
#   6 Y_WORLD                Barycenter position along world y axis                     [deg]
#   7 A_WORLD                Profile RMS along major axis (world units)                 [deg]
#   8 B_WORLD                Profile RMS along minor axis (world units)                 [deg]
#   9 THETA_WORLD            Position angle (CCW/world-x)                               [deg]
#  10 FWHM_WORLD             FWHM assuming a gaussian core                              [deg]
#  11 ELONGATION             A_IMAGE/B_IMAGE                                           
#  12 ELLIPTICITY            1 - B_IMAGE/A_IMAGE                                       
         1 -11.2109    140.3335      7.8395   5.2101113017e+01   4.8850056435e+01    0.2008703    0.1778403  70.74  0.001164591    1.152    0.132
         2 -13.6763     89.0020    190.6861   1.1370210158e+02   2.4168461425e+01     1.586998     1.017771 -74.97  0.008920394    1.595    0.373
         3 -15.4078    238.0995    225.2032   9.0370758034e+01  -6.3907934387e+00      3.32123     1.821324  -5.30   0.01749843    2.280    0.561
         4 -14.2970     45.9731    190.3364   1.2234397548e+02   2.9921007718e+01     1.811351    0.7987831  65.59  0.008818945    2.478    0.596
         5 -13.7526     63.1317    181.5849   1.1799342900e+02   2.9650309854e+01     1.643667    0.7506967  63.24  0.007299564    2.587    0.613
         6 -15.5183     87.1214    168.8978   1.1116196156e+02   2.9040388575e+01     4.185137     1.274496  47.77    0.0152129    3.327    0.699
         7 -10.0777     59.3213    244.1889   1.2422461341e+02   1.8300016390e+01    0.2229676   0.08825859  58.33  0.001228811    2.153    0.536
         8 -11.8628    149.4368    239.0567   1.0816133128e+02   6.0912071843e+00     0.522302    0.3084866  43.05  0.003122007    1.351    0.260
         9 -15.6234     12.8696    193.8974   1.2883490538e+02   3.2632008031e+01     2.429321     1.215516 -78.42   0.01542765    1.631    0.387
        10 -11.6656    109.5743    226.6593   1.1393567599e+02   1.4327485524e+01    0.6521807    0.4718032  86.24  0.004200567    1.514    0.340
        11 -11.1623    114.3755    222.9891   1.1262964228e+02   1.4216800772e+01    0.3927593    0.2196593 -56.98  0.002218629    2.054    0.513
        12 -12.8219     96.5182    215.8027   1.1516825850e+02   1.8207458202e+01     1.238568    0.6100398  65.36  0.005895346    2.494    0.599
        13 -11.5562     89.6863    207.8352   1.1559181477e+02   2.0696508046e+01    0.4063801    0.2857827  67.87  0.002306079    1.294    0.227
        14 -11.2402    144.2609    220.5948   1.0670163008e+02   9.7864982795e+00    0.4261726    0.2849574  69.62  0.002349277    1.912    0.477
        15 -12.5306    141.0065    213.7638   1.0637740432e+02   1.1466369533e+01    0.4797724    0.2678407  53.04  0.002479642    1.710    0.415
        16 -11.4165    170.3311    212.4963   1.0054449408e+02   6.6150328419e+00    0.2680193    0.2028018  24.96  0.001596849    1.316    0.240
        17 -10.6224    100.6404    206.1924   1.1326608076e+02   1.9370690056e+01    0.2792602    0.1602307  62.11  0.001472276    1.781    0.438
        18 -11.1332    156.7894    223.2810   1.0471685590e+02   7.2592648408e+00    0.2857338    0.2078504  27.02  0.001727419    1.421    0.296
        19 -10.8931    124.6492    202.4841   1.0801191954e+02   1.6216641837e+01    0.2067128    0.1210573 -56.40  0.001078214    1.896    0.473
        20 -12.4050    132.1763    221.1415   1.0905924477e+02   1.1691797707e+01    0.6068287    0.3691055  48.86   0.00261799    1.391    0.281
        21 -13.0221    160.2631    194.6391   9.9608151217e+01   1.1370715569e+01    0.7114928    0.6063688   9.29  0.004241969    1.322    0.244
        22 -12.1836    138.2077    195.1873   1.0418154699e+02   1.5237760247e+01    0.8151583    0.4704917 -36.39  0.003865157    2.349    0.574
        23 -15.6434     52.3316    135.9500   1.1457194826e+02   4.1177902930e+01     2.117169     1.630349  33.47   0.01288358    1.542    0.352
        24 -14.3531     66.5401    217.4287   1.2088825771e+02   2.2084837608e+01     3.637371     1.912474  72.34   0.02028449    1.982    0.495
        25 -16.0386     84.6167    143.8848   1.0775853419e+02   3.5031434547e+01     3.759937     2.622949 -80.62   0.01950087    1.520    0.342
        26 -15.0308      7.3338    143.6338   1.2624976170e+02   4.3656593528e+01     2.041706    0.8120214 -65.53   0.01091309    1.958    0.489
        27 -12.4706    120.9527    234.3344   1.1272201140e+02   1.1310758537e+01    0.7268558    0.5340994  80.12  0.003747994    1.522    0.343
        28 -11.7665     20.3676    167.2487   1.2547371312e+02   3.7433216183e+01     0.420874    0.2001718  69.34   0.00213087    2.123    0.529
        29 -12.5591    121.7156    218.1411   1.1066102147e+02   1.3894747133e+01    0.7963688    0.5591166 -75.40  0.004623772    1.687    0.407
        30 -11.9043     34.0357    164.7059   1.2236984780e+02   3.6658689366e+01    0.6595433    0.2991502 -86.84  0.003208072    2.253    0.556
        31 -14.3632    107.8779    139.2099   1.0107187751e+02   3.2300990536e+01      1.00452    0.7363445 -70.07  0.005048037    1.444    0.307
        32 -15.9220     17.0592    119.4910   1.2137225778e+02   4.8360369396e+01     4.270758      2.23022 -38.48     0.022215    2.540    0.606
        33 -16.4436     15.8510    234.4181   1.3054644897e+02   2.4837309045e+01     2.514939     1.823054  72.20   0.01895114    1.092    0.084
        34 -13.0842     96.0222    239.6155   1.1768004658e+02   1.4160617215e+01      1.13468    0.3980851  48.94  0.005438419    2.271    0.560
        35 -12.3303    208.9790     92.9687   6.6601413276e+01   1.9498892893e+01    0.5752646     0.334837 -71.26  0.001853158    3.782    0.736
        36 -12.6120     96.5035    230.7911   1.1674170210e+02   1.5565637519e+01    0.5006841    0.4261688  77.58  0.002359822    1.143    0.125
        37 -10.4768     74.5963     87.7159   9.8343305234e+01   4.9508100574e+01    0.2426909    0.1788303  15.21  0.001141965    1.690    0.408
        38 -11.3098    114.1022    242.4847   1.1481395017e+02   1.1058220643e+01    0.5328775    0.3542231  56.02  0.003531083    1.238    0.192
        39 -11.0979    121.3259     32.7658   6.5567982794e+01   5.0696799064e+01    0.3595067    0.1843204 -17.03  0.001446194    2.268    0.559
