#   1 NUMBER                 Running object number                                     
#   2 MAG_AUTO               Kron-like elliptical aperture magnitude                    [mag]
#   3 X_IMAGE                Object position along x                                    [pixel]
#   4 Y_IMAGE                Object position along y                                    [pixel]
#   5 X_WORLD                Barycenter position along world x axis                     [deg]
#   6 Y_WORLD                Barycenter position along world y axis                     [deg]
#   7 A_WORLD                Profile RMS along major axis (world units)                 [deg]
#   8 B_WORLD                Profile RMS along minor axis (world units)                 [deg]
#   9 THETA_WORLD            Position angle (CCW/world-x)                               [deg]
#  10 FWHM_WORLD             FWHM assuming a gaussian core                              [deg]
#  11 ELONGATION             A_IMAGE/B_IMAGE                                           
#  12 ELLIPTICITY            1 - B_IMAGE/A_IMAGE                                       
         1 -13.3847    228.6998     22.4730   1.4398528864e+01   2.5072831943e+01    0.8972809    0.5638563 -19.17  0.003900487    2.051    0.512
         2 -13.2849    223.4413     20.6482   1.4496831573e+01   2.6566881317e+01    0.8751251    0.5566229 -14.70  0.004124095    2.170    0.539
         3 -10.5277     60.2787     21.0005   4.9085683672e+01   6.4071655994e+01    0.2037517    0.1631001  19.94 0.0004682343    1.183    0.155
         4 -11.5870     32.8675      4.4508   5.2869642888e+01   7.0026949911e+01    0.3069852    0.1389774 -38.27  0.001677115    2.108    0.526
         5 -12.4784    243.6848      8.8735   9.8737413229e+00   2.3174071443e+01    0.4540888    0.2684624  76.72  0.002471494    1.591    0.371
         6  -9.1950     68.6354    244.7517   9.1418230301e+01   1.6255033279e+01   0.09592073   0.08321498  37.70    0.0002709    1.616    0.381
         7  -9.7618    186.8820    250.2081   7.0992998945e+01  -3.0193044546e+00    0.1640071    0.1295141  42.06 0.0003356586    1.121    0.108
         8 -19.2544      9.8687    159.9853   9.5851578461e+01   4.0070447364e+01     16.57651     3.317815 -77.43   0.05610737    4.706    0.788
         9  -9.5353     80.8267    220.1972   8.7068470628e+01   1.9025442049e+01    0.1724007    0.1278641  67.42 0.0003465984    1.084    0.078
        10 -10.5916     45.0303    207.2115   9.2662419054e+01   2.6391632208e+01    0.3490506    0.1455725  67.18  0.001206363    2.568    0.611
        11  -9.9756     53.1157    204.2755   9.0868755256e+01   2.5981533520e+01    0.2101967    0.1108342  74.22 0.0008843533    1.871    0.465
        12  -8.9536     66.0731    202.0000   8.8111239934e+01   2.4735859188e+01    0.1870693   0.06295826  38.98 0.0007880857    2.844    0.648
        13 -16.3954     67.3403    141.1862   8.0036622474e+01   3.8147563762e+01     14.99712     7.018382  81.41   0.03818011    7.342    0.864
        14  -9.6425     40.8784    198.2777   9.2716619330e+01   2.8714342226e+01     0.184577    0.1206689  84.31 0.0002919844    1.264    0.209
        15  -9.8343    192.4935    193.9773   6.0998664377e+01   4.3725295581e+00    0.1846474    0.1208955 -67.80  0.000810236    2.692    0.628
        16  -9.4368     54.5647    190.5353   8.9281407801e+01   2.8664866621e+01    0.1245862   0.09811402  79.55 9.716025e-05    1.007    0.007
        17  -8.6433     29.5763    243.7976   9.7807504760e+01   2.1304086346e+01   0.08607834   0.07411894  44.64 0.0002980083    1.664    0.399
        18 -10.6680    161.6915    187.3179   6.6044725839e+01   1.1475833451e+01    0.4080608    0.2285041 -60.38  0.001730208    2.364    0.577
        19  -9.7126     93.6768    236.4244   8.6280466114e+01   1.4135623127e+01    0.1957362    0.1433123 -78.61 0.0008269966    1.446    0.308
        20 -11.9715     50.8631    184.6755   8.9456448904e+01   3.0389801504e+01    0.3343824    0.2792709 -49.29  0.001303826    1.622    0.384
        21 -12.1830     98.9807    180.3639   7.8519799564e+01   2.4371186376e+01    0.5141134    0.3280268 -74.54  0.001746172    1.651    0.394
        22 -10.8428     75.4989    181.9502   8.3897540474e+01   2.7668422739e+01    0.5157278    0.2743322  71.51  0.001927488    2.265    0.558
        23 -11.8830     60.4538    227.8364   9.1508563329e+01   2.0410592188e+01    0.4699166    0.1798234 -59.22  0.002333082    2.975    0.664
        24  -9.6555    172.6397    178.2035   6.2074757024e+01   1.1041343296e+01    0.1954615    0.1342307 -33.86 0.0007019787    1.668    0.400
        25 -11.3047    127.2282    177.6567   7.1809028336e+01   1.9991103866e+01    0.2367525    0.2139049 -69.37 0.0008839665    1.154    0.133
        26 -11.6146    181.0658    174.2046   5.9547614735e+01   1.0098420615e+01    0.5112173    0.4330995  -3.28  0.002739738    1.349    0.259
        27 -12.2387    103.2478    171.3959   7.6196959344e+01   2.5623565229e+01    0.4990754    0.3333841  71.08  0.001401424    1.647    0.393
        28  -9.9221     54.1279    234.8789   9.3162923374e+01   1.9932812951e+01    0.2219829    0.1987822 -83.42  0.001361269    1.468    0.319
        29 -10.4923     73.4999    175.8177   8.3560583070e+01   2.9310492185e+01    0.2290484    0.2144584 -15.17  0.001457307    1.535    0.349
        30 -11.2549    110.6305    167.3334   7.3833259180e+01   2.5241972049e+01    0.2959368    0.2342564 -85.85 0.0007414361    1.290    0.225
        31 -11.3637    247.7615    166.3552   4.5337712559e+01  -1.4677276164e+00    0.3232433    0.2175595 -39.87  0.001009705    1.528    0.346
        32 -11.3195    246.4283    162.2130   4.4703545387e+01  -5.9559104166e-01    0.2690667     0.212426 -40.11  0.001309596    1.342    0.255
        33 -10.1162    230.2984    166.3224   4.8380451556e+01   1.7417252517e+00    0.1408729    0.1006081   4.63 0.0004425213    1.624    0.384
        34 -10.3822     54.4051    230.2514   9.2769717963e+01   2.0749041747e+01    0.2152945    0.1131401 -82.14  0.000868396    1.833    0.454
        35 -10.0070     99.8651    160.6243   7.5229998485e+01   2.8616913487e+01    0.2528624    0.1906763 -78.03 0.0004114482    1.324    0.245
        36 -11.1652    133.8255    145.9101   6.4289124294e+01   2.5614922307e+01     1.060077    0.2914214 -55.53  0.002733523    5.023    0.801
        37  -8.7373     42.5722    233.1311   9.5019321341e+01   2.1694367912e+01    0.4047559   0.09528282 -73.24  0.001677851    4.221    0.763
        38 -11.8860    105.4942    132.3057   6.8492285614e+01   3.4174117711e+01    0.6141133    0.3571727 -48.26  0.001734893    1.718    0.418
        39  -9.3799    141.1019    132.8452   5.9662861477e+01   2.6998002170e+01    0.2252425    0.2013197  85.93 0.0002785813    1.171    0.146
        40 -10.7947    135.4581    130.4392   6.0483552499e+01   2.8722962355e+01    0.4090643     0.192862 -49.81  0.001542143    2.132    0.531
        41 -10.8815    114.5153    131.7340   6.6041981757e+01   3.2629882047e+01    0.3813813    0.2461944 -83.66  0.001416498    2.283    0.562
        42 -10.7584    113.1990    126.5871   6.5244545135e+01   3.4065751224e+01    0.3020125    0.2500311 -26.52   0.00075773    1.463    0.317
        43  -9.9605     94.1547    123.9874   6.9731182326e+01   3.8107299075e+01     0.287481    0.2036559  84.39  0.001145379    1.795    0.443
        44 -11.6263     92.8905    132.9480   7.1915647341e+01   3.6216327476e+01      0.28282    0.2601694 -71.60 0.0003826302    1.045    0.043
        45 -11.0127    101.0781    121.7876   6.7381918851e+01   3.7415763491e+01     0.443268    0.2598918  39.94  0.001181206    1.801    0.445
        46 -10.2817    156.2138    111.4505   5.0804339352e+01   2.8250456143e+01     0.340028    0.2539969 -71.91 0.0007319319    1.664    0.399
        47 -10.0937    162.1857    119.4313   5.1459851257e+01   2.5204560027e+01    0.3075488    0.2394649 -72.85 0.0008932996    1.547    0.354
        48  -9.6415    159.4494    116.1996   5.1272393738e+01   2.6509726416e+01    0.2711504    0.2355947 -84.73 0.0004334362    1.284    0.221
        49  -9.9597    135.0000    119.9642   5.8104680449e+01   3.1146672332e+01    0.2595562   0.08730336 -46.84 0.0008038508    2.952    0.661
        50 -11.0602     86.1072    117.0921   7.0453689282e+01   4.1052996630e+01    0.5861222    0.3697931 -89.12  0.002374511    2.402    0.584
        51  -9.4596    108.9446    116.3438   6.4006636397e+01   3.7228163914e+01    0.2000611    0.1879139  52.82  0.000335641    1.102    0.093
        52  -9.2835    101.0723    117.1855   6.6339792904e+01   3.8484575097e+01    0.2047761    0.1679251  77.19 0.0007258998    1.358    0.263
        53  -9.7513    205.4570    110.2111   4.0129307347e+01   1.6884794690e+01    0.2585329    0.2135733  52.65 0.0005557831    1.244    0.196
        54 -11.4701    116.3128    108.8654   6.0183503324e+01   3.7492538068e+01     0.534182    0.3043592  61.88  0.002049935    2.416    0.586
        55 -10.4104    134.4695    105.5118   5.4553033936e+01   3.4424649762e+01    0.3396912    0.1513211 -45.39  0.001223391    2.218    0.549
        56 -11.3706    119.5961    103.6069   5.7940170545e+01   3.7996698270e+01    0.3236203    0.2633726 -18.88 0.0007999098    1.483    0.326
        57 -10.6960    120.8771     98.8542   5.6323598027e+01   3.8770595201e+01    0.2382122    0.2142033  -4.19 0.0008338782    1.268    0.211
        58 -11.8562     41.9490     88.7963   7.7540178127e+01   5.3412927167e+01     0.621209    0.2755739  42.62  0.002848491    2.720    0.632
        59 -11.2451     55.4911     95.2160   7.4658951763e+01   5.0448933458e+01    0.3846113    0.2410408  37.42  0.001171965    1.802    0.445
        60 -11.7453     49.1406     95.1815   7.6632737422e+01   5.1196384382e+01    0.3591781    0.2387553 -59.65  0.001316737    1.286    0.223
        61 -11.7179     44.9790     73.2492   7.2851858964e+01   5.6515092343e+01    0.4133833    0.2418672  40.84  0.001778109    2.048    0.512
        62 -12.4330    181.1207     61.8815   3.1669118550e+01   3.1461468910e+01    0.4777733    0.4682717  14.68  0.000816352    1.108    0.097
        63 -13.6944    196.9857     49.4417   2.5456657634e+01   2.9332423055e+01     1.313056      1.00888  29.48  0.004174204    1.642    0.391
        64 -12.3908    203.3126     44.1923   2.3073741630e+01   2.8484230045e+01     0.534506    0.4843515  59.13  0.001268066    1.154    0.134
        65  -9.5796     91.7806    221.5751   8.5127877260e+01   1.7131225882e+01    0.1743872   0.09253661  53.20 0.0004328659    1.576    0.365
        66 -10.1923     90.2545    226.0591   8.5880997200e+01   1.6524167805e+01    0.2043597    0.1455378  55.29 0.0004934888    1.142    0.124
        67 -10.0827     52.7114     41.6421   6.0236566142e+01   6.1848033112e+01    0.2618273    0.1799009  42.38  0.001368347    1.783    0.439
        68 -10.1361    241.7662    248.7560   6.1282491253e+01  -1.1250851478e+01     0.150525   0.08631384 -41.39 0.0008937259    2.446    0.591
        69 -10.6946     50.8943    245.9198   9.4479492910e+01   1.8373875301e+01    0.3044921    0.1158011 -68.20  0.001596365    2.677    0.626
        70 -10.0990     72.6873    226.0296   8.9137210487e+01   1.9082940710e+01    0.1541141    0.1187097  77.15 0.0002372338    1.091    0.083
        71  -9.7691     76.1337    244.7889   9.0134697687e+01   1.5215639094e+01    0.1288723    0.1004019 -84.09 0.0006599127    1.342    0.255
