#   1 NUMBER                 Running object number                                     
#   2 MAG_AUTO               Kron-like elliptical aperture magnitude                    [mag]
#   3 X_IMAGE                Object position along x                                    [pixel]
#   4 Y_IMAGE                Object position along y                                    [pixel]
#   5 X_WORLD                Barycenter position along world x axis                     [deg]
#   6 Y_WORLD                Barycenter position along world y axis                     [deg]
#   7 A_WORLD                Profile RMS along major axis (world units)                 [deg]
#   8 B_WORLD                Profile RMS along minor axis (world units)                 [deg]
#   9 THETA_WORLD            Position angle (CCW/world-x)                               [deg]
#  10 FWHM_WORLD             FWHM assuming a gaussian core                              [deg]
#  11 ELONGATION             A_IMAGE/B_IMAGE                                           
#  12 ELLIPTICITY            1 - B_IMAGE/A_IMAGE                                       
         1 -11.3646      8.3498     32.2601   7.9733328165e+01   7.4339917524e+01     1.221895    0.5675772  82.52    0.0041289    4.399    0.773
         2 -10.8079      9.1619     24.8395   7.6054706018e+01   7.6010291366e+01    0.7539537    0.4510371  19.00  0.003878477    1.642    0.391
         3 -11.5574     11.8381     13.2061   6.6957138656e+01   7.8257152335e+01       0.4336    0.3292103 -12.00 0.0003564606    1.340    0.254
         4 -11.1832     10.0035      9.4887   6.6487304132e+01   7.9202830938e+01    0.3926072    0.2744603  28.10  0.001750534    1.378    0.274
         5 -11.1312      3.9362     18.2698   7.8613812170e+01   7.7884508532e+01    0.2994609    0.2645014 -20.68  0.001171064    1.027    0.026
         6 -12.0282      3.2661     13.4643   7.7057305112e+01   7.8991679583e+01    0.5123815    0.2839477 -28.70  0.001511128    1.848    0.459
         7 -12.1925    128.6403     24.1307   2.1566937246e+01   5.0037993052e+01    0.5082039    0.2200505 -41.44 0.0003582704    2.130    0.531
         8 -12.3949    132.9855     18.9300   1.9077846769e+01   4.9525825172e+01    0.3307778    0.2588731  76.66 0.0003575829    1.199    0.166
         9 -11.3959    137.0605     14.9809   1.7177842184e+01   4.8913143309e+01    0.5150471    0.2543017 -20.40 0.0004768657    2.479    0.597
        10 -12.3972    162.6481     18.7433   1.5724148980e+01   4.2105343073e+01    0.4782929    0.4349411  86.48  0.002188883    1.202    0.168
        11 -12.1344     34.3083     22.6065   5.3237012055e+01   7.3135852576e+01     0.287699    0.2651119  -9.01 0.0001611502    1.097    0.088
        12 -11.1190     22.2057     18.8542   6.0433975944e+01   7.5800072967e+01    0.6586988    0.3990307  57.00  0.001776317    2.466    0.594
        13 -10.3862     33.5012     14.9817   4.8737993842e+01   7.4613392776e+01    0.5904064    0.2482531  36.21  0.002339054    2.569    0.611
        14 -12.5045    237.5771     18.5189   1.0752952846e+01   2.6379537929e+01    0.3799824    0.2810064   9.40 0.0009424689    2.432    0.589
        15 -10.9019    169.2313     16.6800   1.4536597971e+01   4.0762914953e+01    0.2880479    0.1790851 -50.82  0.001564868    1.349    0.259
        16 -10.9856     82.0798      7.1660   2.2893109790e+01   6.4195710587e+01    0.2360902    0.2160475  -5.48 0.0003561044    1.283    0.220
        17 -11.6958     76.2755     10.4345   2.6134116513e+01   6.5365360444e+01    0.7859936    0.2875177  52.59  0.003007722    2.454    0.592
        18 -11.4725     74.2106      3.3760   2.2718808411e+01   6.6601573984e+01    0.5965719    0.2904603 -23.74  0.002176972    2.286    0.563
        19 -12.4264     53.8200     14.2180   3.6477570844e+01   7.0433937446e+01    0.4526144     0.303438  44.47 0.0004974906    1.415    0.293
        20 -11.3631    233.4452     14.9499   1.0180344404e+01   2.7502244714e+01    0.2423868    0.1572164 -43.85 0.0006624762    1.151    0.132
        21 -12.5435    235.4770      9.4917   8.9307731500e+00   2.7701027937e+01    0.3815224    0.2296415 -63.30  0.002519263    1.344    0.256
        22 -10.5599     60.1751     13.8073   3.3490993350e+01   6.8989783687e+01     0.278046    0.2379436 -15.96   0.00101219    1.322    0.243
        23 -10.0910     63.6483     13.3095   3.1848992285e+01   6.8210057080e+01     0.266903    0.2402352 -46.74  0.001566813    1.205    0.170
        24 -11.8267    101.8520     10.2727   2.0383593620e+01   5.8664064667e+01    0.4357575    0.3102532 -11.36  0.001499935    1.767    0.434
        25 -10.3914    131.2375     13.2316   1.7254361207e+01   5.0605650108e+01    0.3276934    0.1846526 -88.71  0.001527478    1.724    0.420
        26 -11.9336    145.4712      8.8478   1.4209413539e+01   4.7407051288e+01    0.4750993    0.2735275 -26.32  0.001040775    1.857    0.462
        27 -10.6913    118.8872     10.5614   1.7847890507e+01   5.4117750326e+01    0.4424191     0.310759 -59.95  0.001903396    1.345    0.256
        28  -9.9337     27.1619     10.9467   5.0590875613e+01   7.6429630378e+01    0.3082803    0.1778733 -33.78  0.001517918    1.895    0.472
        29 -11.2383    160.1219      8.9004   1.2968536382e+01   4.3771027346e+01     0.295858    0.2043836 -34.22 0.0003521045    1.433    0.302
        30 -11.1412    154.5137      8.4394   1.3280216810e+01   4.5190633348e+01    0.4131553     0.259485  88.82  0.001171452    1.448    0.309
        31 -10.8883    176.0327     10.7587   1.2336016844e+01   3.9807942192e+01     0.387357    0.2130837 -51.72  0.002062442    1.483    0.326
        32  -9.0998    107.3272      9.6627   1.9194851083e+01   5.7270692360e+01    0.1539479   0.09203866 -63.89 0.0007051739    1.726    0.421
        33 -11.5348     13.2649      3.0919   5.7475824174e+01   7.9968556621e+01    0.6776583     0.467924  46.20  0.003134955    1.624    0.384
        34  -9.3219     19.9016      6.8124   5.3711282314e+01   7.8335583582e+01    0.4836923     0.181753 -42.89  0.001433446    2.791    0.642
        35 -10.4918     22.3822      2.4286   4.7487244568e+01   7.8601933843e+01    0.2996725    0.2187029 -47.77  0.001718102    1.630    0.386
        36 -10.9384     26.8364      2.1471   4.3444470706e+01   7.7813108807e+01    0.3066852    0.1962839  48.64  0.001361581    1.461    0.316
        37 -11.5072    248.3195      7.9508   8.1419731075e+00   2.5606316330e+01    0.2259098    0.1731471  80.18  0.001641625    1.612    0.380
        38 -10.4895    214.8241      7.4927   9.3500588644e+00   3.1814685709e+01    0.2204373    0.1377811 -39.42 0.0009051028    1.306    0.235
        39  -9.0497     23.6248      8.7158   5.1834441456e+01   7.7407128916e+01    0.1362855   0.09573086   9.61 0.0005555927    1.714    0.417
        40 -11.2695    179.1673      4.3861   1.0376196320e+01   3.9732219311e+01    0.3878738    0.1480953 -41.49 0.0009042266    2.003    0.501
        41  -9.1797     42.6583      7.2286   3.7213954788e+01   7.3866052074e+01     0.127368    0.1010961  83.16 0.0003116287    1.542    0.351
        42 -11.0585    223.0804      5.3491   8.5178204172e+00   3.0424065882e+01     0.236379    0.1508994 -30.24  0.001522086    1.512    0.339
        43 -11.2914    164.6785      4.9428   1.1446269416e+01   4.3064839234e+01    0.2647206    0.1878982 -51.64 0.0004054871    1.190    0.160
        44 -11.5724    168.0917      1.9977   1.0362675595e+01   4.2534874061e+01    0.2417073    0.1807541 -79.58 0.0003209787    1.150    0.131
        45  -9.5579     60.7899      5.8195   2.8216010770e+01   6.9764810895e+01    0.1811301    0.1524202 -72.60 0.0005077153    1.305    0.234
        46 -11.1096    230.0474      2.4095   7.6162852640e+00   2.9403988707e+01    0.3240972     0.161224 -23.97  0.001243219    2.155    0.536
        47 -10.7737    125.7071      3.7477   1.4388202203e+01   5.2978151849e+01    0.3612289    0.2547183   1.72  0.001876112    1.979    0.495
        48  -9.9277     68.7409      5.3009   2.5337337093e+01   6.7822644096e+01    0.1849982    0.1407779  45.90  0.000540778    1.298    0.229
        49 -11.8547    242.4135      3.1126   7.3538168001e+00   2.7106255249e+01    0.3046551    0.1697227  89.20  0.001363729    1.889    0.471
        50  -9.4769    114.3975      2.8297   1.5332168872e+01   5.6034774507e+01    0.1651123    0.1347569   0.52 0.0005104652    1.577    0.366
        51  -9.6717     97.9645      3.3300   1.7881427103e+01   6.0353857376e+01    0.1902304    0.1604435  81.93 0.0004315206    1.040    0.038
        52 -11.4180     91.2206      2.3388   1.8555139551e+01   6.2229969942e+01    0.2568181    0.1966898 -64.44 0.0002738498    1.299    0.230
        53 -10.4544     36.4705      7.5809   4.1165243427e+01   7.5143988303e+01    0.3380924    0.2323448  55.75  0.001815527    1.432    0.301
        54 -10.3796    140.9925      1.6846   1.2200387215e+01   4.9221697274e+01    0.1911234    0.1442092 -88.06 0.0002044033    1.154    0.133
        55 -10.5039    102.7396      1.4091   1.6276282971e+01   5.9249496189e+01    0.2306341    0.1205832  82.00  0.000344494    1.740    0.425
        56  -9.5761     34.1838      1.4519   3.7565092808e+01   7.6411071466e+01    0.3117386    0.1279226  64.04  0.001134976    3.369    0.703
        57  -9.9486    187.6488    189.6853   5.2107042004e+01   9.6484098739e+00    0.1864613     0.112565  24.08 0.0006936866    1.628    0.386
        58 -11.5225    248.2508    248.7583   5.1118778192e+01  -3.8387761804e+00    0.3349803    0.1638233 -10.86  0.002172023    1.767    0.434
        59 -12.3356    225.8836    245.8689   5.4011104502e+01  -1.7302881678e+00    0.5259681    0.2777876 -15.89  0.003716242    1.616    0.381
        60  -9.8977    109.9615    250.0294   7.5955256645e+01   9.3487499141e+00    0.1841537    0.1409337  23.42 0.0006849514    1.014    0.014
        61 -10.4001     91.0872    249.3795   7.9990394258e+01   1.1506852640e+01    0.1934832    0.1656705  61.99 0.0006464593    1.404    0.288
        62 -12.1707     21.0266    248.3265   9.5672071183e+01   1.8696545154e+01    0.6552925    0.1418296  37.02  0.002922596    2.470    0.595
        63 -11.4248      8.3808    248.8137   9.8494759511e+01   1.9682246993e+01    0.4208397    0.2320537  20.12  0.001648374    1.655    0.396
        64  -9.9290     13.3051    249.6999   9.7427862379e+01   1.9108935970e+01    0.1641383    0.1298564  51.32 0.0008270488    1.139    0.122
        65 -10.9274      5.3718    244.4703   9.9075698412e+01   2.0737133511e+01    0.3056548    0.1676426  40.29  0.001086871    1.278    0.218
        66  -9.7516    145.1319    190.1491   6.0699667246e+01   1.5292650442e+01    0.1989285    0.1573031  -4.44 0.0005679117    1.262    0.208
        67 -10.3622    244.8213    188.1479   4.2821468367e+01   3.3107416560e+00    0.1517507    0.1186495 -20.79 0.0005084967    1.185    0.156
        68  -9.8203    226.4359    188.4710   4.5502754344e+01   5.2144338127e+00    0.1109267   0.08376942 -15.22 9.018255e-05    1.007    0.007
        69 -10.0142     61.7741    184.4817   8.1273807294e+01   2.8023566871e+01    0.2487403    0.1957208 -81.07  0.001364658    1.381    0.276
        70 -11.9575     15.9969    182.0284   9.4457039530e+01   3.3416834034e+01    0.5022631    0.2543293  53.82  0.002070579    1.692    0.409
        71 -11.0412    249.6987    179.9547   4.0850234932e+01   3.8330811085e+00    0.2547116    0.1013602 -39.23  0.001435788    2.174    0.540
        72 -10.1334      1.6291    180.1517   9.8577194102e+01   3.4993902731e+01    0.1805602    0.1547935  75.28  0.001119699    1.136    0.119
        73 -10.0781    244.4624    178.5343   4.1315270055e+01   4.5600462455e+00    0.2079937   0.07622615 -28.25  0.001034886    2.543    0.607
        74 -11.0237     23.3318    180.4637   9.2215056688e+01   3.3158639746e+01    0.4389185    0.1675671  51.90  0.001603899    2.298    0.565
        75  -9.5143     96.6719    177.6561   7.0648570980e+01   2.4889623413e+01     0.146984    0.1074272 -17.11 0.0007050828    1.746    0.427
        76  -9.9980     54.1768    176.0323   8.2628596569e+01   3.0997334355e+01    0.2043945    0.1911924 -31.48 0.0006724378    1.251    0.201
        77 -10.8631    171.3091    174.5142   5.2608376283e+01   1.4347304780e+01    0.3133041    0.2093778  65.44  0.001430331    3.150    0.683
        78  -9.1250      1.3187    175.6731   9.8545958528e+01   3.6121759330e+01    0.1514793   0.07402166  52.38  0.000441792    1.680    0.405
        79 -10.6395     18.2506    173.0469   9.3335436329e+01   3.5469543465e+01    0.2664924    0.1399481  41.01 0.0009376363    1.586    0.370
        80 -11.2043      8.4418    172.7445   9.6312975590e+01   3.6339100583e+01    0.2572356    0.1223193  87.67  0.001145761    2.058    0.514
        81  -8.8302    116.3364    170.3541   6.4317398037e+01   2.3532465787e+01    0.1498976    0.1071125 -13.94 0.0007043499    1.798    0.444
        82 -10.7345      5.3835    168.2137   9.7079653498e+01   3.7716005688e+01    0.2510787    0.1550688  75.18   0.00128253    1.479    0.324
        83  -9.1063     93.3233    166.7420   6.9939077646e+01   2.7901792259e+01    0.1488629    0.1036149  55.92 0.0002247111    1.550    0.355
        84 -10.0712     67.9360    165.9492   7.7298038965e+01   3.1753925545e+01    0.2514494    0.1580771  59.73 0.0009394051    1.710    0.415
        85 -10.2607    186.7524    165.6145   4.8088842896e+01   1.3631661842e+01    0.1636469    0.1159714  42.79 0.0008954888    1.640    0.390
        86  -9.9549     35.7235    165.7261   8.7363505649e+01   3.5693111662e+01    0.4154229     0.133437  18.04  0.001318719    3.613    0.723
        87 -10.2752      1.4193    164.6681   9.8193449405e+01   3.8898865583e+01     0.263601    0.1178078  84.81  0.001137633    2.125    0.529
        88 -10.9093     51.2481    161.6163   8.1992014772e+01   3.5008906723e+01    0.4927197     0.287829 -85.11  0.002034398    1.896    0.472
        89 -10.6102      7.5076    163.7843   9.6243884576e+01   3.8702535758e+01    0.2779844     0.211503 -11.39  0.001270348    1.649    0.394
        90  -9.4503    132.5698    161.2751   5.8674745113e+01   2.2866325208e+01    0.2002897    0.1282545 -38.11 0.0009526101    1.646    0.393
        91  -9.9035     67.0588    157.7615   7.6472822511e+01   3.3948473040e+01    0.2242189    0.1781444  51.64 0.0003714388    1.184    0.155
        92 -10.9647     19.9651    156.8577   9.1824578596e+01   3.9534190696e+01    0.4231346    0.2800117  81.10  0.001205478    1.450    0.310
        93 -11.0593    247.9122    156.5638   3.7156706420e+01   7.0259831964e+00    0.2151573     0.172124  -5.31  0.001514895    1.213    0.176
        94  -8.9261      7.6591    157.3247   9.5919635766e+01   4.0381348440e+01    0.1595029   0.08021826  52.83 0.0003439789    1.729    0.422
        95  -9.8863    216.4681    154.4863   4.1119432891e+01   1.1240403840e+01    0.1528601     0.115165  49.84  7.02544e-05    1.807    0.446
        96 -10.3324    158.9181    153.8540   5.1296563731e+01   2.0008389937e+01     0.325418    0.1982765  32.08  0.001102992    1.715    0.417
        97 -10.2896     11.1610    153.2056   9.4556293916e+01   4.1218924806e+01    0.4425204    0.1454033  40.57   0.00168317    2.429    0.588
        98  -9.9834     40.9224    152.8856   8.4436377294e+01   3.8522277122e+01    0.2438645    0.1958721 -80.86   0.00058555    1.250    0.200
        99  -9.2305    176.6984    150.2780   4.7038445142e+01   1.7782746665e+01     0.118626    0.1046735 -81.55 0.0002770818    1.543    0.352
       100 -11.1151     13.8810    147.9440   9.3327370598e+01   4.2428547345e+01    0.2435775    0.1994672  62.53 0.0002632014    1.078    0.072
       101  -9.4451    144.0210    148.0753   5.3426555121e+01   2.3663118759e+01    0.1721458    0.1550235 -36.14 0.0008676412    1.088    0.081
       102 -10.6463      7.4449    145.8078   9.5452783303e+01   4.3476966469e+01    0.2986443    0.1954191  23.77  0.001437858    1.519    0.341
       103 -10.8991    217.3905    145.1700   3.9241317554e+01   1.2508819693e+01     0.295858    0.1581966  29.66  0.001574931    2.375    0.579
       104 -10.4616     65.3269    139.0586   7.4233770523e+01   3.9095348385e+01    0.2610692    0.2466174   2.99 0.0004298217    1.181    0.153
       105  -9.5549     14.1511    140.1640   9.2734556228e+01   4.4534093082e+01    0.2089196    0.1446905  52.65 0.0003433065    1.308    0.236
       106  -9.8500    188.5014    139.5276   4.2742567087e+01   1.7758007497e+01    0.1291923    0.1141381 -30.37 9.015262e-05    1.040    0.039
       107 -10.1213    236.3119    137.9805   3.5295550266e+01   1.0981991860e+01     0.161673    0.1205697 -29.35  0.000698086    1.038    0.037
       108 -10.1305    144.3475    136.7567   5.0998227139e+01   2.5926945895e+01    0.2557683    0.1759139 -35.16 0.0008539969    1.501    0.334
       109 -13.2910     37.4364    135.2730   8.3684616195e+01   4.3725020825e+01    0.5438209    0.4218768  55.25 0.0006521359    1.211    0.174
       110 -11.1252     37.7165    126.5711   8.2473283241e+01   4.6125700943e+01    0.4484358     0.267039  10.21  0.001812257    2.033    0.508
       111 -10.7003      3.0001    136.0046   9.6576895622e+01   4.6436242037e+01    0.3611373    0.2122064 -76.02  0.001003028    1.621    0.383
       112  -9.2958      9.4578    136.4572   9.4220123821e+01   4.5897243430e+01    0.1446855     0.126705  66.27 3.667852e-05    1.011    0.010
       113  -9.9065     20.7182    134.9448   8.9909579657e+01   4.5450621827e+01    0.2169333    0.1741449  87.73 0.0007373455    1.174    0.148
       114 -10.2561    241.3214    134.0133   3.3931332277e+01   1.0875578084e+01    0.1646496     0.117819 -31.61 0.0005677834    1.070    0.065
       115 -11.0120     53.6558    132.4207   7.7304257465e+01   4.2530637035e+01      0.44295    0.2940636  32.19  0.001134029    1.454    0.312
       116 -10.6696     59.0072    131.3260   7.5184536637e+01   4.2091131332e+01    0.2738487    0.2082697 -54.98 0.0003517729    1.368    0.269
       117 -10.9655      4.4070    130.3447   9.5773723301e+01   4.7913838703e+01    0.2561893    0.2449536 -62.73 0.0005782596    1.161    0.139
       118 -11.1384     73.6803    129.0425   6.9586271383e+01   4.0478842669e+01    0.3746305     0.279408  51.02  0.001218079    1.315    0.240
       119  -9.4849    113.6598    128.6723   5.7001200131e+01   3.3454331520e+01    0.1571699    0.1216979 -10.34 0.0007051561    1.735    0.424
       120 -11.2245     23.9048    126.3904   8.7878713795e+01   4.7571089178e+01    0.4599727    0.2880119  31.24  0.002137699    1.533    0.348
       121 -11.0047     56.5190    126.7065   7.5319901638e+01   4.3706190121e+01    0.2991297    0.2518951 -15.92 0.0006306249    1.440    0.305
       122 -11.0612      4.5048    124.0407   9.5392699236e+01   4.9662528701e+01     0.518055     0.124749 -80.55  0.001575761    3.732    0.732
       123 -10.2848    229.5511    125.0438   3.3696640620e+01   1.3757195024e+01    0.1903024   0.09362185 -36.98  0.001032261    1.607    0.378
       124 -10.3843     48.1288    124.6834   7.8162273809e+01   4.5397834966e+01    0.2667275    0.1695551  48.80 0.0007492395    1.532    0.347
       125 -10.4061     30.4676    124.4858   8.5062755399e+01   4.7484251690e+01    0.2572455     0.234938  71.25  0.001400621    1.009    0.009
       126 -10.7850     15.7105    125.2101   9.1019584122e+01   4.8583598946e+01    0.3805147    0.1899569  26.42  0.001618563    1.921    0.479
       127 -11.7345     10.0409    121.3170   9.2993259607e+01   5.0083568412e+01    0.5764394    0.3315032  73.18  0.001545068    1.691    0.409
       128  -9.3888     82.7372    124.3627   6.5559748978e+01   4.0187365453e+01    0.1621323    0.1185517  76.77 0.0003912353    1.638    0.390
       129  -9.3372    243.5075    122.4892   3.1510359093e+01   1.2170636602e+01    0.1153416   0.08756041 -32.20  0.000175957    1.001    0.001
       130 -10.9802     68.8364    121.3709   6.9800783116e+01   4.3302330356e+01    0.5508835     0.317546  32.44  0.002264846    1.717    0.418
       131 -10.7612     20.1427    122.1136   8.8955573280e+01   4.9104546005e+01    0.2466803    0.2205922  25.39 0.0007277669    1.178    0.151
       132 -10.5571     23.8755    119.0138   8.7099453807e+01   4.9660358295e+01    0.3896331    0.2777828 -48.91   0.00158722    1.505    0.336
       133 -10.2743     56.4210    121.2073   7.4393410414e+01   4.5232104510e+01    0.2201976    0.1471804 -85.72 0.0006364546    1.659    0.397
       134 -10.4578      1.3979    118.5478   9.6343930367e+01   5.1367208785e+01    0.2578983    0.1266602 -83.65 0.0002532135    1.872    0.466
       135 -10.5394    249.5341    117.0751   2.9813100836e+01   1.2093610497e+01    0.1790197   0.08502074 -35.31 0.0008557065    1.576    0.366
       136 -11.0464     72.3157    115.3002   6.7269793525e+01   4.4351585431e+01    0.5461185    0.3367974 -53.64  0.002313237    1.637    0.389
       137 -13.0675     15.7367    112.9614   8.9896461194e+01   5.2047695956e+01    0.9686556    0.7421725  88.67  0.001912553    1.229    0.186
       138 -11.5042     30.9623    108.1455   8.2661636680e+01   5.2064520578e+01    0.8686799    0.4525278  80.19  0.003290601    2.341    0.573
       139 -10.9795     24.2003    100.4903   8.4595067150e+01   5.4895468271e+01    0.5260364    0.1979163  42.63  0.001660045    2.576    0.612
       140 -10.9301    181.5759    114.8038   3.8645909097e+01   2.3235830676e+01    0.4389223    0.2450466  36.82  0.001340696    2.238    0.553
       141 -10.0079     85.8930    115.5622   6.2555456387e+01   4.1887929155e+01    0.2725245    0.1822073 -63.30  0.001177274    1.553    0.356
       142 -10.4229     52.0383    114.7025   7.4914751955e+01   4.7648884930e+01    0.5443577    0.2199434 -73.58  0.001664719    2.913    0.657
       143 -10.5510     25.1677    106.8274   8.5040670401e+01   5.3006608076e+01     0.426211    0.3052201 -36.59  0.001142495    1.587    0.370
       144 -10.6469    105.4525    114.6194   5.6101571799e+01   3.8369615333e+01    0.2980711    0.2855276 -23.32  0.001042117    1.141    0.124
       145 -10.3152    250.0187    112.1540   2.8831139355e+01   1.2687679575e+01    0.2188486    0.1090455 -49.59  0.001004052    2.053    0.513
       146  -9.1032    208.2737    111.2820   3.3732873683e+01   1.9133335806e+01    0.1177579   0.09101054 -10.78 0.0002419444    1.500    0.333
       147 -11.1325     55.2181    109.6438   7.2653158949e+01   4.8591466550e+01    0.3342192    0.2935951  46.32  0.000839501    1.108    0.098
       148 -10.8529     52.8237    105.0867   7.2698091101e+01   5.0195974814e+01    0.4312346    0.2482208  47.27  0.001766533    1.749    0.428
       149  -9.6525     70.4986    108.0480   6.6319204709e+01   4.6585532869e+01    0.2266047    0.1551405 -61.91 0.0003131393    1.466    0.318
       150  -8.9732     42.2880    108.3513   7.7786166294e+01   5.0712045020e+01    0.1609277    0.1122495 -37.98 0.0004477117    1.666    0.400
       151 -10.3188     46.4049    106.5450   7.5697419288e+01   5.0686135154e+01    0.3852573    0.2284885 -16.65  0.001307185    2.805    0.643
       152 -10.4187      3.7073    107.9745   9.4731560800e+01   5.4218699911e+01     0.262841    0.1935186  32.56 0.0006642602    1.365    0.267
       153 -10.2689    111.3727    105.8707   5.2155289377e+01   3.9217018002e+01    0.3394304    0.1951263  44.00 0.0008436832    1.746    0.427
       154 -10.1814     62.1357    105.9384   6.9082807951e+01   4.8538471988e+01    0.2922398    0.2153207 -58.27  0.001345801    1.354    0.261
       155 -11.9773     61.8760     97.6500   6.7242963163e+01   5.0806685620e+01    0.7172604    0.3460965 -55.94  0.002712127    2.024    0.506
       156 -10.0521     67.2190     97.5983   6.5061674694e+01   4.9912940761e+01    0.2922513    0.1478671  38.38 0.0005788011    1.917    0.478
       157 -10.9903     32.4321     96.9130   8.0157418304e+01   5.5084149189e+01    0.5716152    0.2873967  75.66  0.002009442    2.775    0.640
       158 -10.1612     31.5372     92.5372   7.9785204619e+01   5.6409463116e+01    0.2677758    0.1606745  71.47 2.134235e-05    1.983    0.496
       159 -10.9119     75.5712    101.2257   6.2754053336e+01   4.7473696129e+01    0.3804204     0.262804 -80.02  0.001279198    1.740    0.425
       160  -9.6981     76.7106     97.6303   6.1394620957e+01   4.8186707565e+01    0.2324167    0.1574014 -40.29 0.0005973459    1.685    0.407
       161 -10.3132    119.7519    101.1484   4.8571148558e+01   3.8504169959e+01    0.2908769     0.209868  16.65  0.001229473    2.079    0.519
       162  -9.5814     48.2745    100.5510   7.3685219828e+01   5.2095148411e+01    0.2409975    0.1642975  62.55 0.0004214233    1.615    0.381
       163  -9.1615    144.6821     99.3186   4.2025673124e+01   3.3506190419e+01    0.1525154    0.1139487 -78.59  0.000447602    1.659    0.397
       164  -9.6348      9.6806     99.0611   9.1264448643e+01   5.6403373402e+01    0.1989397    0.1649534 -88.73 0.0003121742    1.123    0.109
       165  -9.6919    225.7591     98.0034   2.8697454271e+01   1.8258276921e+01    0.1659923    0.1271084 -39.58 0.0002824074    1.034    0.033
       166 -11.2067     15.5691     96.8948   8.8209432139e+01   5.6623328470e+01    0.4528474     0.203352 -47.41  0.001732601    2.341    0.573
       167  -9.6018     87.7850     97.3940   5.7336663359e+01   4.6094861344e+01    0.2313141     0.152579  29.46 0.0009540402    1.767    0.434
       168  -9.6823    226.1982     93.1750   2.7635636116e+01   1.8881352396e+01    0.1676924    0.1180016 -52.71 0.0004117093    1.333    0.250
       169  -9.3641      1.4791     93.5097   9.4736937380e+01   5.8394107325e+01    0.1418299    0.1299649 -82.52  1.26321e-05    1.029    0.028
       170  -9.9359    231.6150     91.7392   2.6742336762e+01   1.8209475717e+01    0.1780067   0.08521798 -42.49 0.0007830844    1.633    0.387
       171  -9.5102    249.9667     91.0237   2.4760879894e+01   1.5502903783e+01    0.1395254    0.1019234 -38.71 0.0004324643    1.013    0.013
       172 -11.0664    159.9308     90.1136   3.6531645736e+01   3.1979830951e+01     0.403798    0.3552596  56.71  0.002280604    1.226    0.185
       173 -10.1510     73.9199     89.2991   6.0174690477e+01   5.0828821325e+01    0.3194474    0.2179309 -49.62  0.001021459    1.496    0.331
       174 -10.9411     56.5367     90.4283   6.7696413749e+01   5.3603120384e+01    0.3304619      0.27036 -26.80 0.0008774765    1.451    0.311
       175 -11.4246     10.6211     90.7496   8.9920238064e+01   5.8693547565e+01    0.2567963    0.2346852 -49.73 0.0003334369    1.124    0.111
       176 -10.4263     49.0811     89.9924   7.0930291867e+01   5.4868797723e+01     0.225453    0.2173698  78.37 0.0003205435    1.004    0.004
       177 -11.6651     94.8187     88.5323   5.2427900811e+01   4.6760907484e+01    0.4523968    0.2740264  52.14  0.001869016    1.677    0.404
       178 -10.5359     84.0478     88.5938   5.6164292215e+01   4.9002826651e+01    0.4578896    0.2263163  44.57  0.001389646    1.987    0.497
       179 -11.4675     21.5995     84.0914   8.3281229780e+01   5.9746034019e+01     0.461421    0.2505826 -82.42  0.001498762    1.913    0.477
       180  -9.1431      2.3212     89.3052   9.3983370804e+01   5.9535916454e+01    0.1508494   0.09477946 -44.87 0.0007031055    1.636    0.389
       181 -11.8305    107.8398     85.0748   4.7336966834e+01   4.4672648507e+01    0.5080201    0.3224368  72.27  0.001029073    2.136    0.532
       182 -11.0505     65.0470     85.5364   6.2699362149e+01   5.3428884829e+01    0.4040054    0.3275732 -63.54  0.001958827    1.238    0.193
       183 -11.1671     30.4741     82.6110   7.8339879931e+01   5.9283024243e+01    0.5924436    0.2588456 -63.91  0.001889762    2.115    0.527
       184 -10.2977    156.6786     84.1195   3.5549067020e+01   3.3774275083e+01    0.3556414    0.3090713 -64.07  0.001978291    1.089    0.082
       185 -10.5183     42.8790     82.8224   7.2100723753e+01   5.7688977516e+01    0.3510825    0.2268308 -87.83  0.001243897    1.883    0.469
       186 -11.0309     38.3402     76.1330   7.2685809147e+01   6.0094047315e+01    0.5175796    0.3956248 -78.57 0.0006248289    1.368    0.269
       187  -9.8233    166.9839     82.5383   3.3294570624e+01   3.1805480048e+01     0.207514      0.13947  58.78  0.001035255    1.608    0.378
       188  -9.2323     17.3067     87.6430   8.6094342893e+01   5.9104641987e+01    0.1611861   0.09948273  59.46 0.0007041247    1.724    0.420
       189 -10.3653      7.3045     81.4276   9.0570101315e+01   6.1496526882e+01    0.3457042    0.2333398 -49.21  0.001712489    1.460    0.315
       190 -10.2475     44.5198     74.4900   6.9036886201e+01   5.9665954769e+01    0.2827719    0.1507359  49.77  0.001102577    2.085    0.520
       191 -10.5017     50.5183     78.5050   6.7220931718e+01   5.7704133061e+01     0.449494     0.201827 -65.85  0.001586467    2.490    0.598
       192 -10.8115     76.6287     82.2130   5.7017503755e+01   5.2053186290e+01    0.4660904    0.2323851  50.89  0.001561495    2.136    0.532
       193 -10.7917     84.2296     79.0390   5.3163034831e+01   5.1238316954e+01    0.3241033    0.2313402  38.72 0.0003416957    1.458    0.314
       194 -10.5954     88.1628     77.2096   5.1167651380e+01   5.0811785471e+01      0.29684    0.2292367 -75.45 0.0002619183    1.470    0.320
       195  -9.3680     39.0266     86.0543   7.4773490970e+01   5.7322991747e+01    0.2465316    0.1703532 -32.29 0.0006386796    1.721    0.419
       196  -9.1233    169.2925     78.2977   3.1798047094e+01   3.2029960765e+01    0.1302271    0.1113741   5.62 0.0004504378    1.562    0.360
       197  -9.8018    165.0486     78.4842   3.2549209115e+01   3.2923033200e+01    0.1889684    0.1398708  63.28 0.0009830365    1.446    0.309
       198 -10.9536     18.7573     77.2967   8.3614045604e+01   6.1871623771e+01    0.3756503    0.1867538 -52.45  0.001208939    1.915    0.478
       199 -10.6513     21.5298     74.9577   8.1604643017e+01   6.2276605115e+01    0.2905385    0.2296847 -45.68   0.00133063    1.268    0.211
       200 -10.8552    116.9294     83.8990   4.4430616191e+01   4.2856024405e+01    0.3523608    0.2262243 -46.13  0.001038996    1.540    0.351
       201 -10.9816     99.9495     76.2541   4.6956418186e+01   4.8384936086e+01    0.3232546    0.2324889 -54.32   0.00102804    1.403    0.287
       202 -10.6212    102.9352     72.4783   4.4800346185e+01   4.8497204573e+01    0.2907819    0.2245909 -27.35 0.0007811411    1.594    0.373
       203 -11.9678    167.7567     73.2533   3.0703812493e+01   3.3208501878e+01    0.3499503    0.2087549 -42.67 0.0004727587    1.498    0.332
       204 -10.0484     56.0955     74.8497   6.3481969595e+01   5.7722602224e+01     0.301197    0.2096022 -52.95  0.001372635    1.437    0.304
       205  -9.8344     12.5581     74.7296   8.6695390641e+01   6.3039258219e+01    0.2530614    0.1742161  -8.15 0.0007722065    1.638    0.389
       206  -9.8012     61.5931     73.6930   6.0593008927e+01   5.7033389627e+01    0.2123379    0.1497672 -67.57 0.0009423398    1.543    0.352
       207 -10.3556      6.7165     68.4717   8.9204109593e+01   6.5097848272e+01    0.3317561    0.2105561  69.16  0.001042447    1.710    0.415
       208 -10.3390      7.5930     73.3869   8.9378127576e+01   6.3706788179e+01    0.3576899    0.2218184  -4.59  0.001293351    1.814    0.449
       209 -10.0109      1.9390     72.9893   9.2635866151e+01   6.4078398148e+01    0.2440283    0.2083199   8.80  0.001386602    1.259    0.206
       210 -10.3611     95.4499     71.6401   4.6855383980e+01   5.0408475514e+01    0.3623524    0.1852694  55.81 0.0006395829    2.055    0.513
       211 -10.0091     26.2128     72.0728   7.8314061899e+01   6.2609766565e+01    0.2393064    0.1920428 -37.14  0.001227701    1.300    0.231
       212 -13.9649     16.7556     67.2496   8.2837847582e+01   6.4774951715e+01    0.5315397    0.4576623 -41.00  0.001015706    1.157    0.136
       213 -10.2256     38.9506     70.8492   7.0911460866e+01   6.1407356946e+01    0.2707395    0.2143763 -63.60  0.000795174    1.248    0.199
       214 -11.7279     46.4721     60.7285   6.3605841871e+01   6.2837704176e+01    0.6575326    0.4486269  -9.67  0.001100958    2.216    0.549
       215 -10.8299     58.2734     58.6702   5.6834384369e+01   6.1228967675e+01     0.488231     0.341737   2.19  0.001976893    2.306    0.566
       216 -11.5970     50.3990     68.3191   6.4158043225e+01   6.0323108966e+01    0.3722069    0.3121257 -45.50 0.0005398439    1.227    0.185
       217 -10.4460     51.8695     62.4942   6.1420021434e+01   6.1501010023e+01    0.3722371    0.2966393 -29.85  0.001827191    1.440    0.305
       218 -11.8289    122.6826     67.4865   3.7833679501e+01   4.4769707042e+01    0.3075856    0.2563156 -55.05 0.0002760596    1.159    0.138
       219  -9.3157    244.6874     68.7130   2.0765104627e+01   1.9211685922e+01    0.1014682   0.08282947  -9.57 0.0003077775    1.581    0.367
       220 -12.6208    147.0311     65.6199   3.2106432849e+01   3.9244053464e+01    0.3273267     0.266804 -61.89 0.0004097107    1.147    0.128
       221 -10.6618    105.2014     65.3347   4.1709415635e+01   4.9413466582e+01    0.4259264    0.3428984  12.45  0.001459113    1.779    0.438
       222 -10.1997    110.5532     64.7237   4.0006752060e+01   4.8240217798e+01    0.3882219    0.2568301 -86.60  0.001170028    2.102    0.524
       223  -9.6865     93.6017     66.6849   4.5744085441e+01   5.1883230831e+01    0.2056176    0.1459272 -56.58 0.0003709164    1.461    0.316
       224  -9.2835     76.3461     67.6936   5.2314167331e+01   5.5517363633e+01    0.1630302    0.1210575  80.85 0.0007042661    1.697    0.411
       225 -12.5112     30.4561     63.2471   7.3531970726e+01   6.4475415049e+01    0.6399533    0.5750824  54.91  0.001120319    1.154    0.133
       226 -11.3160      2.6052     63.3243   9.1056178016e+01   6.6680271285e+01    0.5142025    0.3100183  88.61  0.002457383    1.678    0.404
       227 -10.5035     81.4166     64.8311   4.9338399964e+01   5.5047843749e+01    0.4388655    0.3069838  79.65  0.001367312    1.912    0.477
       228 -10.4339     83.4126     60.7433   4.7088270557e+01   5.5468245212e+01    0.3350846    0.3107671  71.03  0.001653301    1.032    0.031
       229 -10.1623     89.9581     61.1135   4.4938556963e+01   5.3881352369e+01    0.2385704    0.2144908  86.30 0.0003796282    1.104    0.094
       230 -10.0537     86.9793     58.0125   4.4787077758e+01   5.5204788792e+01    0.2916474    0.2199875  53.37  0.001310718    1.282    0.220
       231  -8.9782    131.2804     64.7064   3.4979831909e+01   4.3191575961e+01    0.1523851    0.1097456 -72.46 0.0002177224    1.532    0.347
       232  -9.9966    210.0734     63.1623   2.2729603344e+01   2.6003387661e+01    0.1720104    0.1508684 -37.87 0.0003201331    1.183    0.154
       233 -10.2360    202.0929     62.3118   2.3369842715e+01   2.7674872886e+01    0.2058049    0.1544125 -33.29 0.0007641684    1.281    0.219
       234  -9.5941    185.4992     63.5252   2.5618140744e+01   3.0900221302e+01    0.1353814    0.1156427 -54.19 0.0008100724    1.020    0.019
       235 -10.8839    155.2338     62.5350   2.9755041546e+01   3.7824406984e+01    0.3050247    0.2922095 -17.45  0.001608861    1.254    0.203
       236 -10.7821    150.1816     60.8005   3.0104943179e+01   3.9301974762e+01    0.3615304    0.2006416  68.34  0.001077687    1.919    0.479
       237  -9.8146    229.5054     61.9565   2.0627503372e+01   2.2618969614e+01    0.1900124   0.09414764 -36.26   0.00103069    1.583    0.368
       238  -9.6233    193.4653     62.5239   2.4394807682e+01   2.9385713685e+01     0.133484    0.1104845 -52.97 6.130992e-05    1.002    0.002
       239  -9.9283     18.3328     43.4563   7.5391292032e+01   7.0787065704e+01    0.4243812    0.2633969 -80.28  0.001493451    1.929    0.482
       240 -13.3820     12.5477     47.5867   8.1016576412e+01   7.0254790422e+01      0.71533    0.4482976  54.03 0.0007426792    1.873    0.466
       241 -11.1965      1.8046     53.9762   9.0231036850e+01   6.9200846006e+01    0.4656055    0.2057862 -57.29 0.0009450885    1.970    0.492
       242 -11.7549      3.2930     48.2477   8.8139990472e+01   7.0634195304e+01    0.5259472    0.4695804  78.74  0.002746026    1.183    0.155
       243  -9.8402    119.6211     60.9645   3.6413695349e+01   4.6724071290e+01    0.2133055    0.1885295 -63.14  0.001117945    1.084    0.077
       244  -9.6545    172.9837     61.0000   2.6614902356e+01   3.4004102878e+01    0.2049305    0.0778079  63.91 0.0005193113    2.831    0.647
       245 -10.8206    135.6916     58.6427   3.2131475607e+01   4.3169177062e+01    0.4198832    0.2599596  89.76  0.001732773    2.086    0.521
       246 -10.0643    114.9034     60.1006   3.7280542858e+01   4.8045699586e+01     0.230533    0.1855499  24.76 0.0006494008    1.668    0.400
       247 -10.0770    169.4202     59.4874   2.6702747221e+01   3.5036695942e+01    0.1409052    0.1204886 -58.82 -9.439198e-05    1.014    0.014
       248 -10.4201    127.3006     58.7241   3.3905556570e+01   4.5224413555e+01    0.2521524    0.2403469  74.62 0.0001669972    1.118    0.105
       249 -11.1323     80.0566     56.5559   4.6713689885e+01   5.7096732215e+01    0.4834911    0.3549961  -0.75  0.001538429    2.262    0.558
       250 -10.7351    145.6494     54.7367   2.9049486596e+01   4.1374927745e+01    0.4767167    0.2732604 -51.25  0.001392063    1.669    0.401
       251  -9.8689    177.1922     56.0453   2.4715290595e+01   3.3813416988e+01    0.1902992    0.1804671 -23.93 0.0004481338    1.273    0.214
       252  -9.5368    115.7797     55.6237   3.5502692032e+01   4.8634275304e+01    0.2156104    0.1397538  71.60 0.0009435672    1.634    0.388
       253  -9.2723     47.1783     54.8263   6.1028626052e+01   6.4126122669e+01    0.2088727    0.1732687   5.34  0.001052838    1.401    0.286
       254 -12.7073     39.1109     50.3111   6.3880705656e+01   6.6495378890e+01    0.8923149    0.7330456   9.17   0.00417083    1.340    0.254
       255 -10.6195     44.2294     43.2604   5.7829371841e+01   6.7240087227e+01    0.3007714    0.2631539  67.51 0.0008635914    1.270    0.213
       256 -11.6168     45.0367     38.1787   5.4950277966e+01   6.8165983599e+01    0.3209885    0.2983206 -65.87            0    1.161    0.138
       257  -9.9988     27.4054     54.3088   7.2682930105e+01   6.7118347970e+01      0.28836    0.2426656 -54.10  0.001566619    1.160    0.138
       258 -12.5805    105.0049     52.6193   3.7187515269e+01   5.1858256261e+01    0.3556519    0.3202707  67.32 0.0004128079    1.078    0.073
       259 -10.7365     89.5081     54.0165   4.2383211457e+01   5.5392887011e+01    0.3570284    0.2542628 -76.47  0.001579382    1.769    0.435
       260 -10.1488     89.5175     50.4750   4.0975340001e+01   5.6060519256e+01    0.3189932    0.2611176 -84.85  0.001350124    1.326    0.246
       261  -9.5110     61.9914     52.7184   5.2697943840e+01   6.1814248051e+01    0.2034846    0.1869644  51.90 0.0003401418    1.054    0.051
       262 -12.2480     10.8059     58.4927   8.4841390804e+01   6.7544547516e+01    0.8925816    0.7432126  58.74  0.003501541    1.284    0.221
       263 -11.7879    129.6206     49.9336   3.0477993119e+01   4.6117607639e+01    0.6081194    0.2882106  59.42  0.001357175    2.048    0.512
       264  -9.3343    120.6707     51.6095   3.2948824269e+01   4.8097816993e+01     0.153733    0.1185485  21.44  5.12138e-05    1.888    0.470
       265  -9.6834     73.6303     50.1450   4.6592494738e+01   5.9844146021e+01    0.2693609    0.2015839 -36.96  0.001289443    1.460    0.315
       266 -11.4606     51.8249     47.1581   5.5353458694e+01   6.5011281486e+01    0.7806042    0.4147874 -55.63  0.003216633    2.081    0.520
       267 -11.8364     65.0157     36.9753   4.4213843074e+01   6.4281513949e+01    0.5471832    0.4949883  52.40 0.0003783598    1.049    0.047
       268 -10.2276     55.8878     43.2364   5.1487892809e+01   6.5035666178e+01     0.348523    0.2706299  66.71  0.001730731    1.471    0.320
       269 -12.0646     57.1953     34.8923   4.6774291818e+01   6.6377577676e+01    0.5930547    0.4380686 -16.65  0.002861061    1.779    0.438
       270  -9.6841    164.0620     48.4859   2.4343264687e+01   3.7918449168e+01    0.1961839    0.1324909  73.01 0.0004141254    1.511    0.338
       271  -9.9615     78.0724     47.9125   4.3924162186e+01   5.9261965192e+01    0.2260596    0.1862733   6.05 0.0005746201    1.624    0.384
       272  -9.6384     69.1564     47.8690   4.7457879287e+01   6.1293667944e+01    0.2041674    0.1749572  24.70 0.0004059089    1.326    0.246
       273 -10.7805    141.3599     45.4768   2.6849931549e+01   4.3866449730e+01    0.4526842     0.259407  56.67  0.002059103    1.794    0.442
       274  -9.4976    121.5193     46.7878   3.1059605043e+01   4.8673765090e+01    0.1940117     0.132664 -52.39 0.0002513919    1.435    0.303
       275  -9.5636     82.5922     46.7529   4.1788791658e+01   5.8414378542e+01     0.209654    0.1406645 -52.88 0.0009438714    1.586    0.369
       276  -9.9852     62.0694     47.3481   5.0365609513e+01   6.2924497055e+01    0.2107071    0.1748882  48.99 0.0003301193    1.161    0.139
       277 -10.4249    112.3245     45.2951   3.2583333895e+01   5.1259251540e+01    0.2541996     0.218342  39.63 0.0004024231    1.357    0.263
       278 -12.4092    110.9160     35.6313   2.9201014333e+01   5.3116401490e+01    0.5805037    0.3313991 -25.12  0.000798481    2.147    0.534
       279  -9.9372    104.4806     46.4851   3.4996470248e+01   5.3056093262e+01    0.2476162    0.1429743  71.98  0.000603221    1.929    0.482
       280 -10.0836    152.8354     45.2776   2.4979337822e+01   4.1068344545e+01    0.3021184    0.1502632  64.24 0.0009586375    2.001    0.500
       281 -10.5057     23.9493     42.1587   7.0733232993e+01   7.0495058311e+01    0.5070497     0.184773 -57.91  0.001162963    2.578    0.612
       282 -12.8069     27.6167     37.6603   6.6158837437e+01   7.1075067136e+01    0.2924206      0.27475 -49.82 0.0003773628    1.091    0.084
       283 -11.2615     24.3943     34.8121   6.7283730605e+01   7.2140377395e+01    0.3093722    0.2379546 -35.36 0.0004895366    1.315    0.240
       284 -10.9861     89.1792     41.2962   3.7276350052e+01   5.7774272542e+01    0.3509946    0.2780704 -68.42  0.001144289    1.358    0.264
       285 -12.2174     83.0724     36.5019   3.7125132550e+01   6.0084327951e+01    0.9202816    0.6238652   3.01  0.003760642    2.634    0.620
       286 -11.6467     74.8524     35.3611   3.9474155819e+01   6.2273710053e+01    0.5143482    0.4018477  43.66  0.001443535    1.295    0.228
       287 -10.1429     73.3970     31.7204   3.8248162606e+01   6.3220873668e+01    0.2548874    0.2161258  40.22 0.0005668479    1.225    0.184
       288  -9.9292    121.6531     42.8215   2.9610371168e+01   4.9262818347e+01    0.2445874     0.205195  85.33 0.0007497921    1.118    0.105
       289 -10.6505     96.5667     42.1024   3.5414120666e+01   5.5789321756e+01    0.3702735    0.2676486  19.65 0.0009250262    2.105    0.525
       290  -9.9491     72.8398     42.7186   4.3665505714e+01   6.1449845114e+01    0.2897569    0.1897448 -68.72  0.000816596    2.104    0.525
       291  -9.7678     34.3781     43.3705   6.3991423085e+01   6.8818726722e+01    0.2147912    0.1622089 -19.06  0.001069116    1.559    0.359
       292 -10.2917    131.0373     41.8283   2.7437874814e+01   4.7014295939e+01    0.2421704    0.2021303 -50.71  0.000512252    1.159    0.137
       293 -11.3176    226.1276     39.4289   1.5948661946e+01   2.6071568139e+01     0.354522     0.140459 -33.50  0.001411816    2.040    0.510
       294 -10.4411    187.5365     40.5244   1.9421165920e+01   3.3695245849e+01    0.3365847    0.2411896  24.56 0.0009682822    2.361    0.577
       295 -10.2847    236.1813     40.0799   1.5414110080e+01   2.4187530056e+01    0.1618627    0.1355782 -37.17 0.0004413383    1.251    0.201
       296  -9.7016    158.1922     41.8852   2.3194321624e+01   4.0256494387e+01    0.1733738    0.1656371   9.79 0.0003986053    1.351    0.260
       297 -10.0210    156.7809     37.7776   2.2139959329e+01   4.1164512491e+01    0.4301826    0.1593871  67.86  0.001669315    2.654    0.623
       298 -11.2825    248.0163     36.4507   1.3940003636e+01   2.2591816005e+01    0.2054864    0.1478091 -50.99  0.000321737    1.051    0.048
       299  -9.6477    201.9975     37.2643   1.7280721803e+01   3.1045040833e+01    0.1457626    0.1032029  84.13 0.0005275878    1.482    0.325
       300  -9.7294      1.4152     37.0616   8.7290034541e+01   7.3552256296e+01    0.2804205    0.1197267 -72.15   0.00103633    2.194    0.544
       301  -9.9716      1.9829     32.1360   8.5534546767e+01   7.4741012261e+01    0.3051349    0.1838414 -88.27  0.001508889    1.892    0.471
       302 -11.8860    240.3490     34.8739   1.4055021198e+01   2.4071965281e+01    0.2297076    0.2092554 -86.49 0.0003228812    1.371    0.271
       303 -10.7358     95.8659     35.7816   3.2962375372e+01   5.6978597819e+01    0.5617492    0.2437245  67.89  0.001374404    2.551    0.608
       304 -10.2961    193.7076     34.1682   1.7206906226e+01   3.3172977346e+01    0.3573834    0.1248969 -44.64 0.0009391581    2.197    0.545
       305  -9.5341    134.8338     35.1851   2.4496958463e+01   4.6998117780e+01    0.2661764    0.1240342 -65.58 0.0009417072    2.921    0.658
       306 -10.0111    148.5512    248.6973   6.7887160385e+01   5.3768629324e+00    0.1234896    0.1122541 -53.12 0.0009459586    1.611    0.379
       307 -11.0414     17.4493     31.5946   7.1457464757e+01   7.3685296954e+01    0.5626242    0.3091226   2.63  0.001955901    2.344    0.573
       308 -10.3282     83.5128    248.3572   8.1583304629e+01   1.2495684563e+01    0.2464541    0.1124757  30.29 0.0007674955    1.623    0.384
       309 -11.1481     72.9714    244.6962   8.3674996528e+01   1.4260330714e+01    0.2847537    0.2492481  23.33  0.001292612    1.147    0.128
       310 -12.4983     75.1253    239.4616   8.2783624181e+01   1.4963862143e+01    0.5328396    0.4752951  12.33  0.003324366    1.197    0.165
       311  -9.5405     45.4942    244.4769   8.9954648593e+01   1.7126965931e+01    0.1235605   0.09124495  38.40 4.024843e-05    1.029    0.028
       312  -9.6607    102.4724    243.4844   7.6955772927e+01   1.1235208699e+01    0.1214264   0.09478673  25.01 0.0001776017    1.007    0.007
       313  -9.6278    146.3868     34.0191   2.2365891932e+01   4.4234016163e+01    0.2005687    0.1312538 -33.29 0.0003560379    1.556    0.357
       314 -10.8868    122.9255     32.6728   2.5655221242e+01   5.0414041634e+01    0.3754774    0.3165094 -58.73  0.002063046    1.128    0.114
       315  -9.7055     34.0755     33.6691   5.9647093198e+01   7.0991848376e+01    0.1973919     0.168496  35.67 0.0006812803    1.143    0.125
       316 -10.2850    165.0506     36.0848   2.0612431861e+01   3.9405116826e+01    0.2044577    0.1723385 -65.84   0.00120783    1.004    0.004
       317  -9.5586    221.5755     31.7465   1.4533706622e+01   2.7838437614e+01    0.1674454   0.08149973 -43.98 0.0003024594    1.513    0.339
       318  -9.7430    178.3367     30.8260   1.7713762566e+01   3.6985921406e+01    0.1794388    0.1179054 -25.24 0.0009433737    1.694    0.410
       319 -11.6312    198.2142     28.0737   1.5299881665e+01   3.2955170459e+01    0.4482547    0.2226869 -87.66  0.002220721    2.214    0.548
       320 -10.6400    145.5983     27.0653   2.0208896706e+01   4.5329493415e+01     0.309938    0.2751193  50.68  0.001815507    1.355    0.262
       321 -10.3902    101.4566     28.3310   2.8367150299e+01   5.6616517056e+01    0.3406265    0.2245165 -81.14  0.000931905    1.738    0.425
       322  -9.3172     12.0105     29.4112   7.5311290908e+01   7.4718627859e+01    0.1810189    0.1255951  14.47  0.000281979    1.435    0.303
       323 -10.9511    247.9892     26.4953   1.1912689694e+01   2.3712630065e+01    0.2681997    0.1380998 -50.25 0.0006897806    1.395    0.283
       324 -10.4507    234.5572     27.7023   1.2862493664e+01   2.5909403695e+01     0.171396   0.07457104 -42.51 0.0009497711    1.606    0.377
       325 -10.8839    156.7269     28.0955   1.9181932206e+01   4.2437101948e+01    0.2470022    0.1832481  86.86 0.0003321822    1.269    0.212
       326 -10.6224     88.8749    240.8870   7.9755868929e+01   1.3194452005e+01    0.1798053    0.1481027   4.53  0.001215753    1.256    0.204
       327 -10.5232     60.3227    241.0920   8.6329645110e+01   1.6247205850e+01    0.2188717    0.1395008  19.79 0.0009376579    1.411    0.291
       328 -10.3882    138.9921     19.2879   1.8434688524e+01   4.7937858247e+01    0.3120179    0.2378582 -88.42 0.0009285402    1.180    0.152
       329  -9.7744    114.6394    240.0265   7.3949148985e+01   1.0435399023e+01    0.3116484   0.07253548  36.53  0.001193094    3.307    0.698
       330 -10.1632    122.9954     26.1562   2.3217663476e+01   5.1257283614e+01    0.2657044    0.2054437 -62.08   0.00096191    1.220    0.181
       331 -11.1959    118.0945     27.6241   2.4636244374e+01   5.2350993348e+01    0.4877871    0.3037136  72.87  0.002312955    1.508    0.337
       332 -11.5037    112.3815     26.8908   2.5432012394e+01   5.3945455141e+01    0.4154814    0.3235535   9.23  0.001085814    1.811    0.448
       333 -10.6389    239.8435     26.4956   1.2323023344e+01   2.5108899578e+01    0.2201472     0.125962 -39.01  0.000914246    1.314    0.239
       334 -10.2215    176.8016     26.9015   1.6772333222e+01   3.7817022555e+01    0.1838231    0.1660948 -55.34 0.0003701915    1.167    0.143
       335 -10.1369     80.2158     25.9529   3.3052220650e+01   6.2413602601e+01    0.3112149    0.1881119 -32.83 0.0008462777    1.795    0.443
       336 -10.7285     83.0377     22.1363   3.0310761141e+01   6.2221730335e+01     0.387787     0.284601  74.38  0.001150799    1.311    0.237
       337 -10.1640     87.1014     20.1035   2.8190957928e+01   6.1437041829e+01    0.2115886    0.1802697  48.34 0.0002728656    1.216    0.177
       338 -10.3017     54.7904     23.7245   4.1849071474e+01   6.8817800550e+01    0.3347372    0.2715427 -54.99  0.001293589    1.382    0.277
       339 -10.8686     61.4804     26.3743   4.0264692085e+01   6.6883709684e+01     0.500447    0.3184761   6.52  0.001950036    3.036    0.671
       340 -10.5491     59.3382     21.1750   3.8261896837e+01   6.8175196624e+01    0.4076666    0.2168182  63.17 0.0007969386    2.003    0.501
       341 -10.7543     64.6455     19.1656   3.4906281929e+01   6.7205232481e+01    0.2627859    0.2347784  81.54 0.0005348389    1.137    0.120
       342 -10.8282    227.0945     25.8810   1.2884306295e+01   2.7476825053e+01    0.1836555    0.1155684 -54.16            0    1.212    0.175
       343 -11.6494    216.2332     25.4431   1.3430665313e+01   2.9597669382e+01     0.334223    0.1973958  68.41 0.0009225602    1.950    0.487
       344 -10.1234     71.2047     25.7988   3.6050599035e+01   6.4667562178e+01    0.2070471    0.1620869  37.61  0.001066079    1.367    0.268
       345 -10.2993    160.2055     24.3595   1.7658526177e+01   4.2044499939e+01    0.3078234    0.1685019 -44.90 0.0009018854    1.585    0.369
       346 -10.3457    195.5191    238.4808   5.7945803710e+01   1.9175677446e+00    0.1917686    0.1436244  -7.63 0.0009324554    1.093    0.085
       347 -10.7638     35.1362    237.8923   9.2037263358e+01   1.9372189733e+01    0.2075815    0.1499399  65.07  0.001351525    1.367    0.268
       348 -10.8490     22.3443     23.9804   6.3411135642e+01   7.4750390036e+01    0.3224985    0.2464265  -2.68 0.0006180984    1.432    0.302
       349 -12.1994     28.7216     19.7455   5.5577153418e+01   7.4621222624e+01    0.3071391    0.2348007  25.90 0.0003117232    1.277    0.217
       350 -11.3182     30.8832    234.7029   9.2898701716e+01   2.0393761597e+01    0.4403803    0.2396142  58.22  0.002255949    1.673    0.402
       351  -9.9979     32.0344    230.4576   9.2435415473e+01   2.1125967527e+01    0.1779991    0.1577219  16.73  0.001017079    1.269    0.212
       352 -11.5821    248.5719     21.1164   1.0792742646e+01   2.4197741706e+01    0.2419183    0.2075777 -70.59 0.0008271581    1.301    0.231
       353 -10.0496     18.9492    237.4944   9.5806057090e+01   2.0930208486e+01    0.2769582     0.108437  15.95  0.001229294    2.746    0.636
       354 -11.4658    243.3952     14.0710   9.5725495249e+00   2.5826887260e+01    0.1912505    0.1389388 -70.82 0.0003712306    1.278    0.217
       355 -10.0106    155.8543     21.8433   1.7343939243e+01   4.3405050307e+01    0.1896743    0.1760743  88.63 0.0004977222    1.188    0.159
       356 -10.2477    121.9857     20.4480   2.1224050603e+01   5.2219696438e+01    0.3903978    0.2343265  44.44   0.00177993    2.038    0.509
       357 -10.8287     69.7166     21.5635   3.4337508160e+01   6.5640929282e+01    0.3453387    0.2242302  80.22  0.001574352    1.855    0.461
       358  -9.0988     48.2811     22.7189   4.4601755126e+01   7.0390882781e+01     0.131897    0.1095959 -89.88 0.0002169263    1.511    0.338
       359  -9.3752    224.7608     21.4182   1.2022594832e+01   2.8412050413e+01    0.1344329    0.1037266  74.18  0.000450471    1.557    0.358
       360 -10.6136    193.3002     20.8657   1.3831527050e+01   3.4841666867e+01    0.2045481    0.1855716 -77.77 0.0002080625    1.220    0.180
       361  -9.3605     99.1496     20.1238   2.5312478307e+01   5.8282714574e+01    0.1919465    0.1497526 -63.57            0    1.286    0.223
       362  -9.6827     41.3862     19.2941   4.6443482994e+01   7.2373289603e+01    0.1881407    0.1696154  44.43 0.0008159501    1.062    0.058
       363  -9.6350    108.3845     17.4059   2.2300750613e+01   5.6161813137e+01    0.2472971    0.1376846  -3.50  0.000954457    3.113    0.679
       364 -10.2315     67.5745    236.0904   8.4286552927e+01   1.6403501151e+01    0.2570513    0.1574963  20.17    0.0014617    1.462    0.316
       365 -11.0524    182.9895    234.1709   5.9572735138e+01   3.7446487236e+00    0.2427391    0.1694448  28.44  0.001314646    1.447    0.309
       366  -9.6537     76.7263     15.7782   2.8899660564e+01   6.4638751103e+01    0.3481664    0.1696436  60.16 0.0003241418    1.811    0.448
       367 -10.5546     72.0166     16.0224   3.0502418771e+01   6.5800502125e+01    0.3129937    0.2102223  42.55  0.001192522    1.549    0.355
       368 -11.7658    185.3797    227.8518   5.8284297495e+01   4.3456807202e+00    0.4928505    0.2843058  -1.43  0.002968651    1.798    0.444
       369 -11.2153    160.6030    235.0911   6.3882773430e+01   6.0177852562e+00    0.2606809    0.1321698  17.76  0.001125198    1.796    0.443
       370  -9.5299      6.4662    235.4156   9.8645620069e+01   2.2390458881e+01    0.1226268   0.08668661  43.84  0.000145623    1.039    0.037
       371 -11.7088     39.3441    230.6336   9.0680168208e+01   2.0384959353e+01    0.4180902    0.2237774 -69.14  0.002292756    2.207    0.547
       372  -9.4409     88.2592    233.6791   7.9252849236e+01   1.4544215414e+01     0.120718   0.08030511  50.77 0.0002880835    1.547    0.354
       373  -9.7349    215.7669     16.3416   1.1350884714e+01   3.0700255562e+01    0.2673567   0.06899124  65.35  0.001098101    4.106    0.756
       374 -10.1302    193.4425     16.3290   1.2658727306e+01   3.5315694580e+01    0.2228323    0.1334186 -87.26 0.0007453379    1.615    0.381
       375  -9.0193    150.3039     16.6296   1.6274778314e+01   4.5373745314e+01    0.1538232   0.08159955 -59.04 0.0007032953    1.752    0.429
       376  -9.1557     24.2753    232.3111   9.4372294000e+01   2.1475329322e+01    0.1053958   0.09044229 -20.73 0.0003012474    1.556    0.357
       377 -10.1174     54.5244    231.5143   8.7071191896e+01   1.8667649569e+01    0.1266299     0.100085  36.20 9.485395e-05    1.012    0.011
       378  -9.7876     59.2230    229.3731   8.5792271470e+01   1.8586908515e+01    0.1872652   0.08812136  34.69 0.0007389782    1.604    0.376
       379  -9.5203     95.7399     17.5372   2.4890326696e+01   5.9489479562e+01    0.2850536    0.1231772  64.01  0.001144757    2.036    0.509
       380 -10.0322     91.6571    235.6942   7.8655010189e+01   1.3795406673e+01     0.122486   0.08608023  -5.51 0.0002968801    1.687    0.407
       381  -9.4928    151.6921    228.3553   6.4781387690e+01   8.0250161327e+00    0.1094531   0.08718921  49.57  0.000704241    1.723    0.420
       382 -10.6965     28.7250    245.0281   9.3819213758e+01   1.8618045552e+01    0.2517702    0.1580285  85.26  0.001482949    1.813    0.448
       383  -9.7588    131.4779    226.5152   6.8768658903e+01   1.0698814925e+01    0.1228341     0.100136  17.19 0.0001033583    1.015    0.015
       384 -10.1204      3.8050    225.8768   9.9072590314e+01   2.4518859311e+01    0.1661711    0.1561818  33.73 0.0009183784    1.280    0.218
       385 -10.0158     16.3117    222.0336   9.5935838501e+01   2.4278628183e+01    0.1725265    0.1361598  56.98 0.0006302439    1.120    0.107
       386 -11.3879     47.8475    218.6266   8.7873282482e+01   2.1968880049e+01       0.6215    0.2274125  19.41  0.002461766    2.832    0.647
       387  -9.0879    198.6563    219.3268   5.4745493447e+01   4.0852335953e+00   0.09443668   0.08678138  38.41 0.0007050844    1.742    0.426
       388  -9.4596    176.3378    218.7256   5.8662427947e+01   6.6311537067e+00    0.1032469   0.08541504  40.02 0.0002753295    1.608    0.378
       389  -9.8189    136.0483    216.8301   6.6549064789e+01   1.1769027876e+01    0.1891972    0.1542736  37.67  0.001222628    1.296    0.228
       390 -12.5487      4.9339    208.4364   9.8403307347e+01   2.8145147452e+01    0.8101669    0.3049854  83.14  0.003596924    2.727    0.633
       391 -10.0382     23.9810    215.9969   9.3789207765e+01   2.4875225407e+01    0.2097108    0.1100369  51.89 0.0004057169    1.576    0.365
       392  -9.6109    211.7974    218.8208   5.2479773188e+01   2.7874756592e+00    0.1328699    0.1127665  -8.81 0.0006808129    1.304    0.233
       393 -10.3401     14.5408    215.4626   9.6159891251e+01   2.5824627331e+01    0.2104347    0.1421288  20.00 0.0006873113    1.443    0.307
       394 -12.0921     12.3480    211.2455   9.6580619798e+01   2.6925756524e+01    0.5029253    0.2265003  69.80  0.001645673    2.142    0.533
       395 -10.0945    110.2929    211.9637   7.1767104000e+01   1.5907375779e+01    0.1735691     0.159501  -0.43 0.0006605803    1.129    0.114
       396 -11.4810     20.1804    200.9940   9.4134834272e+01   2.8546482538e+01    0.5755315    0.2029466 -58.84  0.002311771    3.372    0.703
       397  -9.7976    217.0049    209.0217   5.0186704852e+01   3.5161711311e+00    0.1377602   0.09813261 -19.83 0.0009562857    1.141    0.124
       398 -10.0917    147.9083    205.7806   6.2469153465e+01   1.2149799981e+01    0.2493885    0.1630768   4.33  0.001373955    1.648    0.393
       399  -9.9073     27.9611    205.0527   9.2241850850e+01   2.6910285679e+01    0.1589627    0.1296431  49.86 0.0003598577    1.032    0.031
       400  -9.1981    188.2974    204.7146   5.4382809844e+01   7.2981973091e+00   0.09726784   0.09148908  36.80 0.0003260146    1.548    0.354
       401 -10.1657    205.5939    203.1847   5.1146290683e+01   5.5292088914e+00    0.1620557   0.08654986 -27.08 0.0009515076    1.699    0.411
       402 -10.8669    175.4335    202.0638   5.6358974765e+01   9.2574328355e+00    0.2566687    0.1867739 -12.46  0.001231142    1.275    0.216
       403 -10.2538     67.1729    202.8783   8.1607945855e+01   2.3172329414e+01    0.2315903    0.1925713  42.52  0.001386287    1.045    0.043
       404  -9.4697    120.4531    200.4841   6.7871931453e+01   1.6761631167e+01    0.1323111    0.1150693  14.07 0.0001796811    1.041    0.039
       405 -10.8225     29.1965    215.5066   9.2438756332e+01   2.4495159700e+01    0.2598767    0.1897854  34.07  0.001294899    1.137    0.120
       406  -9.5700    206.7683    197.9267   5.0125428723e+01   6.1283305467e+00    0.1462498   0.08006947 -33.94  0.000870998    1.619    0.382
       407  -9.7126    134.9214    196.4778   6.3949026363e+01   1.5543692803e+01    0.1843646    0.1644682 -26.29 0.0004880813    1.168    0.144
       408  -9.6405     56.7586    197.2121   8.3894867365e+01   2.5661388807e+01    0.2155996    0.1441069 -24.17  0.001045827    2.111    0.526
       409 -12.0435     15.7745    192.0455   9.4960709943e+01   3.1016001423e+01    0.4262549    0.3770404   3.94  0.001836774    1.343    0.255
       410 -10.2915    186.6216    193.2416   5.2874544569e+01   9.2289294408e+00    0.3725003    0.2205188   1.17   0.00199401    2.051    0.512
