#   1 NUMBER                 Running object number                                     
#   2 MAG_AUTO               Kron-like elliptical aperture magnitude                    [mag]
#   3 X_IMAGE                Object position along x                                    [pixel]
#   4 Y_IMAGE                Object position along y                                    [pixel]
#   5 X_WORLD                Barycenter position along world x axis                     [deg]
#   6 Y_WORLD                Barycenter position along world y axis                     [deg]
#   7 A_WORLD                Profile RMS along major axis (world units)                 [deg]
#   8 B_WORLD                Profile RMS along minor axis (world units)                 [deg]
#   9 THETA_WORLD            Position angle (CCW/world-x)                               [deg]
#  10 FWHM_WORLD             FWHM assuming a gaussian core                              [deg]
#  11 ELONGATION             A_IMAGE/B_IMAGE                                           
#  12 ELLIPTICITY            1 - B_IMAGE/A_IMAGE                                       
         1 -12.7098    215.1944     50.8692   3.1945584339e+01   2.5260712926e+01     1.157019     1.009396  22.12  0.007229311    1.308    0.236
         2 -13.1187    234.8678     35.8954   2.6401155375e+01   2.2915377223e+01     1.037745    0.7848381  40.49  0.006536069    1.623    0.384
         3 -10.9350      2.1571     13.9905   9.7039835894e+01   7.6101171370e+01    0.4430237    0.1442609 -73.76    0.0017645    2.947    0.661
         4 -11.1134      3.4325      4.6607   9.2445188352e+01   7.8182517771e+01    0.4470268    0.3113068 -67.30  0.002658213    1.421    0.296
         5  -9.0095    192.1150    193.3197   6.6533533763e+01   9.6466885777e+00    0.2720491    0.1752676 -54.60  0.001416249    3.067    0.674
         6 -14.0424     97.2493    227.8950   9.0886934114e+01   1.7320466619e+01     5.666185    0.2080424  38.56   0.01638716    5.871    0.830
         7 -11.4644     41.0436    176.1242   1.0025536135e+02   3.3480229653e+01    0.3622675    0.2763312  -9.15 0.0005235609    1.724    0.420
         8 -11.4226     49.0359    170.0802   9.7605899830e+01   3.3961922074e+01      0.29213    0.2542598   0.42 0.0004644105    1.361    0.265
         9  -9.2651    110.8166    167.6195   8.0496381250e+01   2.6257656069e+01    0.2217728    0.1993392 -67.43 0.0005509693    1.330    0.248
        10 -10.6324     62.0834    160.5797   9.2991232095e+01   3.4577511542e+01    0.2761725    0.2309581  32.85 0.0004612473    1.107    0.097
        11 -12.8713     47.1280    156.6432   9.6962329970e+01   3.7178824023e+01    0.5113514    0.3456937 -26.92  0.001709929    2.058    0.514
        12 -11.7710     75.9088    140.2818   8.6200197078e+01   3.7417398507e+01    0.6502612    0.3714876 -83.74 0.0006844153    2.441    0.590
        13 -12.5428     68.4184    144.1469   8.9079738737e+01   3.7541094721e+01     1.000731    0.5106217  53.17  0.003178462    2.116    0.527
        14 -13.9173     14.2249    195.5064   1.0803521140e+02   3.1870965850e+01     1.487661    0.6297459  51.19  0.003611773    1.823    0.452
        15 -12.9455     10.5066    206.5501   1.0921351932e+02   3.0033774704e+01    0.8594168    0.5187704  11.48   0.00340375    1.929    0.482
        16  -8.3830    132.4928    140.9855   7.0159040233e+01   2.7908907773e+01    0.1916441    0.1324585 -78.37 0.0006868497    2.572    0.611
        17 -10.0547     88.1071    141.8821   8.2732126890e+01   3.5247838891e+01    0.3038099    0.2692833 -30.65 0.0008206812    1.273    0.214
        18  -8.9471     92.3067    138.8950   8.0966302158e+01   3.5268563985e+01    0.1906912    0.1853221 -33.22 0.0003925784    1.124    0.110
        19 -10.1843    105.1366    130.8114   7.5638180407e+01   3.4936741284e+01    0.4974935     0.298128  34.74  0.001652602    1.548    0.354
        20  -9.8075     89.6444    126.5156   7.9523222618e+01   3.8535280566e+01    0.3058126     0.246837   9.44 0.0006369785    1.399    0.285
        21 -11.4454     54.8251    123.7952   9.0658829638e+01   4.4184464258e+01    0.7126542    0.2865219 -82.44   0.00228996    3.951    0.747
        22  -8.3535     36.4988    124.5076   9.7142929258e+01   4.5988415085e+01    0.1357338     0.124949  64.30 -6.388169e-05    1.002    0.002
        23 -15.0211     26.2350    186.0775   1.0470771742e+02   3.2771875468e+01     8.212044     2.364169  76.95   0.02696422    5.584    0.821
        24 -10.6316    244.4848    118.9991   4.3900932239e+01   1.1422098672e+01    0.2797007    0.1028726 -24.85  0.001221248    2.618    0.618
        25  -9.1449    102.3615    119.0816   7.4028513061e+01   3.8050405428e+01    0.2326102    0.1945451  23.61  0.001109398    1.199    0.166
        26  -9.1509    204.0737    110.9883   4.8189897200e+01   1.9414053956e+01    0.3347075    0.1581268  35.94  0.001450886    2.392    0.582
        27 -11.9206     71.3393    154.1891   8.9531012208e+01   3.4845416640e+01    0.7612556    0.4667178  43.45  0.001872819    1.457    0.314
        28  -9.8593    241.7691    107.3833   4.1836148618e+01   1.3273370754e+01    0.1600916    0.1054414  34.16 0.0009544583    1.659    0.397
        29 -10.5269     42.5486    105.4267   9.2449588769e+01   5.0227456808e+01    0.4546379    0.2384253  57.30  0.001504022    2.200    0.545
        30 -11.0872    244.8382     97.4786   3.9340370246e+01   1.3976570816e+01    0.2414136    0.1817037  -8.34  0.001557835    1.245    0.197
        31  -9.1724    166.4988     85.5281   4.8732328866e+01   3.1181933438e+01     0.146428    0.1385602   8.41 8.997774e-05    1.037    0.035
        32 -13.2146     81.1859    235.6090   9.4991175690e+01   1.7981305551e+01     1.023806    0.5756969  30.47  0.004221067    1.323    0.244
        33  -8.4415     44.3217     84.6444   8.8060370710e+01   5.5384637571e+01    0.1552193    0.1035726  63.21 0.0007046051    1.760    0.432
        34  -9.0173    184.5074     77.4749   4.3198042115e+01   2.8400565094e+01    0.1399718    0.1328498  -9.20 4.073756e-05    1.023    0.023
        35 -14.4739     18.3401    243.1248   1.0846818169e+02   2.3009179861e+01     4.003262     1.559181  29.24   0.02374882    1.865    0.464
        36  -9.1895     61.8685     71.6870   7.7047338959e+01   5.6275738208e+01    0.2084077     0.187529  36.27 0.0005574377    1.108    0.097
        37  -9.6893     13.4382     60.0499   9.8777409314e+01   6.4313930840e+01     0.240824    0.1851079  56.09 0.0004353909    1.412    0.292
        38  -9.9515     81.7657    213.4529   9.3078230541e+01   2.1600510284e+01    0.2336919    0.1762837  61.89 0.0005896862    1.425    0.298
        39 -10.2782     50.9511    200.9575   9.9424004680e+01   2.7400243667e+01    0.4550944    0.1601329  59.43  0.001818811    3.533    0.717
        40  -9.0718     84.8500     50.1151   5.9841014759e+01   5.6781163794e+01    0.2302726    0.2123982 -83.60 0.0007107552    1.246    0.197
        41  -8.2279     95.2684     46.6703   5.4627662203e+01   5.5087351857e+01    0.1502527    0.1218402 -76.39 0.0002139787    1.580    0.367
        42 -12.6683      6.3858    201.5316   1.1003368578e+02   3.1302740168e+01    0.3986242    0.3287095  10.05 0.0007685056    1.462    0.316
