#   1 NUMBER                 Running object number                                     
#   2 MAG_AUTO               Kron-like elliptical aperture magnitude                    [mag]
#   3 X_IMAGE                Object position along x                                    [pixel]
#   4 Y_IMAGE                Object position along y                                    [pixel]
#   5 X_WORLD                Barycenter position along world x axis                     [deg]
#   6 Y_WORLD                Barycenter position along world y axis                     [deg]
#   7 A_WORLD                Profile RMS along major axis (world units)                 [deg]
#   8 B_WORLD                Profile RMS along minor axis (world units)                 [deg]
#   9 THETA_WORLD            Position angle (CCW/world-x)                               [deg]
#  10 FWHM_WORLD             FWHM assuming a gaussian core                              [deg]
#  11 ELONGATION             A_IMAGE/B_IMAGE                                           
#  12 ELLIPTICITY            1 - B_IMAGE/A_IMAGE                                       
         1 -15.4787    243.7342    117.6255   2.1830143593e+01   1.1583769816e+01     4.289505    0.8771323 -33.03   0.01489278    3.937    0.746
         2 -13.0707     27.4496     46.8073   6.1053764659e+01   6.7663179464e+01     2.626606    0.8164078 -45.83   0.00908195    3.031    0.670
         3 -12.4087     66.2955     42.2635   3.8427603633e+01   6.2254726774e+01     1.599665    0.9252332  -1.15  0.004467715    5.459    0.817
         4 -13.3603     79.7532     30.3235   2.7462342171e+01   6.1280562281e+01     1.295812    0.7610884 -14.97  0.005329825    2.319    0.569
         5 -13.3615     64.3544     31.8119   3.4166627583e+01   6.4544264797e+01     1.341008     0.941289  27.66   0.00648896    1.580    0.367
         6 -11.7127     92.9503     10.7045   1.3954656588e+01   6.0436234296e+01    0.5562724    0.3422365  14.84  0.001744581    2.177    0.541
         7 -11.8170     99.0200      3.2950   9.1283418130e+00   5.9523906373e+01    0.7827334    0.2891357  50.15   0.00299047    2.533    0.605
         8 -11.9495     82.0219     18.6733   2.0857980865e+01   6.2332378264e+01    0.7245505    0.3733527  35.77  0.002915825    2.333    0.571
         9 -13.3561     43.1043     40.5504   4.9116184593e+01   6.6914412029e+01     2.244689    0.7804793 -34.75  0.006018542    5.319    0.812
        10 -14.6508     70.4735     10.7055   2.0141880827e+01   6.6105911280e+01     4.498687     2.554312  49.84   0.02121003    1.600    0.375
        11 -12.4437    108.3850     14.6656   1.2559816095e+01   5.5984257341e+01    0.5382466    0.3386413  31.75  0.002462099    1.928    0.481
        12 -11.9059    106.4460      7.6496   9.8077611409e+00   5.7182582813e+01    0.4489719    0.3519969 -26.85  0.001803525    1.362    0.266
        13 -10.2906    110.4988      2.5232   6.8775014123e+00   5.6547984049e+01    0.2187272    0.1394177 -18.99 0.0008302475    1.724    0.420
        14 -10.9041    106.3980      2.0318   7.2926366557e+00   5.7675667575e+01    0.4238359    0.1637682  62.33  0.001698287    2.186    0.542
        15 -11.5745    118.0240     15.2910   1.1077272756e+01   5.3368612541e+01    0.3039174    0.2077529  -8.33  0.001472613    1.762    0.433
        16 -10.2481    114.5095      2.0685   6.0979614197e+00   5.5519497642e+01    0.2511603    0.1283988 -26.63 0.0009492133    2.011    0.503
        17 -11.3455    120.6439      9.5625   8.3161007018e+00   5.3238965764e+01    0.2654304    0.1796306 -16.12  0.001226994    1.666    0.400
        18 -12.3057    121.2476      2.9680   5.5567242510e+00   5.3657819146e+01    0.4272854      0.39392 -23.45  0.002576251    1.195    0.163
        19 -11.7713    113.3281      7.3347   8.5171410695e+00   5.5385674791e+01     0.376613    0.2587066 -21.74  0.001241055    1.577    0.366
        20 -11.9429      1.9651    179.5149   8.9046879808e+01   3.5407535785e+01    0.5720252    0.2301726 -79.04  0.002694715    2.377    0.579
        21 -15.3731    192.5249    246.2680   5.2438085775e+01   1.2893243479e+00     5.026155     2.246175   0.15   0.02091303    4.419    0.774
        22 -14.3936    226.1255    240.3443   4.6021255556e+01  -1.5633654609e+00     1.125927    0.5012618 -34.34  0.007075748    2.298    0.565
        23 -15.0163    248.5383    214.4427   3.8746690486e+01  -1.0436050552e+00     2.458906    0.4635758 -35.80  0.009836352    4.958    0.798
        24 -13.7682    231.7578    234.1028   4.4244051580e+01  -1.4642245675e+00    0.5598546    0.3748227 -26.07  0.004278622    1.524    0.344
        25 -14.0299    236.9674    227.4403   4.2460523414e+01  -1.2753654168e+00    0.6282846    0.4305719   3.24   0.00374498    1.062    0.058
        26 -13.4552    225.6709    248.4590   4.7216668872e+01  -2.3647056822e+00     0.494133    0.2292154  18.85  0.002711388    1.772    0.436
        27 -13.9814    248.9970    224.3458   4.0193794603e+01  -2.1414853565e+00    0.7879839    0.3563769  -8.43  0.004434406    2.499    0.600
        28 -14.3136    234.2276    244.3378   4.5313842668e+01  -2.7704326041e+00    0.7376763    0.3356838 -11.19  0.004374032    2.346    0.574
        29 -15.0475    246.0480    247.1234   4.3915726214e+01  -4.1467292274e+00    0.9413081      0.69557 -15.48  0.008102877    1.454    0.312
        30 -14.3260    248.6474    236.8242   4.2079523960e+01  -3.3786641287e+00    0.6782038    0.2729017 -25.02  0.004232835    2.146    0.534
        31 -11.8116      5.8499    174.4963   8.7826835753e+01   3.6284336451e+01     0.369993    0.2685482 -64.46  0.001874833    1.523    0.343
        32 -11.9270      5.4035    184.8905   8.8343805716e+01   3.3929478584e+01    0.3642508    0.2345782  15.25  0.001437861    1.743    0.426
        33 -10.3970     23.0132    182.4945   8.3614478474e+01   3.3006441864e+01     0.168396    0.1048857 -14.75 0.0008102603    2.524    0.604
        34 -11.5972      8.8218    179.5777   8.7242449692e+01   3.4877040072e+01    0.2244322    0.1863912 -52.37 0.0008068785    1.473    0.321
        35 -11.9376     17.7436    177.0275   8.4722494908e+01   3.4739140766e+01    0.2793259    0.1736888   1.16  0.001018436    2.181    0.541
        36 -10.7825     27.8076    174.1857   8.1774386470e+01   3.4502532973e+01     0.170116    0.1549169 -42.68  0.001074666    1.334    0.251
        37 -11.8753     17.2682    172.0221   8.4573314590e+01   3.5960538433e+01    0.3077258    0.1739009  15.05  0.001545629    2.008    0.502
        38 -13.8797     18.6549    164.1490   8.3705896495e+01   3.7741295306e+01         2.14     1.032098   6.90  0.009119961    2.883    0.653
        39 -12.9681      8.9764    158.4302   8.6203494714e+01   3.9914331301e+01     1.010873     0.456838 -37.38  0.004021886    3.539    0.717
        40 -12.7563      5.1899    147.8526   8.6795667611e+01   4.2822758753e+01    0.7255176    0.3727308 -24.99    0.0031249    3.040    0.671
        41 -14.2830      5.4964    136.2471   8.6052653411e+01   4.5773424463e+01       3.2874     1.122265 -59.39    0.0129148    2.830    0.647
        42 -11.0013     19.9878    143.0761   8.1781883523e+01   4.2934007048e+01     0.217637    0.1507916 -41.18  0.001013784    1.721    0.419
        43 -11.5108     25.1165    136.6474   7.9510061419e+01   4.4168352249e+01    0.2945139    0.2216565 -45.60   0.00118479    1.491    0.329
        44 -13.9104      2.7580    126.8456   8.6417427565e+01   4.8393901409e+01     2.555418    0.4369723 -66.95  0.007945285    4.185    0.761
        45  -9.9025     25.2968    123.3293   7.8046260605e+01   4.7692090742e+01     0.145569   0.09875053 -43.73 0.0006200841    1.636    0.389
        46 -10.1015     32.1369    118.1310   7.4858148280e+01   4.8451578393e+01    0.2301581    0.1825243 -46.53 0.0009372246    1.337    0.252
        47 -10.3169     24.1192    116.8159   7.7722899860e+01   4.9549709079e+01    0.2892233    0.1442787 -49.53  0.001226181    2.083    0.520
        48  -9.2244     32.7127    108.6531   7.3253459822e+01   5.0960070113e+01    0.1527911    0.1007661 -41.89 0.0004875715    1.655    0.396
        49 -13.5766      5.4423    154.2433   8.7040663624e+01   4.1204042858e+01     1.064888    0.5658525 -40.78  0.004984201    2.514    0.602
        50 -10.6087     19.6242    105.3300   7.8073561161e+01   5.3035234419e+01    0.3499285    0.1037769 -67.76  0.001220666    2.765    0.638
        51 -11.3096    156.9082    246.9121   5.9037177922e+01   5.2223600992e+00    0.2804922    0.1420905 -28.12  0.001592233    2.422    0.587
        52 -10.7093     28.2775    103.1633   7.4203967985e+01   5.2881827722e+01    0.3676782    0.2235282 -59.88   0.00172715    1.516    0.340
        53 -11.5562     18.1253    147.8207   8.2746586875e+01   4.1868047408e+01    0.2166041    0.1638446  58.17 0.0007469059    1.194    0.162
        54  -9.1713     37.3098    103.3430   7.0512024812e+01   5.1916306942e+01    0.1563165    0.1034751 -38.08 0.0007044908    1.697    0.411
        55  -9.8058     32.2405     96.4262   7.1400021413e+01   5.4324195048e+01    0.2783447    0.1563958 -56.38  0.001003846    1.641    0.391
        56 -10.1571     24.7607     96.6837   7.4677768587e+01   5.4961698558e+01    0.3236614     0.180097 -46.85  0.001412531    1.821    0.451
        57  -9.7270     18.5194     96.9397   7.7421716172e+01   5.5402178924e+01    0.2184878   0.08174128 -51.38 0.0008085613    2.525    0.604
        58  -9.1351     43.6375     96.6666   6.6592518921e+01   5.2979173642e+01    0.1615715     0.107016 -31.57 0.0007037594    1.813    0.449
        59  -9.6599     38.3870     93.8604   6.8250348159e+01   5.4353855718e+01    0.2246676    0.1193096 -54.68  0.000946396    1.745    0.427
        60 -10.1153     26.9724     90.5197   7.2656150392e+01   5.6434286554e+01    0.2969679     0.170746 -53.40  0.001100574    1.620    0.383
        61 -10.0813     21.2679     86.9755   7.4648495684e+01   5.7889164385e+01    0.3524722    0.1143476 -56.63  0.001273287    2.558    0.609
        62 -10.8389     41.0838     85.6646   6.5257812869e+01   5.6221328965e+01    0.4670189     0.268584 -44.41   0.00188165    1.779    0.438
        63 -10.7532     29.6769     82.8513   6.9909634267e+01   5.8237428929e+01    0.4219695    0.2209002 -54.61  0.001836827    1.729    0.422
        64 -10.5633     53.6964     81.2198   5.8482424409e+01   5.5659531027e+01     0.393082    0.2512149 -40.52  0.001738629    1.654    0.395
        65  -9.9633     45.7350     79.6169   6.1615154992e+01   5.7205611677e+01    0.2914924    0.1573273 -49.67  0.001205339    1.762    0.433
        66 -10.1118     79.6783     78.9263   4.7189850814e+01   5.1697168111e+01    0.2599383     0.192991 -30.98  0.001182342    1.515    0.340
        67 -10.7798     12.7585     76.9866   7.7090819124e+01   6.1199894705e+01     0.421606    0.1801462 -52.18  0.001755587    2.078    0.519
        68 -12.8060     14.7171    144.1952   8.3568158058e+01   4.3068445831e+01    0.9076805    0.3365712 -42.85  0.003133839    4.047    0.753
        69 -10.0007     23.1767     75.0137   7.1437559564e+01   6.0934566943e+01    0.2567272    0.1260321 -45.47  0.001073611    1.994    0.499
        70  -9.2460     64.6350     74.6852   5.1793540446e+01   5.5502474059e+01    0.1607888    0.1192705 -13.77 0.0007039668    1.767    0.434
        71 -11.8154     32.6135     70.2424   6.5471715483e+01   6.1248832115e+01    0.8134711    0.2701807 -53.26  0.002900121    2.574    0.611
        72  -9.4459     53.3927     71.8009   5.5812017272e+01   5.8069795066e+01    0.2190156    0.1300586 -45.14 0.0009036222    1.662    0.398
        73 -10.5510     61.5234     69.9398   5.1562531711e+01   5.7182200650e+01    0.3782941    0.2450345 -27.00  0.001374419    1.995    0.499
        74 -10.7475     47.3436     68.7566   5.7693079383e+01   5.9734384389e+01    0.3237844    0.2347876 -44.43  0.001243451    1.340    0.254
        75  -9.7201     77.2041     68.9760   4.4768287538e+01   5.4463497679e+01    0.2569665    0.1755351 -21.59   0.00107035    1.970    0.492
        76 -10.6264    163.4811    245.0478   5.7562516011e+01   4.7042263605e+00    0.1452604    0.1050854 -32.27  0.001029887    1.583    0.368
        77 -11.6555     60.6231     51.7987   4.5157466207e+01   6.1454626710e+01    0.9303218    0.5547212  -9.09  0.003066274    3.783    0.736
        78 -10.7784    170.5164    240.9622   5.5724146809e+01   4.4173722786e+00    0.1503867    0.1026031 -30.21  0.001032044    1.595    0.373
        79 -12.4481     75.6692     43.3550   3.5096210324e+01   6.0035707539e+01    0.7687732    0.4992494   7.17  0.002994826    2.648    0.622
        80 -10.1583    177.0231    233.9653   5.3583927110e+01   4.5637724171e+00    0.1856409    0.1127381  -1.94 0.0007915536    1.694    0.410
        81 -15.0565    239.2544    218.2953   4.0728036407e+01  -5.1274053554e-01      1.39534    0.8837029 -20.99  0.008648908    1.321    0.243
        82 -11.0627    211.8141    216.4986   4.4849566503e+01   2.7054686649e+00    0.2197686    0.1175735 -15.77  0.001005847    1.862    0.463
        83 -10.3200    203.3068    216.2975   4.6277046332e+01   3.7268870013e+00     0.204208    0.1136742 -21.87  0.000927133    1.715    0.417
        84 -14.3287    212.4151    247.6806   4.9250088701e+01  -9.6278935050e-01     1.050865    0.5763089  -3.08  0.005855484    1.708    0.415
        85  -9.5971      2.3113    215.3227   9.0012622954e+01   2.7698222757e+01    0.1007665   0.08541095 -39.16 0.0007038346    1.653    0.395
        86 -10.1960     12.6636    209.6674   8.7469880284e+01   2.7997033177e+01    0.1087523   0.08739474 -34.78 0.0004045625    1.738    0.425
        87 -10.3277     75.2408     60.6867   4.2481918772e+01   5.6676840932e+01    0.3102896     0.206049 -35.33  0.001137624    1.599    0.374
        88  -9.8853     59.8523     58.5054   4.8194137672e+01   6.0127409929e+01    0.2785616    0.1635564 -29.62 0.0009412589    2.189    0.543
        89 -10.1506     91.5202     58.0317   3.5507625014e+01   5.3677995823e+01    0.2406156    0.1512461 -40.55  0.001035699    1.600    0.375
        90 -10.1733     50.0515     56.4436   5.2088889908e+01   6.2272498287e+01    0.2874707    0.1921977 -35.61  0.001141011    1.572    0.364
        91 -10.3772     66.1620     55.2891   4.4117593968e+01   5.9648609280e+01    0.3450236    0.2050646 -31.69  0.001425861    1.976    0.494
        92 -10.4409     79.5253     54.1499   3.8239150731e+01   5.7122829220e+01    0.3318773    0.2525175 -25.82   0.00121082    1.455    0.313
        93  -9.8864     71.5692     55.1950   4.1798950758e+01   5.8588428707e+01    0.2153587    0.1416339 -32.23 0.0007445902    1.670    0.401
        94 -11.0036     44.7996     52.7598   5.3370146922e+01   6.3946980246e+01    0.4335922    0.2521427 -38.73  0.001709517    1.781    0.438
        95 -10.7520     51.4200     50.1025   4.8878832210e+01   6.3473533979e+01    0.4117118    0.2534038 -33.74  0.001212036    1.784    0.439
        96 -10.7746     55.0472     44.8924   4.4818681521e+01   6.3941368616e+01    0.3409856     0.263396 -18.44   0.00109745    1.455    0.313
        97 -11.3376     41.3119     73.6173   6.2057048810e+01   5.9334362111e+01    0.5530033    0.3347889 -45.95  0.002040972    1.609    0.378
        98 -11.3174     90.6352     47.6006   3.1607212455e+01   5.5835927548e+01    0.4424944     0.333424   1.19   0.00202847    1.767    0.434
        99 -10.3344     69.9532     47.8170   3.9369264255e+01   6.0418540898e+01    0.3567425     0.206541 -31.45  0.001183515    1.962    0.490
       100 -11.2183     80.1364     47.6411   3.5289197013e+01   5.8246834839e+01    0.2922436    0.2219187 -26.39  0.001257685    1.426    0.299
       101 -10.0211     99.0324     64.4604   3.5474293121e+01   5.0683302483e+01     0.313213    0.1982818  -1.22  0.001034816    3.430    0.708
       102 -10.8853    101.7050     41.4230   2.5670791905e+01   5.4183735202e+01    0.2581907     0.191234  -2.43 0.0009228986    1.765    0.433
       103 -10.3778     57.4901     64.7596   5.1579192961e+01   5.9101352795e+01    0.3019144    0.2367847 -29.43  0.001111752    1.369    0.270
       104 -10.4593     50.8479     62.0819   5.3763781819e+01   6.0824667808e+01     0.353897    0.2222595 -39.40   0.00112861    1.642    0.391
       105 -10.7337     89.5468     39.8300   2.8623187018e+01   5.7428225849e+01    0.2964759    0.2344576  20.76   0.00117418    1.476    0.322
       106 -11.1297     96.9716     36.5650   2.4940809868e+01   5.6122993459e+01    0.2873118    0.2156683  -7.59  0.001229805    1.635    0.388
       107 -11.1949     42.9365     61.4605   5.7502266737e+01   6.2158419606e+01    0.4540323    0.2884513 -44.70  0.001443289    1.519    0.342
       108 -11.7192    105.9099     29.0150   1.9331185063e+01   5.4927637812e+01    0.3387369    0.2517183  -4.61   0.00134535    1.652    0.395
       109 -11.3469     16.6733     64.2995   7.2561329649e+01   6.4285040329e+01     0.902229    0.1876035 -50.57  0.002798071    3.717    0.731
       110 -12.2667    106.5289     21.1863   1.5796502538e+01   5.5748601670e+01    0.4004117    0.3325486  31.61  0.002141305    1.314    0.239
       111 -11.5047    225.9784    205.1561   4.0724907000e+01   2.4623285393e+00    0.3595025    0.2100073  -2.28  0.001586518    1.629    0.386
       112 -11.3300      3.8411    200.3888   8.9245091782e+01   3.0655358724e+01    0.2547499    0.2142112  -3.92  0.001745717    1.567    0.362
       113  -9.2719    223.3144    200.3318   4.0364729311e+01   3.3688251523e+00     0.119884   0.07003308  -3.12 0.0004845596    1.681    0.405
       114 -11.5258    230.3078    198.2621   3.8908627019e+01   2.8037049515e+00    0.2427641    0.1410225  -4.08  0.001017117    1.660    0.398
       115 -10.1901     15.9845    199.5134   8.6272485482e+01   2.9845481672e+01    0.1594912   0.09920025 -12.64 0.0008105247    2.597    0.615
       116 -10.1646     90.3363     67.3656   3.9394642305e+01   5.2047712408e+01    0.2460637    0.1923212   3.63 0.0009390292    1.689    0.408
       117 -11.6096      3.9911    191.1826   8.8918724221e+01   3.2635083633e+01     0.261784    0.2440272 -26.07  0.001044439    1.412    0.292
       118 -12.4134     11.1245    186.2123   8.6922619857e+01   3.3180777181e+01    0.2919653    0.2243996 -49.02  0.001234928    1.639    0.390
       119 -11.5000     10.9738    174.1953   8.6421966664e+01   3.5961267499e+01    0.2960005    0.1997406 -22.11  0.001411252    2.127    0.530
