#   1 NUMBER                 Running object number                                     
#   2 MAG_AUTO               Kron-like elliptical aperture magnitude                    [mag]
#   3 X_IMAGE                Object position along x                                    [pixel]
#   4 Y_IMAGE                Object position along y                                    [pixel]
#   5 X_WORLD                Barycenter position along world x axis                     [deg]
#   6 Y_WORLD                Barycenter position along world y axis                     [deg]
#   7 A_WORLD                Profile RMS along major axis (world units)                 [deg]
#   8 B_WORLD                Profile RMS along minor axis (world units)                 [deg]
#   9 THETA_WORLD            Position angle (CCW/world-x)                               [deg]
#  10 FWHM_WORLD             FWHM assuming a gaussian core                              [deg]
#  11 ELONGATION             A_IMAGE/B_IMAGE                                           
#  12 ELLIPTICITY            1 - B_IMAGE/A_IMAGE                                       
         1 -13.5496    221.7859      7.8964   3.5432772142e+01   2.9198041982e+01     1.198274     0.953448  55.23    0.0050225    1.452    0.311
         2 -14.2835    195.3998     38.0530   4.5744815425e+01   3.1895413002e+01     2.264041      1.49489  15.83   0.01022127    2.496    0.599
         3  -9.6934    189.7535     14.6321   4.0224707764e+01   3.6009194379e+01    0.2277024    0.1843132 -32.95 0.0008286914    1.342    0.255
         4 -10.3007     79.5011     14.8939   6.2045424481e+01   6.1854189339e+01    0.3411353    0.2079558  65.89  0.001417226    2.452    0.592
         5  -9.6695    184.4157    212.2322   8.9076636098e+01   3.2772259165e+00    0.1671038    0.1293679 -50.85 0.0009417503    1.605    0.377
         6 -11.4894    248.2363    247.8496   8.3103221724e+01  -1.1097878572e+01    0.4577231    0.2721045  21.80  0.002965783    1.368    0.269
         7 -10.3503    164.1323    211.6886   9.3193975059e+01   6.8030423822e+00    0.2139115    0.1949552 -60.05  0.001310721    1.329    0.248
         8  -9.7385     56.5086    209.4709   1.1617586901e+02   2.3832824120e+01    0.3426726    0.1678438  87.59  0.001135226    2.499    0.600
         9  -9.8433     28.9131    209.7586   1.2185134153e+02   2.6916272315e+01     0.168487     0.112675  64.79 0.0004621388    1.245    0.197
        10  -9.8952     42.5249    208.6971   1.1901548335e+02   2.5657689905e+01    0.2440283     0.137447  64.01 0.0007237216    1.636    0.389
        11 -11.0229     66.0068    207.0413   1.1391739512e+02   2.3139720784e+01    0.2287501    0.1751462 -84.65 0.0003108113    1.241    0.194
        12 -11.4113     64.4799    202.9889   1.1382682860e+02   2.4208739433e+01    0.2234692    0.1926625  84.48 0.0004711377    1.070    0.066
        13  -9.2217     35.5353    208.5759   1.2043337913e+02   2.6460328866e+01    0.1240931   0.08988508  69.60 0.0002269598    1.141    0.123
        14  -8.8386     93.5829    205.6673   1.0772537559e+02   1.9559015065e+01    0.2281025    0.1895345 -13.13 0.0005104358    1.706    0.414
        15  -9.4304     96.4594    202.0186   1.0661124495e+02   1.9897144468e+01    0.2402838    0.1852996 -49.81  0.001140841    1.471    0.320
        16 -10.9069    193.1037    195.1245   8.4207671376e+01   4.7056272794e+00    0.9998233    0.5362282 -62.97  0.003083573    5.706    0.825
        17 -12.0252     49.0321    248.7904   1.2074842096e+02   1.7025237242e+01    0.1898484    0.1369408  87.79 0.0005516729    1.298    0.230
        18 -12.4864     53.6648    197.4160   1.1562321005e+02   2.6784496733e+01    0.5373033    0.2713745 -47.99  0.002539176    2.606    0.616
        19  -9.4847     38.7182    199.5089   1.1904031091e+02   2.8054313999e+01    0.1513336    0.1131831  63.04 0.0003754242    1.157    0.136
        20 -10.5269    203.3986    196.8120   8.2452269042e+01   2.6426638218e+00    0.2380385    0.1642678 -16.34  0.001247058    1.538    0.350
        21  -9.3089     81.3839    194.1250   1.0901606444e+02   2.3843911796e+01    0.3108777     0.206712  75.82  0.001609907    1.665    0.399
        22 -10.9575    149.6670    188.2673   9.2310271026e+01   1.3806365073e+01    0.4822493    0.3254752 -70.55  0.002205135    2.130    0.530
        23 -11.8968    134.1622    196.0364   9.7168841054e+01   1.4978623722e+01    0.5118117    0.3361573  77.86  0.002223126    2.504    0.601
        24  -9.3860     58.1467    228.1736   1.1749522708e+02   1.9809413417e+01    0.1476212    0.1049929  65.53 0.0002683315    1.182    0.154
        25 -10.8167     62.4919    250.5118   1.1843795480e+02   1.5072325894e+01    0.2085953    0.1061924  48.73 0.0005471862    1.538    0.350
        26 -10.0024    143.0649    179.0261   9.2131839868e+01   1.6924040616e+01    0.2291511    0.1787932  76.07 0.0005664784    1.666    0.400
        27 -10.0302    187.9861    176.2168   8.1557651942e+01   9.0433455700e+00    0.3520843    0.3258663 -59.03  0.002009955    1.308    0.235
        28  -9.2625    149.0483    176.4574   9.0250653246e+01   1.6351524274e+01    0.2141682    0.1937686 -46.10 0.0003557486    1.158    0.136
        29 -10.1472    146.8595    172.5098   8.9996119429e+01   1.7596323640e+01    0.3117361    0.2143449 -64.83 0.0007009337    1.820    0.450
        30  -9.8943     54.8559    173.8547   1.1276809301e+02   3.2009690641e+01    0.2789427    0.1939034  70.20 0.0007671666    1.431    0.301
        31 -10.1686     59.6166    220.4122   1.1653341024e+02   2.1176877441e+01    0.2634485    0.2078083   8.93  0.001623382    1.941    0.485
        32 -10.1193     46.4538    172.8806   1.1468376437e+02   3.3221769571e+01    0.3388284    0.3067877   2.44  0.001033182    1.465    0.317
        33  -8.8963    193.9683    171.5108   7.9337167523e+01   8.7968368059e+00    0.2155573    0.1374441  39.23 0.0009168132    1.549    0.354
        34  -9.4663    185.5963    169.5015   8.0675757437e+01   1.0767227503e+01     0.312294    0.2324801 -56.30  0.001534762    1.643    0.391
        35  -9.7320     84.0619    173.5294   1.0553801111e+02   2.8151806083e+01    0.2082617    0.1756261 -70.59 0.0003356952    1.149    0.130
        36  -9.2630    230.3219    166.9768   7.1327525891e+01   2.9858171190e+00    0.2193955   0.09979542 -53.06 0.0003172577    4.371    0.771
        37 -10.2295    137.8893    169.5187   9.1546233306e+01   1.9929427264e+01    0.3415225    0.2679312  31.06  0.001064148    1.287    0.223
        38 -11.6787     94.3375    151.2666   9.9145308739e+01   3.1865448168e+01    0.6878468    0.6230776  -7.23  0.003797127    1.297    0.229
        39 -10.7945    133.7832    145.4094   8.7552058037e+01   2.6112959370e+01     1.260578     0.325223 -54.32  0.002961328    5.703    0.825
        40  -9.5428    187.4815    151.9661   7.6466149970e+01   1.3797543325e+01    0.2363378    0.1436259 -40.19 0.0008775236    1.614    0.380
        41  -8.9264    112.5927    150.7615   9.4188725641e+01   2.8866574199e+01    0.2042658    0.1434289 -65.32 0.0006239148    1.540    0.351
        42  -9.4214    174.8938    149.1515   7.8567376205e+01   1.6929355545e+01     0.231043    0.2117833 -85.28 0.0008285493    1.312    0.238
        43  -8.6431    109.7940    147.8516   9.4338303293e+01   3.0054508182e+01    0.2003872    0.1720798  85.50 0.0003132296    1.286    0.223
        44  99.0000     50.7467    218.6418   1.1816958003e+02   2.2627889244e+01    0.5559583    0.2194889  59.47  0.002486972    2.691    0.628
        45 -10.9132    106.0948    137.5827   9.3183405963e+01   3.3160008313e+01    0.5920039    0.3766878 -31.04   0.00248863    2.013    0.503
        46 -10.5978    105.9203    130.8548   9.1743959951e+01   3.4798415858e+01    0.4060343    0.3325213 -67.14  0.001192617    1.279    0.218
        47 -11.6597     94.0637    137.3064   9.6477363574e+01   3.5290786468e+01    0.2843584     0.263612 -37.21 0.0003228954    1.121    0.108
        48 -10.2592    135.8586    130.4181   8.3542925971e+01   2.9096180536e+01    0.7678063    0.1062919 -46.89  0.001539427    7.135    0.860
        49  -8.2611     98.6103    130.2437   9.3676831015e+01   3.6232044519e+01    0.1530621    0.1133155  66.43 0.0004642233    1.660    0.398
        50  -9.1601    161.1471    127.9848   7.6689787719e+01   2.4255740140e+01    0.2650377    0.1865605 -70.11  0.001093727    2.024    0.506
        51 -10.3187    101.3631    124.7636   9.1643100260e+01   3.7065471299e+01     0.290974    0.2384886 -26.18  0.000445117    1.355    0.262
        52 -10.8195    119.5733    123.5116   8.6206455156e+01   3.3955277437e+01    0.4485035    0.3272049 -22.22  0.001679185    1.698    0.411
        53 -10.7095    114.5294    129.6695   8.9073492951e+01   3.3490528380e+01     0.613167    0.4410191 -82.77  0.002650823    1.948    0.487
        54  -9.4753    109.5652    118.2600   8.7719519035e+01   3.7102441249e+01    0.2486983    0.2336912  51.93 0.0002455678    1.114    0.103
        55 -10.0138    231.2117    113.7747   5.9346331742e+01   1.1915244290e+01    0.2826028    0.2510339 -33.26 0.0007856455    1.008    0.008
        56  -9.2475    167.6765    112.6363   7.1262791972e+01   2.5988444286e+01    0.3167737    0.2291649 -78.53  0.001314686    2.082    0.520
        57 -11.7478    118.3298    109.5353   8.2976740969e+01   3.7396025255e+01    0.6754553    0.5506964 -80.79  0.002628096    1.547    0.354
        58  -9.3319    205.4776    110.1836   6.2908532309e+01   1.7967348398e+01    0.2537756    0.2112725  49.87 0.0006557397    1.279    0.218
        59  -9.7665    134.6973    104.1941   7.7049519217e+01   3.5135026373e+01    0.5343299    0.2013809 -39.75  0.001728708    2.736    0.635
        60  -9.5585     64.2411     99.7083   9.7210760741e+01   4.8856340642e+01    0.2376605    0.1803506  34.39 0.0009276503    1.448    0.309
        61  -8.6802     81.0083    220.4899   1.1214474584e+02   1.8322930924e+01     0.182059    0.1092013  41.02 0.0004223412    1.490    0.329
        62  -8.5524    184.3254     77.3041   5.8237388380e+01   2.8699586972e+01    0.1515862    0.1173764  19.25 0.0004880985    1.643    0.391
        63  -9.1863     65.1841     70.4865   8.8791953222e+01   5.5263934668e+01     0.191698    0.1358338  29.56 0.0007408938    1.499    0.333
        64 -10.8552     71.9463    245.9834   1.1632994823e+02   1.4675560982e+01    0.3917879    0.1689779 -70.73  0.002031429    2.589    0.614
        65 -12.8535    179.4806     52.7350   5.2215743050e+01   3.3779572718e+01    0.7999128    0.6782324 -35.13 0.0009020811    1.208    0.172
        66 -11.1040     27.0504    214.9392   1.2257470458e+02   2.6036478664e+01    0.2503612    0.1673572  79.84  0.001104541    1.238    0.192
        67 -19.5082     13.6542    145.5246   1.1991494706e+02   4.2814029914e+01     19.15268     4.661519 -76.60   0.06560728    3.900    0.744
        68  -9.2028    167.8326    232.0546   9.5641268134e+01   2.7432418915e+00    0.2182844    0.1654704  23.02 0.0007491354    1.198    0.165
