#   1 NUMBER                 Running object number                                     
#   2 MAG_AUTO               Kron-like elliptical aperture magnitude                    [mag]
#   3 X_IMAGE                Object position along x                                    [pixel]
#   4 Y_IMAGE                Object position along y                                    [pixel]
#   5 X_WORLD                Barycenter position along world x axis                     [deg]
#   6 Y_WORLD                Barycenter position along world y axis                     [deg]
#   7 A_WORLD                Profile RMS along major axis (world units)                 [deg]
#   8 B_WORLD                Profile RMS along minor axis (world units)                 [deg]
#   9 THETA_WORLD            Position angle (CCW/world-x)                               [deg]
#  10 FWHM_WORLD             FWHM assuming a gaussian core                              [deg]
#  11 ELONGATION             A_IMAGE/B_IMAGE                                           
#  12 ELLIPTICITY            1 - B_IMAGE/A_IMAGE                                       
         1 -14.4402      8.9572    206.8088   2.9290023369e+02   5.2760820240e+00     0.489952    0.4393062 -80.51   0.03163151    1.208    0.172
         2 -12.8776      2.3163     12.5703   2.9184888114e+02   7.4989432003e+00    0.1519525   0.01718846 -62.82  0.006699323    8.947    0.888
         3 -11.9296      8.6554      4.1324   2.9172633887e+02   7.5598351050e+00   0.03877322    0.0254753  -0.11  0.003959606    1.806    0.446
         4 -13.2379    191.0977     28.5527   2.8976101125e+02   6.3017877771e+00   0.06023951   0.05605316  14.18  0.006487158    1.064    0.060
         5 -13.5871    205.3944      9.8829   2.8948686339e+02   6.4340303196e+00   0.08037329   0.05181875 -29.56  0.008208616    1.765    0.433
         6 -10.3754    198.7855    246.1063   2.9094139348e+02   3.8126474672e+00   0.01359372  0.008056459  86.25   0.00117368    2.726    0.633
         7 -10.3318    249.6678    248.8539   2.9037225980e+02   3.5071310999e+00   0.01475765   0.01234919 -38.91  0.001765661    1.181    0.153
         8 -11.6262    139.9826    248.4450   2.9163174464e+02   4.1032156643e+00    0.0233449   0.01857262 -72.55  0.002711245    1.353    0.261
         9  -9.4136     81.9137    249.1683   2.9230466288e+02   4.4073946581e+00   0.01331592  0.008154382  78.60  0.001184341    2.582    0.613
        10  -9.6654     29.0984    249.8308   2.9291692119e+02   4.6833480423e+00    0.0134665   0.01056372  34.44  0.001040834    1.281    0.219
        11 -10.2095      2.0095    248.3329   2.9322035983e+02   4.8453172251e+00   0.03298823  0.008904146 -58.31  0.002374599    3.251    0.692
        12 -10.2481      5.8300    240.9188   2.9313351191e+02   4.9084191565e+00   0.01404825   0.01019572  -5.78 0.0004428566    1.561    0.360
        13 -10.4085      1.7522    240.3838   2.9317740986e+02   4.9362761399e+00   0.02012865  0.009585018 -65.32  0.001791882    2.207    0.547
        14  -8.4419     25.2618    246.9695   2.9294458180e+02   4.7361520065e+00  0.008236423  0.005595399 -62.54 0.0008713068    1.485    0.327
        15  -9.8074    109.9231    250.5109   2.9198985077e+02   4.2417081212e+00   0.01018987  0.006368855  21.67  0.001038949    1.615    0.381
        16  -9.7451     81.4946    241.9033   2.9226740222e+02   4.4914932831e+00   0.01563343  0.008891801  55.50   0.00142203    2.323    0.569
        17  -9.6759     12.5204    241.0117   2.9305695430e+02   4.8715473849e+00   0.01196676   0.01128276  35.66  0.001517227    1.092    0.084
        18  -9.0132     72.0164    239.8122   2.9236448301e+02   4.5659670338e+00   0.01189205  0.008683745 -87.19  0.001274456    1.681    0.405
        19 -10.0072    183.2005    238.7997   2.9107824931e+02   3.9789457410e+00  0.009304854  0.007300101 -27.16 0.0005854592    1.334    0.251
        20 -10.1922    232.7319    235.4527   2.9048897352e+02   3.7493470112e+00   0.01604638  0.008951181  68.81  0.001288543    3.180    0.686
        21 -10.7835    238.5894    248.1684   2.9049561877e+02   3.5746545127e+00   0.01825698   0.01188247  81.65  0.001750778    2.231    0.552
        22  -9.1911    194.3237    237.3483   2.9094181250e+02   3.9352946653e+00   0.00712279  0.004641186 -28.73  0.000704933    1.746    0.427
        23  -9.7976    229.6652    230.2981   2.9049424058e+02   3.8239049969e+00   0.01430348  0.009538916  78.40  0.001398933    2.123    0.529
        24 -10.9571    173.4481    222.4817   2.9109564324e+02   4.2152468609e+00   0.02175775   0.01669393  41.77  0.002374672    1.354    0.262
        25 -10.6963    122.4749    249.8170   2.9184128737e+02   4.1819995239e+00   0.01499717  0.009440148  16.16  0.001531696    1.676    0.403
        26 -14.2848     46.0299    225.8239   2.9258291941e+02   4.8630751678e+00    0.1649715   0.09722888  12.69  0.004823666    1.897    0.473
        27  -9.0785     94.5368    216.7140   2.9197108401e+02   4.7051698594e+00   0.01245301  0.009189812  66.86 0.0007113937    1.685    0.406
        28  -8.8066    152.4867    212.9310   2.9128148701e+02   4.4357925365e+00  0.009307203  0.006329452 -60.87 0.0003694918    1.469    0.319
        29 -14.5558      2.4252    152.4399   2.9266068709e+02   5.9237336972e+00    0.1841142    0.1009919 -56.38   0.01812943    1.750    0.429
        30 -11.4799     21.8854    200.7139   2.9271587356e+02   5.2755049897e+00   0.01992223   0.01223087  45.33  0.001037381    1.773    0.436
        31 -10.0339    194.8898    198.7976   2.9071100973e+02   4.3661894948e+00   0.02152371   0.01096518 -87.01  0.001569159    3.832    0.739
        32 -11.1404     65.4072    198.4937   2.9220115721e+02   5.0670034598e+00   0.02021817   0.01177562 -38.76  0.001382254    1.833    0.454
        33  -8.7187     51.4292    197.2166   2.9235492416e+02   5.1564513170e+00  0.008293174  0.006341556 -80.71 0.0002940032    1.501    0.334
        34 -11.5406     70.9559    190.7178   2.9209206563e+02   5.1248048797e+00   0.01487229   0.01141414 -37.99 0.0005955711    1.312    0.238
        35 -10.5960     80.3681    177.9982   2.9190968809e+02   5.2175157071e+00   0.01227293    0.0105985 -36.14 0.0004374752    1.144    0.126
        36 -13.0235     67.5186    175.9599   2.9204604815e+02   5.3095428467e+00   0.02675417   0.01318375 -39.89  0.001437734    2.240    0.554
        37  -8.3904    102.2975    178.6332   2.9166050643e+02   5.0924013850e+00  0.006792158  0.004908741  64.80 0.0007031431    1.726    0.421
        38 -11.6929     87.8586    168.3098   2.9176701950e+02   5.2863747933e+00   0.03275784    0.0274063  -2.81  0.003917709    1.240    0.194
        39 -10.1588     32.4239    156.3139   2.9233691656e+02   5.7193023866e+00   0.01267817   0.00579974 -57.00 0.0007322318    2.068    0.516
        40 -10.3878    188.8427    152.1961   2.9050916397e+02   4.9233877175e+00   0.02243488   0.01282569  64.69  0.001928726    2.757    0.637
        41  -9.7148     99.6568    152.3635   2.9153823352e+02   5.4025029200e+00   0.01243447   0.01079533 -29.77 0.0007307851    1.150    0.130
        42 -11.8931     88.2767    151.7447   2.9166590890e+02   5.4707147449e+00   0.01376754   0.01104733 -30.99 0.0005127057    1.275    0.215
        43 -12.3907     67.1571    144.0396   2.9186479625e+02   5.6710743741e+00   0.03636562   0.02734989  70.37  0.003996532    1.655    0.396
        44  -8.6699    102.4686    148.0571   2.9148074985e+02   5.4358664868e+00  0.009696593  0.006166597 -57.22 0.0005426124    1.534    0.348
        45  -9.3305    183.2445    146.2860   2.9053920180e+02   5.0201490170e+00   0.01146528  0.009394793  58.18 0.0005461135    1.377    0.274
        46 -11.7255     29.8564    144.3825   2.9229730091e+02   5.8674965284e+00   0.02082558   0.01557583  37.37  0.002362414    1.357    0.263
        47  -8.5574    191.9978    143.9724   2.9042487176e+02   4.9988930796e+00  0.007712163  0.007189284 -48.04 0.0004025834    1.063    0.060
        48  -9.4651    110.5006    137.3210   2.9132562122e+02   5.5135146009e+00   0.01524056  0.008703356 -32.28  0.001108894    2.065    0.516
        49 -11.4562     57.9485    132.8504   2.9190603909e+02   5.8465923416e+00   0.03935962   0.01802433 -82.50  0.002597763    4.628    0.784
        50 -10.5555     97.5618    134.6746   2.9145948977e+02   5.6129941711e+00   0.01542072     0.011105  -0.05 0.0008199036    1.554    0.357
        51  -9.3789    162.5471    127.2803   2.9066692264e+02   5.3458461038e+00   0.01610014  0.009748474  61.05  0.001496839    2.288    0.563
        52  -9.3927    107.4210    124.0092   2.9128364680e+02   5.6799955921e+00  0.008828767  0.008356592   2.34 0.0002854195    1.038    0.037
        53 -10.3778     86.1743    136.2091   2.9159981273e+02   5.6570006954e+00   0.01277268  0.009798904  43.30  0.000504327    1.367    0.269
        54 -12.4598     40.0609    233.1610   2.9269418416e+02   4.8124168246e+00   0.01888369   0.01395129 -36.29 0.0007693117    1.386    0.279
        55 -10.3750    168.0532    113.1697   2.9052114746e+02   5.4749110181e+00   0.01485123     0.011966  62.75 0.0009668279    1.439    0.305
        56  -9.4090    203.2947    111.2036   2.9010352181e+02   5.3065132884e+00   0.01064514  0.007523874 -39.63 0.0007599142    1.435    0.303
        57  -8.9242     35.0620     93.0863   2.9193909917e+02   6.4173062864e+00   0.01047699  0.007346435  55.10 0.0006364965    1.675    0.403
        58  -8.6475     75.7151     87.6116   2.9143765053e+02   6.2604672070e+00  0.008734739  0.005744586  36.54 0.0003111978    1.526    0.345
        59 -10.4917    242.1416     84.2840   2.8949883659e+02   5.3988678152e+00   0.01288563  0.008271798 -77.40   0.00128787    1.878    0.467
        60  -8.1254    184.3577     77.3201   2.9012387370e+02   5.7900685517e+00  0.007109576  0.004685025 -25.59 0.0007044802    1.761    0.432
        61 -11.3103     13.9100     65.4161   2.9202254937e+02   6.8422748258e+00   0.02150466   0.01202384  37.03  0.001751608    1.787    0.440
        62 -11.7117      7.3032     63.0914   2.9208540041e+02   6.9038530648e+00   0.03096945   0.01464362  41.21 0.0004711183    2.220    0.550
        63  -9.6097     30.3523     61.1693   2.9180776364e+02   6.8018706702e+00   0.01230279  0.008853204  31.58 0.0005200148    1.378    0.274
        64  -9.8098     13.2332     55.3703   2.9197190676e+02   6.9589645440e+00  0.009561948  0.005607638  35.15 0.0008246929    1.688    0.407
        65  -9.6191    162.1852    249.5914   2.9138281351e+02   3.9707217780e+00  0.009209395  0.006203983   7.53 0.0009504401    1.648    0.393
        66 -10.6799    101.7182    247.0881   2.9206450099e+02   4.3243862206e+00   0.01772143   0.00991979 -68.47  0.001483987    1.953    0.488
        67 -10.5755     34.7331    244.8696   2.9282331556e+02   4.7090487649e+00   0.02736615   0.01570904 -40.09   0.00267408    1.836    0.455
