#   1 NUMBER                 Running object number                                     
#   2 MAG_AUTO               Kron-like elliptical aperture magnitude                    [mag]
#   3 X_IMAGE                Object position along x                                    [pixel]
#   4 Y_IMAGE                Object position along y                                    [pixel]
#   5 X_WORLD                Barycenter position along world x axis                     [deg]
#   6 Y_WORLD                Barycenter position along world y axis                     [deg]
#   7 A_WORLD                Profile RMS along major axis (world units)                 [deg]
#   8 B_WORLD                Profile RMS along minor axis (world units)                 [deg]
#   9 THETA_WORLD            Position angle (CCW/world-x)                               [deg]
#  10 FWHM_WORLD             FWHM assuming a gaussian core                              [deg]
#  11 ELONGATION             A_IMAGE/B_IMAGE                                           
#  12 ELLIPTICITY            1 - B_IMAGE/A_IMAGE                                       
         1  -9.7129     38.4644      8.5718   8.6662795689e+01   7.0088374884e+01    0.6124653    0.3420395  -7.63  0.002943241    2.571    0.611
         2 -10.6166     39.4774     29.6494   9.5833083784e+01   6.6324984137e+01    0.5559822     0.323727 -51.12  0.002501492    1.591    0.372
         3  -9.5934     40.1640     15.0014   8.9077395526e+01   6.8839463195e+01    0.3226183    0.2475384  21.17  0.001517438    1.382    0.276
         4 -11.9751     44.7437     22.2339   9.0326602965e+01   6.7025169871e+01     1.048794    0.9118528 -82.26  0.006642731    1.775    0.437
         5 -10.6527    225.3884     28.9511   4.9876182095e+01   2.4513493774e+01    0.5149145    0.4355653  -1.43  0.001512025    1.348    0.258
         6 -10.3730     99.9120      7.6059   6.3470126973e+01   5.9056517322e+01      1.30128    0.6829085 -57.48  0.004727549    3.829    0.739
         7 -11.3062    128.3542     17.9895   6.1115341196e+01   5.1095529644e+01    0.8854405    0.7820887  86.34  0.004894697    1.275    0.216
         8 -11.4714     78.3924     15.2903   7.3631827897e+01   6.2644248562e+01    0.9449471    0.6035236 -19.04  0.004911493    1.547    0.353
         9 -11.7675     81.2156      4.3904   6.7331557111e+01   6.3434062772e+01     1.650751    0.4554629  50.94  0.006056571    3.237    0.691
        10 -11.0647    109.1823      4.4564   5.9727950155e+01   5.7232845782e+01     1.090013    0.5076944  62.44  0.004639664    2.144    0.534
        11 -10.7880    121.1176      3.9752   5.6896060819e+01   5.4380790901e+01    0.7469558     0.585323  82.62  0.003434614    1.460    0.315
        12 -10.9363    131.2587      3.4129   5.4685370075e+01   5.1878332722e+01     1.049517    0.4058278  55.73  0.004140807    2.197    0.545
        13 -11.0307    155.6205     20.8644   5.6910955204e+01   4.3711352063e+01    0.9283578    0.4075457  65.49  0.003025984    2.224    0.550
        14 -13.9914    165.7983     10.2123   5.1582048453e+01   4.2141395109e+01     3.915716     2.176102  66.91   0.01742428    1.684    0.406
        15  -9.8595    116.8155     17.2494   6.3443402251e+01   5.4015002185e+01      0.73874    0.2441903 -27.21   0.00260052    2.977    0.664
        16  -9.6611    111.8027     15.9887   6.4136639764e+01   5.5358199912e+01    0.5303407    0.2645937  39.95  0.002236969    2.045    0.511
        17  -9.7379     93.7538     17.3519   6.9674467156e+01   5.9248581011e+01     0.483006    0.3671708 -58.71  0.001947196    1.790    0.441
        18  -9.8065     63.0033     15.4757   7.9390399955e+01   6.5393766239e+01    0.4651636    0.3996423  80.01  0.002785061    1.835    0.455
        19  -9.5271     51.8564      3.3149   7.7653818194e+01   6.8912977686e+01    0.5259432    0.2966148  -3.83  0.002539215    2.310    0.567
        20  -9.5509     55.7551      7.7160   7.8382758179e+01   6.7694378333e+01    0.5885974    0.3150144  53.38  0.002846383    2.602    0.616
        21  -9.8152     60.5882      2.5302   7.3628533043e+01   6.7558783365e+01    0.5266058    0.2957451  34.19  0.002777417    1.772    0.436
        22 -10.9153    248.6920     14.7109   4.4026817199e+01   2.0539985556e+01    0.4623302    0.3958486 -13.17  0.002853826    1.300    0.231
        23 -10.7881    248.7710      4.0007   4.1404955885e+01   2.1618182736e+01    0.7433648     0.447676 -59.42  0.003967907    1.569    0.362
        24  -8.8024     20.2946     13.5968   9.8461488097e+01   7.1235603857e+01    0.4833667    0.1822221 -36.50  0.002255562    2.466    0.594
        25  -9.3719     69.9866     14.2533   7.6122039456e+01   6.4354472990e+01    0.3483986    0.2473662 -37.82  0.001960709    1.456    0.313
        26 -10.5455    192.6747      4.9348   4.6530831351e+01   3.5481006092e+01    0.4494217    0.3121186 -84.44  0.002259282    1.484    0.326
        27 -10.5055    200.3731      8.1672   4.6677329307e+01   3.3145679197e+01    0.4183089    0.2284606  79.72  0.001712953    1.857    0.462
        28 -10.3802    224.0817      5.5867   4.3711257311e+01   2.7354024203e+01    0.4107117     0.217059 -57.37  0.001883162    1.933    0.483
        29 -11.2215    205.2914      4.0125   4.4974427932e+01   3.2269733054e+01    0.7548315    0.2958362  73.36  0.002840725    2.452    0.592
        30 -10.1875    214.0718      4.5613   4.4310100849e+01   2.9965991662e+01    0.3995741    0.2450843  48.86  0.001953378    1.781    0.439
        31  -9.2687    229.9525      6.2627   4.3399326995e+01   2.5844382092e+01    0.1918136    0.1678555 -89.46 0.0007039064    1.108    0.097
        32  -8.8459     26.5027      3.1380   8.9916026776e+01   7.2374505192e+01    0.3234899    0.1615186 -43.82  0.001777187    1.829    0.453
        33  -9.1330     17.1380      2.3697   9.4775161553e+01   7.3454830087e+01    0.2835177    0.2193133 -67.51  0.001832994    2.075    0.518
        34  -8.7971     40.7004      1.6982   8.1827974788e+01   7.0800550137e+01    0.2898994    0.1455671  32.99  0.001534085    2.100    0.524
        35  -8.3492     23.0242     52.4833   1.1029352735e+02   6.3230356774e+01    0.1585917    0.1211882  15.90 0.0007430094    1.589    0.371
        36 -10.0599     83.9023     47.6177   8.5443865479e+01   5.6355442247e+01    0.7425305     0.569695  62.35  0.003786454    1.683    0.406
        37  -8.5487    110.9887     46.3566   7.6566683705e+01   5.1129411620e+01    0.2791983    0.2085586  -1.51  0.001338744    1.616    0.381
        38  -9.7059     81.4518     39.3995   8.3125543566e+01   5.8289871099e+01    0.5015008    0.3148149 -35.43  0.002494816    1.494    0.330
        39 -10.4039      3.4799     40.0225   1.1556447948e+02   6.7142317569e+01    0.5031229      0.37404 -80.22  0.002416468    1.366    0.268
        40  -9.3131     11.4978     34.3557   1.1042791815e+02   6.7872144397e+01    0.4592533    0.2531972 -39.53  0.001978736    1.595    0.373
        41  -9.0610    164.5060    244.9951   1.0655135941e+02   5.2680441831e+00    0.1319538   0.09363139  88.58 0.0008105212    2.584    0.613
        42 -10.5394     50.6788     36.4560   9.3661549328e+01   6.3657882932e+01    0.7601646    0.5532421 -78.14  0.003969458    2.286    0.562
        43  -8.3601    191.6676    241.3222   1.0155261028e+02   1.5698376593e+00    0.1053445   0.07706928  57.23 0.0007049961    1.702    0.412
        44  -9.2052    161.4082    240.8030   1.0658858590e+02   6.2551575146e+00    0.1292183    0.1056321 -18.77 0.0007887359    1.656    0.396
        45  -8.3976     44.6797     39.0991   9.7155047061e+01   6.3895459793e+01    0.2062899    0.1842792  71.93  0.001329078    1.504    0.335
        46  -9.0006     69.0063     36.6340   8.6492454953e+01   6.0927975234e+01    0.3216933    0.2741435  62.77   0.00188565    1.550    0.355
        47  -9.4665    203.0184    225.7359   9.7516484799e+01   1.5758670054e+00    0.2028592    0.1088847   7.58 0.0009011122    3.598    0.722
        48  -9.6564    195.5938     35.3148   5.5384136783e+01   3.1343660068e+01    0.3957421    0.1880191  46.10  0.001533067    2.287    0.563
        49  -8.4833     27.0965     35.2412   1.0350265619e+02   6.6499128825e+01    0.2290886    0.1594167  -3.76  0.001291725    1.704    0.413
        50  -9.2516    124.0014    205.9917   1.0917773008e+02   1.7187570799e+01    0.1721592    0.1398553  52.24  0.001153887    1.004    0.004
        51  -9.9619     87.0114     31.2840   7.7919146354e+01   5.8604731146e+01    0.4337048     0.254318  30.40  0.001990716    1.961    0.490
        52 -11.4932     11.0986    141.0165   1.2651248927e+02   4.4413006800e+01    0.4820353    0.3068514 -74.99  0.003218659    1.326    0.246
        53  -8.7100     22.6782    125.8113   1.2233458898e+02   4.6776937706e+01    0.1888813    0.1229546 -63.42  0.001178425    1.415    0.293
        54  -9.3178     41.4428    141.8392   1.1937472418e+02   4.1419512747e+01    0.2511594    0.2068701  40.25  0.001698752    1.382    0.277
        55 -12.7474    241.3116    132.2673   7.3691736669e+01   6.8538170679e+00     1.451274     1.094267  42.50  0.005877805    1.356    0.263
        56 -10.0746     11.7462    129.5391   1.2543726260e+02   4.6841456341e+01    0.2521881    0.1336944  74.38  0.001445893    1.778    0.437
        57  -9.7166     16.9354    104.3832   1.2150323330e+02   5.2046224827e+01    0.5066105    0.2820464  77.14  0.002793988    1.899    0.473
        58  -9.2485     30.3848    102.0846   1.1727015878e+02   5.1464255318e+01    0.2876389     0.161424 -49.89  0.001551436    1.786    0.440
        59  -9.6976     46.9038     99.2085   1.1183820328e+02   5.0477964538e+01    0.3674942     0.147861 -56.12   0.00164558    2.112    0.526
        60  -8.8576     63.9816     98.9855   1.0662172353e+02   4.8457067620e+01    0.4258424    0.1377569 -66.85  0.001314472    4.248    0.765
        61  -9.4048     75.5729     27.4420   8.0204214211e+01   6.1366721139e+01      0.28937    0.2264195  -1.13  0.001632755    1.315    0.240
        62  -9.0981    104.4233     25.9786   7.0348009861e+01   5.5754322059e+01    0.4079425    0.2635233  53.09  0.001982105    1.570    0.363
        63  -8.1150     22.6332     23.6564   1.0143894692e+02   6.9166311071e+01    0.2034517    0.1288671 -16.81 0.0008054153    1.758    0.431
        64  -9.0813      2.2109     88.2847   1.2398718479e+02   5.6619251553e+01    0.3904669    0.1724528 -88.61  0.001975865    2.188    0.543
        65 -11.8251     44.3190     81.6784   1.0922365590e+02   5.4770817381e+01      1.10659    0.7770588 -13.07  0.006065392    2.025    0.506
        66  -7.8276     10.6811     22.6779   1.0712683975e+02   7.0273216901e+01    0.1235446   0.06596805 -35.58 0.0007043985    1.669    0.401
        67 -10.0989     24.8009     65.1485   1.1255388150e+02   6.0312438208e+01    0.7133664    0.2456163 -56.49  0.003258507    2.167    0.539
        68  -8.6776     97.1166     28.8385   7.3688889781e+01   5.6925839094e+01    0.5857956    0.2328063 -20.97  0.001827984    4.033    0.752
        69  -9.6821     66.6624     29.6704   8.4483398131e+01   6.2528915077e+01    0.3664415     0.220668 -29.71  0.001183514    1.590    0.371
        70  -9.0776      9.4979     80.1976   1.2061605684e+02   5.8008145028e+01    0.2641667    0.2180178  78.74  0.001080052    1.244    0.196
        71 -10.4386      4.0228     76.0509   1.2185653217e+02   5.9250618402e+01    0.5081544    0.3439656 -79.33   0.00228863    1.208    0.172
        72 -11.4154     14.5131     73.0376   1.1778841472e+02   5.9296847370e+01    0.7339778    0.6004506  82.22  0.005116448    1.274    0.215
        73  -9.1239     35.1387     79.1456   1.1179680337e+02   5.6268826693e+01    0.3607045    0.1566517 -62.87  0.001711924    1.897    0.473
        74  -8.7325     83.7954     69.6453   9.2904280742e+01   5.1986242354e+01    0.2412366    0.2014462 -50.37 0.0009426488    1.130    0.115
        75  -9.4019     74.2243     68.9302   9.5840822566e+01   5.3694037934e+01    0.3318234    0.3202209 -47.51  0.001663817    1.060    0.057
        76  -8.5443     33.0145     68.9409   1.1037083154e+02   5.8764265916e+01    0.2447101     0.185682 -19.53  0.001323402    1.599    0.375
        77  -9.0294    228.5291     14.4990   4.5689019630e+01   2.5347997534e+01    0.1362289    0.1233455 -60.96 4.372901e-05    1.006    0.006
        78  -7.7141     10.6831     14.0436   1.0388054724e+02   7.1925086873e+01    0.1948051   0.04012606 -41.60 0.0006971696    4.023    0.751
        79  -8.4769    125.2311     28.9570   6.6160992432e+01   5.0480240627e+01    0.2800084    0.2068405  -0.13  0.001357582    1.538    0.350
        80  -8.8434     66.9482     64.0518   9.6870323578e+01   5.5828320867e+01    0.2734641    0.1506224 -18.94 0.0009467932    4.033    0.752
        81  -9.0862    228.0338     79.0062   6.2906812506e+01   1.7272020233e+01     0.474786    0.2711923   1.66  0.001763221    3.008    0.668
        82  -8.3283    139.0444     78.1966   7.9836538058e+01   3.8979361102e+01    0.2423492    0.2072991  17.28 0.0008238596    1.310    0.236
        83  -8.1212     76.1897     60.3787   9.2517453615e+01   5.5173629039e+01    0.1905736    0.1291994  50.61 0.0009513046    1.731    0.422
        84  -9.3172     47.4251     62.0810   1.0334859255e+02   5.8795435555e+01    0.3703508    0.2482647  26.76  0.002079101    1.745    0.427
        85  -9.3126    198.9465     55.4793   6.0867217574e+01   2.7754956200e+01    0.2714521    0.2574789  33.81 0.0004875101    1.089    0.082
        86  -7.6670      9.6777     56.2969   1.1649372479e+02   6.3308331184e+01    0.1111753   0.08124366  75.53 0.0007021442    1.621    0.383
        87  -9.1300     66.3325     53.8281   9.3828330228e+01   5.8044195576e+01    0.3629009    0.1694779 -52.72   0.00127975    2.100    0.524
        88  -7.7207     35.4801     52.4842   1.0526334807e+02   6.2133939013e+01    0.1260314      0.10521 -50.20 8.805041e-05    1.011    0.010
