#   1 NUMBER                 Running object number                                     
#   2 MAG_AUTO               Kron-like elliptical aperture magnitude                    [mag]
#   3 X_IMAGE                Object position along x                                    [pixel]
#   4 Y_IMAGE                Object position along y                                    [pixel]
#   5 X_WORLD                Barycenter position along world x axis                     [deg]
#   6 Y_WORLD                Barycenter position along world y axis                     [deg]
#   7 A_WORLD                Profile RMS along major axis (world units)                 [deg]
#   8 B_WORLD                Profile RMS along minor axis (world units)                 [deg]
#   9 THETA_WORLD            Position angle (CCW/world-x)                               [deg]
#  10 FWHM_WORLD             FWHM assuming a gaussian core                              [deg]
#  11 ELONGATION             A_IMAGE/B_IMAGE                                           
#  12 ELLIPTICITY            1 - B_IMAGE/A_IMAGE                                       
         1 -13.9963      5.7871     67.1863   1.2067319445e+02   6.0901893044e+01     1.900897     1.144542 -17.49   0.01145741    2.276    0.561
         2 -14.9493    245.1754     28.8018   4.9007119122e+01   1.9848670261e+01     5.234464    0.7190086 -28.37   0.01468835    4.913    0.796
         3 -12.9159     10.3536      4.1839   1.0076531494e+02   7.3482641572e+01     1.025381    0.5567121  -3.50  0.005880121    2.333    0.571
         4 -13.6772      7.2152     36.1839   1.1376757236e+02   6.7495097206e+01     1.050318    0.7550526  22.07  0.007030222    1.737    0.424
         5 -12.7888     31.8155     35.7537   1.0262519701e+02   6.5713259507e+01     0.866386    0.6877918  11.84  0.005760876    1.445    0.308
         6 -13.7867      7.9331     20.5433   1.0873794074e+02   7.0611575766e+01     1.188853    0.9262806  -4.47  0.008691857    1.442    0.307
         7 -12.0754     84.2248     16.4182   7.3607599286e+01   6.1228347071e+01    0.3672717    0.2960605  57.61  0.002099844    1.473    0.321
         8 -13.6583     65.5798      8.4832   7.6263915741e+01   6.5775547251e+01     1.383419    0.5995455  42.36   0.00634946    2.327    0.570
         9 -11.0025      1.8865    177.4331   1.3130324413e+02   3.7802255352e+01    0.3339718      0.12784 -71.93  0.001549878    2.276    0.561
        10 -13.7701     36.0375    247.6724   1.2878860298e+02   2.2502385028e+01    0.6289982    0.4363502  36.77  0.003659888    1.719    0.418
        11 -14.1600     49.0042    153.3317   1.1970244531e+02   3.8114385246e+01     2.559149     1.632899 -82.45   0.01559296    1.411    0.291
        12 -14.2149     85.9616    180.4526   1.1471363761e+02   2.7839113198e+01     2.059935      1.18285  46.29   0.01172518    1.523    0.343
        13 -10.7736    112.5507    162.7729   1.0662441046e+02   2.7150504329e+01     3.888351     2.658129  59.13   0.02139984    1.424    0.298
        14 -13.5281     92.4949    200.0431   1.1557136118e+02   2.3302749719e+01     1.130088    0.9475036  60.76  0.008123888    1.073    0.068
        15 -14.9991     77.4223    220.7032   1.2027589753e+02   2.1849600901e+01     2.044461     1.051752  74.72   0.01172289    2.246    0.555
        16 -13.6548     64.5562    198.9989   1.2082718238e+02   2.7251113049e+01     0.928775    0.4112565  47.94   0.00416277    1.823    0.452
        17 -15.5894     30.0128    190.6443   1.2674156365e+02   3.2732461152e+01     3.392007     1.049791  47.05   0.01786564    2.452    0.592
        18 -15.1626     38.3813    176.9644   1.2414634300e+02   3.4475938614e+01      3.72349    0.3550108  45.14   0.01339536    4.877    0.795
        19 -14.7971     63.0759    232.8212   1.2363739582e+02   2.1706619752e+01     2.678383     0.294259  50.33  0.009053963    5.936    0.832
        20 -14.0987     63.2942    249.8603   1.2467204744e+02   1.9093314741e+01     1.525758    0.2237754  37.92  0.005012976    7.195    0.861
        21 -14.3957     57.2479    241.2341   1.2512197288e+02   2.1098015447e+01     1.523056    0.3522728  45.98  0.007736522    2.737    0.635
        22 -14.1055     21.3522    230.7825   1.3032779061e+02   2.6642952491e+01    0.7993416    0.4841711  70.71  0.004374368    1.202    0.168
        23 -15.8386      7.8934    243.7020   1.3286384300e+02   2.5921058148e+01      1.13592    0.5787324  67.36  0.009027927    1.363    0.267
        24 -14.8728      8.2052    219.6695   1.3197950470e+02   2.9718009333e+01      1.03672    0.7780443  47.21  0.007624383    1.432    0.302
        25 -12.4527     75.2317    159.1360   1.1443982081e+02   3.3595865743e+01    0.7270803    0.5982597  81.44  0.003590398    1.071    0.067
        26 -10.8168     85.4085    159.7553   1.1222994431e+02   3.2022606823e+01    0.3816741    0.3224905  50.44  0.002086404    1.172    0.147
        27 -12.2933     93.2720    150.3226   1.0905955354e+02   3.2787041865e+01    0.7118112    0.5764402  89.95  0.004226414    1.207    0.171
        28 -10.9685      1.4573    148.8447   1.2988232460e+02   4.3477357732e+01    0.4211513   0.08370398 -78.80   0.00166012    4.049    0.753
        29 -13.5079     44.5255    211.2614   1.2541583107e+02   2.7455146369e+01     1.374612    0.3118501  52.90  0.006009278    3.531    0.717
        30 -12.7422    127.1586    128.4299   9.6977983909e+01   3.1446303251e+01    0.6105833    0.5565536 -76.03  0.003503526    1.125    0.111
        31 -12.4048    122.8381    133.4685   9.9052489126e+01   3.1232756574e+01    0.7212655    0.3874257  48.00  0.003226571    1.808    0.447
        32 -12.8470    116.4168    129.2271   9.9741168992e+01   3.3301289176e+01    0.7647042    0.5606139  53.43  0.004001474    1.346    0.257
        33 -13.4187      5.1437    126.8040   1.2753803624e+02   4.7830872646e+01    0.9124216    0.5281857 -84.96  0.004236936    1.358    0.263
        34 -13.5548      6.6286    110.5046   1.2575473454e+02   5.1266014552e+01     0.913591    0.7482497 -89.21   0.00647743    1.074    0.069
        35 -14.1273      6.1985     89.4502   1.2362417337e+02   5.5945707776e+01     1.175872    0.7594628  78.55  0.004927132    1.521    0.342
        36 -12.5894     18.7173     86.8153   1.1939933666e+02   5.5704431765e+01    0.6619345    0.4477407 -87.57  0.003056932    1.375    0.273
        37 -12.0699     21.7208    119.7856   1.2272429386e+02   4.8096834771e+01    0.7158535    0.3302638 -75.30  0.003831465    1.792    0.442
        38 -13.5574     32.1767    158.6407   1.2395210822e+02   3.8805578515e+01     1.279274       0.7578  64.73  0.007857494    1.498    0.332
        39 -13.1655     45.7217    117.0462   1.1599119795e+02   4.6420458867e+01     1.112751    0.7930235  47.19  0.006825586    1.469    0.319
        40 -12.8336    118.0222     98.1027   9.2158175073e+01   3.9550127879e+01     0.599191    0.4494198  38.20  0.002998666    1.399    0.285
        41 -11.3602     88.2914    102.1589   1.0129887202e+02   4.4055950911e+01    0.2803595     0.175349  65.79  0.001258465    2.152    0.535
        42 -11.8814     57.5415     98.3160   1.0944239415e+02   4.9305208526e+01    0.4615014    0.4045761  -0.74  0.002890433    1.456    0.313
        43 -11.7118     79.6002     95.7927   1.0234521362e+02   4.6839670708e+01    0.3590112    0.2238689 -68.84  0.001718885    1.752    0.429
        44 -12.3335    107.5237     93.8099   9.3871153459e+01   4.2493277263e+01    0.3643396    0.2697588 -37.66  0.001825338    1.407    0.289
        45 -11.1625     39.5698     90.7433   1.1350252462e+02   5.3021211957e+01    0.4792854    0.2555325  50.65  0.002445148    2.203    0.546
        46 -10.7562     46.4990     86.5017   1.1049584462e+02   5.3262268492e+01    0.2796913     0.110535 -62.46  0.001215625    2.181    0.542
        47 -11.4293     58.8161     82.5449   1.0566947133e+02   5.2707338929e+01    0.3620772    0.2767748  68.04  0.002060405    1.558    0.358
        48 -13.0443    132.4427     75.9118   8.2117879920e+01   4.0940251780e+01      1.22586    0.9534353  75.04  0.005854519    1.598    0.374
        49 -11.7084     23.6802     76.6816   1.1611054948e+02   5.7605491027e+01    0.5748686    0.3148899 -77.41  0.003104408    1.732    0.423
        50  -9.8555     36.1406    235.4384   1.2819108831e+02   2.4372484390e+01    0.1483554   0.05614442  51.58 0.0009245717    1.835    0.455
        51 -13.4113     22.1586     59.7280   1.1325772269e+02   6.1482858511e+01     1.300104    0.7309178 -15.68  0.006727689    2.666    0.625
        52 -10.0915     83.3824     70.7755   9.4599475883e+01   5.1685599657e+01    0.2059178    0.1211914 -40.81 0.0009512432    1.647    0.393
        53 -11.6146     94.9872    222.5791   1.1731778613e+02   1.9174735765e+01    0.4951211    0.2424968  63.41  0.002333007    2.188    0.543
        54 -10.9147     62.7508     65.7346   9.9985117815e+01   5.5882598835e+01    0.2173357    0.1060078 -63.07 0.0008979558    2.415    0.586
        55 -12.7534    117.6196     52.3835   7.8266548055e+01   4.8565663156e+01     1.095656    0.5078235  58.15  0.004045569    2.639    0.621
        56 -10.9788     38.2618    220.6817   1.2706488069e+02   2.6541122659e+01    0.3134536    0.1224381  55.27  0.001882463    1.934    0.483
        57 -12.8897      3.1279     48.1676   1.1827029839e+02   6.5177364431e+01    0.7799174    0.4563104 -66.80  0.003663048    1.322    0.244
        58 -10.1653     32.7895    216.6233   1.2776900397e+02   2.7811029058e+01     0.212461    0.1249292  68.17  0.001493688    1.300    0.230
        59 -10.4641     97.9402    216.0308   1.1616759840e+02   1.9813886711e+01    0.2666879    0.1739899  26.16  0.001589045    2.112    0.526
        60 -10.5435     83.0037     38.2832   8.3478468646e+01   5.8058848466e+01    0.1962335    0.1793283   9.48 0.0008533312    1.089    0.082
        61 -11.3488    118.3599     35.2912   7.1711851245e+01   5.1171593090e+01    0.4535257    0.3058135 -43.53  0.002153306    1.581    0.368
        62 -11.1777    126.5264     34.5277   6.9362257673e+01   4.9355476640e+01    0.3269021    0.2566444 -83.98  0.001589312    1.701    0.412
        63 -12.3232      2.1275    199.6475   1.3221516242e+02   3.3700306581e+01    0.4377507    0.1449605 -87.34  0.002210873    2.638    0.621
        64 -12.1535     63.1511     28.0410   8.6451587551e+01   6.3189773048e+01    0.5264876    0.3943033  27.44  0.003078049    1.415    0.293
        65 -11.9878    143.7552     17.6728   5.9206947208e+01   4.7202056054e+01     0.353521    0.2584254 -73.26  0.001683948    1.731    0.422
        66 -14.0897      9.3704    159.3443   1.2884964971e+02   4.0732491943e+01     1.772525     0.922505 -56.44   0.01081351    2.257    0.557
