#   1 NUMBER                 Running object number                                     
#   2 MAG_AUTO               Kron-like elliptical aperture magnitude                    [mag]
#   3 X_IMAGE                Object position along x                                    [pixel]
#   4 Y_IMAGE                Object position along y                                    [pixel]
#   5 X_WORLD                Barycenter position along world x axis                     [deg]
#   6 Y_WORLD                Barycenter position along world y axis                     [deg]
#   7 A_WORLD                Profile RMS along major axis (world units)                 [deg]
#   8 B_WORLD                Profile RMS along minor axis (world units)                 [deg]
#   9 THETA_WORLD            Position angle (CCW/world-x)                               [deg]
#  10 FWHM_WORLD             FWHM assuming a gaussian core                              [deg]
#  11 ELONGATION             A_IMAGE/B_IMAGE                                           
#  12 ELLIPTICITY            1 - B_IMAGE/A_IMAGE                                       
         1  -8.7421    160.7045      9.5079   6.5856238679e+01   4.3554346928e+01    0.3073031     0.129072 -16.53  0.001245097    3.589    0.721
         2  -9.4024    229.1678      9.3078   5.8104372131e+01   2.7484040728e+01    0.1879028    0.1317279  66.30 0.0006408496    1.421    0.296
         3  -8.4734    211.6321      8.8305   5.9623429636e+01   3.1529105296e+01    0.1711409    0.1001698 -48.87 0.0006856162    1.659    0.397
         4 -10.4211    248.6992      5.0873   5.5699449686e+01   2.3710055527e+01    0.2861915     0.251661 -39.16  0.002060388    1.497    0.332
         5  -8.7815    223.1754      5.4309   5.7822188307e+01   2.9254336596e+01    0.1745108   0.09753814 -89.87 0.0007464322    1.622    0.383
         6  -8.8579    112.9027    245.3784   1.3056551245e+02   8.4266972696e+00    0.2370434    0.1626311 -42.70  0.001263735    2.028    0.507
         7 -10.2081    233.9657    247.0004   1.0753848803e+02  -1.1865249974e+01    0.4480865     0.377165  40.34  0.002490632    1.433    0.302
         8 -11.6264    248.8468    242.1695   1.0406241529e+02  -1.3378130419e+01     1.543236    0.3815548 -40.77  0.005718169    4.694    0.787
         9 -10.3454    248.5195    234.5088   1.0278735051e+02  -1.2316692534e+01     0.583262    0.2015446 -32.86  0.002548357    2.977    0.664
        10 -11.6419    243.0027    246.8540   1.0589431121e+02  -1.3156402213e+01    0.5616452    0.4448702 -25.49  0.002536749    1.350    0.259
        11 -10.6250    241.5948    239.7102   1.0492604190e+02  -1.2012005163e+01     0.450123    0.2949501 -41.15  0.002410443    1.815    0.449
        12  -8.7157    178.8128    245.1600   1.1763556476e+02  -2.7536735906e+00    0.1738599    0.1419185   8.08 0.0006365398    1.348    0.258
        13  -9.0231    131.8556    244.4847   1.2675527799e+02   5.4225035300e+00    0.2342636    0.1714265 -35.22  0.001299341    1.905    0.475
        14 -10.1581    147.0571    241.4624   1.2334037018e+02   3.3488713999e+00    0.4020276    0.3161738 -17.14  0.002306089    1.807    0.447
        15  -8.7274    201.4536    241.4608   1.1267476887e+02  -5.9835600717e+00    0.2223706    0.1245377 -40.79  0.001135296    2.015    0.504
        16  -8.5727    169.1357    242.1203   1.1906686730e+02  -5.9842881241e-01    0.1979354    0.1640063  18.79 0.0007186711    1.266    0.210
        17  -8.4195    214.3495    241.2647   1.1019546413e+02  -8.0520728619e+00    0.1554557    0.1157526 -43.51 0.0005209055    1.623    0.384
        18 -10.2339    231.8699    236.8129   1.0618550606e+02  -1.0158905541e+01    0.4652133    0.3280397 -43.94  0.002787353    1.754    0.430
        19  -9.1110    195.4168    237.7442   1.1322877420e+02  -4.4014518778e+00    0.2867873    0.1241025 -39.64   0.00128644    2.614    0.617
        20  -8.6963    189.8448    237.2991   1.1424093559e+02  -3.3826241098e+00    0.1961036    0.1724737 -54.56  0.000485495    1.408    0.290
        21  -9.2057    183.5121    237.7607   1.1555674970e+02  -2.3684201182e+00    0.3059829    0.2052744   1.75  0.001523097    2.181    0.541
        22  -8.6122    158.9432    237.9305   1.2045777343e+02   1.8921980808e+00    0.2085849    0.1518052  68.73  0.001129736    1.689    0.408
        23  -9.6853    204.1926    235.3218   1.1112983351e+02  -5.5002911618e+00    0.3422301    0.2991115 -58.24  0.002168297    1.521    0.342
        24  -9.9847    215.7383    233.4034   1.0859902269e+02  -7.1138638035e+00    0.4764572    0.3497215 -64.31  0.002580384    2.317    0.568
        25  -9.1185     77.3323    235.6748   1.3635034700e+02   1.5885287837e+01    0.2182779    0.1518244  68.09 0.0005770123    1.231    0.188
        26  -9.1343     49.6729    235.9637   1.4155568733e+02   1.9678872310e+01    0.1695461    0.1269167  84.87 0.0005546316    1.108    0.098
        27  -8.1004      4.3680    235.3186   1.4935957441e+02   2.5027154380e+01   0.09568131   0.07576925 -60.42  0.000703721    1.786    0.440
        28  -9.3855    194.8609    231.5508   1.1230664246e+02  -3.3190341294e+00    0.3401103    0.2150241 -33.17  0.001771294    1.777    0.437
        29  -9.9406    173.6487    230.8220   1.1640049933e+02   5.2552139240e-01    0.4291168    0.2869216 -27.99  0.002226035    1.904    0.475
        30  -9.4548    186.1924    229.7210   1.1371094527e+02  -1.5073123697e+00    0.3286768    0.2402941 -46.69  0.001190322    1.569    0.363
        31  -9.1974    157.3204    230.6058   1.1966969267e+02   3.4805807150e+00    0.2453536    0.2186947  26.05 0.0006641062    1.158    0.137
        32  -9.5365    236.7678    229.5655   1.0401981446e+02  -9.8800719199e+00    0.2698891    0.2199725  47.68   0.00128351    1.559    0.359
        33  -9.2096    230.8237    227.8705   1.0480712567e+02  -8.7095933110e+00    0.2886721     0.186674  27.68  0.001237613    1.422    0.297
        34  -9.4380    223.1471    227.0234   1.0608491011e+02  -7.3555623234e+00    0.2767297    0.2601584 -18.23  0.001241775    1.243    0.195
        35  -8.7997    149.6256    226.0279   1.2053817014e+02   5.7086360262e+00    0.2853796     0.210414 -82.57  0.001499691    1.790    0.441
        36 -10.9281    239.8579    219.0538   1.0155695535e+02  -8.8216014970e+00    0.9464622    0.4468171 -30.76  0.004528761    2.165    0.538
        37 -10.8724    248.6853    215.6614   9.9348286179e+01  -9.6810894645e+00     0.814813    0.3972987 -43.43  0.003855764    2.295    0.564
        38 -10.2839    231.6091    186.3615   9.6767227649e+01  -2.1791076026e+00    0.5931851    0.3838027 -31.13    0.0023569    1.496    0.332
        39 -10.8831    226.7002    219.5807   1.0407724208e+02  -6.7948821894e+00    0.6326679    0.4928593  72.48  0.003113997    2.259    0.557
        40 -10.0729    232.5579    213.9330   1.0194476787e+02  -6.8754358811e+00    0.4918414    0.3055246 -14.37   0.00220543    1.891    0.471
        41 -10.8263    228.3429    201.9169   1.0044787345e+02  -4.2393874978e+00      1.05381    0.3797182 -29.79   0.00352088    3.984    0.749
        42 -11.5818    224.4619    192.6428   9.9361815124e+01  -1.9896542979e+00     1.202001    0.6636139  37.22  0.005686799    1.818    0.450
        43 -11.7757    247.6442    192.5535   9.5109646550e+01  -5.9508036551e+00    0.9245115     0.464544 -40.08  0.004441004    1.903    0.475
        44 -11.4578    248.5251    182.1543   9.2885524797e+01  -4.3959605889e+00    0.9630238    0.5889384 -26.37  0.004922518    1.610    0.379
        45  -8.1475    212.7132    225.3097   1.0776096665e+02  -5.3661500268e+00    0.1923915    0.1549727  34.39 0.0005352248    1.169    0.145
        46  -8.5411    206.6368    223.5929   1.0863053455e+02  -4.0581425971e+00    0.3151201    0.1228629 -46.25  0.001270546    3.010    0.668
        47  -9.1989    199.8716    224.3974   1.1009450866e+02  -3.0186605295e+00    0.2499147    0.2135875 -12.73 0.0007655422    1.206    0.171
        48  -9.6192    192.0176    220.2356   1.1092204349e+02  -9.3033138818e-01    0.3442405    0.2729853 -41.51   0.00157672    1.384    0.277
        49  -8.2736    113.5324    221.9843   1.2744685066e+02   1.2886470146e+01    0.1936958     0.130536 -61.32  0.001028471    1.587    0.370
        50  -8.2295     66.9993    222.4847   1.3699340870e+02   2.0101096209e+01    0.1734185    0.1126637  45.41 0.0003469026    1.472    0.320
        51  -9.0098    210.4879    219.9745   1.0723667160e+02  -4.1330035257e+00    0.2660257    0.2278862  85.64   0.00154041    1.763    0.433
        52  -8.9257    211.3756    216.8366   1.0649549409e+02  -3.7730894200e+00    0.2537478    0.2297148 -13.00 0.0009774469    1.113    0.101
        53  -8.3673    141.3189    219.3167   1.2122788095e+02   8.5068483431e+00    0.1332563    0.1091848   3.75  0.000639819    1.657    0.396
        54  -8.5233    178.5421    216.1516   1.1293819999e+02   2.2436062588e+00    0.2774889    0.1712777  25.16  0.001287889    1.885    0.469
        55  -8.7040    168.7077    215.8486   1.1491859110e+02   4.1209657843e+00    0.2318423    0.1733579 -42.77  0.001243913    1.473    0.321
        56  -9.4894    131.4446    213.1772   1.2236997786e+02   1.1537777426e+01    0.5149077    0.1312493 -52.06  0.001638951    4.153    0.759
        57  -9.3744    185.6474    212.7172   1.1087380642e+02   1.5544583413e+00    0.3533404    0.2519877 -39.02  0.001174758    1.509    0.337
        58 -10.7706    204.3089    207.2941   1.0611472521e+02  -9.0267045268e-01     1.007022    0.5953569 -22.23  0.004547453    2.208    0.547
        59  -9.0783    203.1255    198.2411   1.0462255547e+02   9.2585898912e-01     0.331177    0.1996738 -49.63  0.001072837    1.878    0.468
        60 -11.3319    215.6829    208.6091   1.0413544503e+02  -3.1569025462e+00    0.7925567    0.5159382 -16.03  0.003274358    1.856    0.461
        61  -9.6514    211.1565    201.3615   1.0363486254e+02  -1.1079809288e+00    0.4104241    0.2836621 -41.62   0.00135174    1.503    0.335
        62  -9.3769    209.8616    195.6218   1.0277274578e+02   1.4505975574e-01    0.3366842     0.273636  80.08  0.001764383    1.812    0.448
        63  -9.0551    161.5183    225.9599   1.1808075759e+02   3.5696253934e+00    0.1894965    0.1364959 -49.01   0.00102396    1.565    0.361
        64  -9.6970    174.9850    207.2617   1.1209652181e+02   4.5632343107e+00    0.3999296    0.1825632 -35.39  0.001360844    2.867    0.651
        65  -9.8998    196.7314    204.6317   1.0713119623e+02   9.6105977489e-01    0.3585744    0.3016007  61.10  0.001125606    1.404    0.288
        66  -8.3929    161.2561    209.7876   1.1543916576e+02   6.6764741406e+00    0.2261319    0.1054231  33.50 0.0008701415    2.400    0.583
        67  -8.3727    147.6795    206.6468   1.1780877628e+02   9.8692988394e+00    0.1423962    0.1133922  -2.65 0.0007047125    1.751    0.429
        68  -8.1952    126.4630    206.4662   1.2239564236e+02   1.3844928261e+01    0.1404677    0.1290053  60.55 0.0001903521    1.045    0.043
        69  -8.6979    163.2487    201.9135   1.1361945326e+02   7.8522724585e+00    0.3846057    0.1730352  55.68  0.001351046    2.985    0.665
        70  -8.8841    184.3856    201.1710   1.0901034622e+02   3.9293342224e+00    0.2492418    0.1819899  31.06 0.0006862461    1.359    0.264
        71  -9.3305    191.8628    208.6203   1.0886138895e+02   1.1444098958e+00    0.3125193    0.2281762 -30.92  0.001398758    1.480    0.324
        72  -8.3577    133.2529    198.6126   1.1961091745e+02   1.4271240441e+01    0.1997744    0.1329483  34.38 0.0004765398    1.595    0.373
        73  -8.6681    140.6690    197.6986   1.1780516989e+02   1.3064902969e+01    0.1415635    0.1162981   1.62 0.0003106927    1.650    0.394
        74  -8.6277    184.8155    193.1379   1.0738286930e+02   5.3874913866e+00    0.2068415    0.1723651   1.73  0.001088936    1.361    0.265
        75  -8.4939    206.1591    190.6386   1.0252065967e+02   1.7432863999e+00    0.2391341    0.1901765 -16.33  0.001074626    1.341    0.254
        76  -8.6835    210.3147    189.9205   1.0155301379e+02   1.0901804293e+00    0.2634262    0.2130577  69.95  0.001381266    1.665    0.399
        77 -12.5179    236.9374    196.1309   9.7731716365e+01  -4.7500653798e+00     2.306939    0.7300497 -35.45   0.00833972    3.262    0.693
        78  -8.4580    224.5034    182.9978   9.7412270084e+01  -3.0432360575e-01    0.2126425    0.1308709 -37.99 0.0007184066    1.570    0.363
        79  -8.4255    202.4217    182.7475   1.0167687731e+02   3.9396196160e+00    0.2077862    0.1335523 -29.47 0.0009508922    1.707    0.414
        80  -8.4267    147.6578    179.7116   1.1290989724e+02   1.5597500472e+01    0.1489309    0.1208124   3.31 0.0005485715    1.646    0.393
        81  -8.5713    217.7604    177.3991   9.7545740984e+01   1.9740191093e+00    0.2620702    0.1680952 -48.91 0.0009498305    1.675    0.403
        82  -8.0648    211.4910    176.4756   9.8573117876e+01   3.3554551784e+00    0.1426568    0.1351883  -6.24 0.0008101159    1.004    0.004
        83 -10.2330    216.3947    223.4898   1.0673244859e+02  -5.6975298903e+00    0.4847653    0.2238155 -41.78  0.002236073    2.329    0.571
        84  -7.8970      9.5561    166.4944   1.4330797169e+02   3.9214377240e+01    0.1207329   0.09194937 -81.20 0.0008077106    1.036    0.034
        85  -8.4448    184.5976    164.2469   1.0148103049e+02   1.1253650659e+01      0.21528    0.1424827 -32.90 0.0009442163    1.656    0.396
        86 -10.3126    248.4275    205.9440   9.7565571718e+01  -8.1818163201e+00    0.4929141    0.3333386  40.13  0.002827511    1.574    0.365
        87  -8.0710    213.3177    162.3013   9.5201642608e+01   5.6907509560e+00    0.1475541     0.113314   2.01 0.0007023106    1.620    0.383
        88  -7.9223    200.6643    161.6744   9.7574238664e+01   8.4062224912e+00    0.1545996    0.1174165   2.16 0.0007051426    1.718    0.418
        89  -9.4757    243.6322    202.0826   9.7678794025e+01  -6.8173862692e+00    0.3112527    0.2398668   1.15 0.0009516645    1.267    0.211
        90  -8.6427    243.5413    155.7657   8.8287327578e+01   1.0343044974e+00    0.1847985    0.1220762 -47.62  0.000440671    1.501    0.334
        91  -8.7404    196.7556    154.9989   9.6896982624e+01   1.0570368614e+01    0.2012853    0.1257642 -42.35 0.0004767535    1.570    0.363
        92  -9.7804    229.7892    153.0403   9.0109954461e+01   4.1564960992e+00    0.2843187    0.2076469  30.58 0.0008208654    1.549    0.355
        93  -8.0775    118.5111    152.5446   1.1442142860e+02   2.7618097749e+01    0.1527663    0.1443717 -89.12 0.0003978595    1.013    0.013
        94 -10.9503    241.4030    149.2465   8.7259287734e+01   2.6034231180e+00    0.6678563    0.2792487  44.95  0.002690105    2.623    0.619
        95  -9.2798    224.5690    146.7170   8.9666926596e+01   6.3850543382e+00    0.3709675    0.2145702 -36.09  0.001652028    1.672    0.402
        96 -10.3844    248.2558    143.3235   8.4849800950e+01   2.3680733479e+00     0.382043    0.2154254 -43.69  0.001809718    1.607    0.378
        97 -10.1448    242.8920    138.8034   8.4753720398e+01   4.2027010970e+00    0.4074151    0.2535478 -69.89  0.001618948    2.722    0.633
        98  -8.9225    215.5041    135.5483   8.8818254138e+01   1.0419351259e+01    0.2134666    0.1475631  64.92 6.366719e-05    1.743    0.426
        99  -9.2792    231.1785    148.3945   8.8849241966e+01   4.7444246338e+00    0.1926027    0.1385309  61.41 0.0008405845    1.688    0.408
       100  -9.7242    236.2376    130.3750   8.4005543221e+01   7.0610395688e+00    0.2613911    0.2145878  80.20 0.0008139907    1.466    0.318
       101  -9.3374    231.3940    129.9399   8.4723090470e+01   8.1344651741e+00    0.3633161    0.2549591 -40.01 0.0008558722    1.314    0.239
       102  -8.0282    180.3151    131.6660   9.4937074102e+01   1.9035111757e+01    0.1620805    0.1234868 -81.37 6.378139e-05    1.688    0.408
       103  -8.6719    186.5128    128.4599   9.2853017352e+01   1.8287235442e+01    0.3241995    0.1516618 -40.80  0.001191941    2.122    0.529
       104  -8.4226    218.5980    126.8239   8.6249380614e+01   1.1433164534e+01    0.2185125    0.1296524 -50.36 0.0008400822    1.684    0.406
       105  -8.9652    200.9959    125.3754   8.9196755905e+01   1.5616504615e+01     0.329364    0.2097426 -41.38  0.001456503    1.518    0.341
       106  -9.0180    249.2273    122.2346   8.0149640532e+01   5.9317078986e+00    0.3452176    0.2254141 -71.15  0.001592327    2.153    0.535
       107  -8.5238    212.9645    123.0408   8.6389689074e+01   1.3394332525e+01    0.2397876    0.1890417   7.34  0.001138775    1.733    0.423
       108  -9.3204    232.1511    120.9132   8.2565338580e+01   9.6475981315e+00    0.2267122    0.1831395 -61.88 0.0005917116    1.267    0.211
       109  -8.1816    171.5395    121.4739   9.4347437872e+01   2.3193240432e+01    0.1557698    0.1527095 -70.47 0.0001660262    1.016    0.016
       110  -8.6037    192.3038    118.4479   8.9235911920e+01   1.8988504833e+01     0.260185    0.1794208 -61.99 0.0006573778    1.662    0.398
       111  -8.4864    226.5996    116.7701   8.2546751174e+01   1.1596874812e+01    0.2085303    0.1252964 -50.22 0.0004742941    1.615    0.381
       112  -8.3728    209.2832    113.8238   8.4880074784e+01   1.5992921747e+01    0.2414982    0.1737218 -58.11 0.0005410567    1.446    0.309
       113  -8.4880    153.5084    114.5177   9.6699155874e+01   2.8829630028e+01    0.1601377    0.1493535 -84.37  0.000241146    1.100    0.091
       114  -8.8408     25.9396    111.3295   1.3185760060e+02   5.0534921272e+01    0.1669248    0.1498985 -43.48  0.001139671    1.162    0.140
       115  -7.8973    201.6804    109.7297   8.5292215184e+01   1.8524842786e+01    0.1461541     0.120922  16.22 0.0006968414    1.564    0.360
       116  -9.1012    236.9295    107.4894   7.8776716742e+01   1.1075783480e+01    0.2048216    0.1410591  56.06  0.001026736    1.577    0.366
       117  -8.1676    197.2206    106.7988   8.5411866006e+01   2.0129444127e+01    0.2422402    0.1235365 -29.70 0.0008709309    2.496    0.599
       118  -8.8391    214.2528    104.7480   8.1835101073e+01   1.6573090010e+01    0.2755091    0.1933464 -31.92 0.0005896364    1.520    0.342
       119  -8.1819    205.5018    105.5226   8.3565660566e+01   1.8440598384e+01    0.1500152    0.1427559 -63.82 -5.336751e-05    1.024    0.023
       120  -9.1434    228.6420    104.0686   7.9295320180e+01   1.3477910610e+01    0.2466462    0.2080692  58.36 0.0005161811    1.269    0.212
       121  -9.5126    246.8650    102.5325   7.6201317553e+01   9.8706988496e+00    0.2762458    0.1774617 -47.97 0.0006061724    1.383    0.277
       122  -7.6888    188.5568    100.5070   8.5502085186e+01   2.3388379131e+01    0.1548156    0.1438978 -73.95 0.0001048494    1.045    0.043
       123  -9.0873    206.0626     98.2974   8.1705192895e+01   1.9659672155e+01    0.3339863    0.2761171  36.33  0.001706457    1.419    0.295
       124  -9.0296    234.4791     94.5338   7.6222225931e+01   1.3891714078e+01    0.2102591    0.1324444 -31.25 0.0002034213    1.736    0.424
       125  -9.0469    244.7738     93.6009   7.4535855319e+01   1.1845196897e+01    0.1808267    0.1294142  78.79  0.000509529    1.587    0.370
       126  -8.6550    150.6877     92.9253   9.1588258990e+01   3.3894354642e+01    0.2128721    0.2023068 -54.75  0.000576242    1.057    0.054
       127  -9.3894    244.7908     87.9546   7.3292830101e+01   1.2798801607e+01     0.300171     0.184816 -29.52  0.001424714    1.875    0.467
       128  -8.4301    227.2127     88.0828   7.5828569715e+01   1.6621415101e+01    0.1955822    0.1094735 -38.88 0.0008686322    1.712    0.416
       129  -8.7730    171.0432     83.4317   8.4527048501e+01   3.0805169867e+01    0.3535064    0.1917283 -70.17  0.001081238    3.904    0.744
       130  -8.6887    244.8011     80.8139   7.1727244911e+01   1.3984872034e+01    0.1969495    0.1435066 -67.60 0.0005512086    1.341    0.254
       131  -8.7905    249.9305     76.4766   7.0135033941e+01   1.3602113775e+01    0.2784804    0.1560646 -53.53  0.001356301    1.634    0.388
       132  -8.9338    239.8757     76.9338   7.1520361714e+01   1.5685655402e+01    0.1969278    0.1892007 -35.77 0.0009510801    1.251    0.201
       133  -8.1560    225.7030     70.3318   7.1944116498e+01   1.9931879098e+01     0.148742   0.09705277 -68.17 0.0007028783    1.642    0.391
       134  -8.6903    239.3651     68.0152   6.9616939987e+01   1.7230040669e+01    0.1947182    0.1546339 -52.73 0.0005420026    1.136    0.120
       135  -7.6813    176.4869     67.5281   7.9164092775e+01   3.2210923021e+01    0.1468459    0.1389166  73.37 0.0001040229    1.041    0.039
       136  -9.5857    244.9999     65.5801   6.8394045297e+01   1.6381542089e+01    0.3479408      0.22187 -72.82  0.001290057    1.669    0.401
       137  -8.0926    174.4892     59.4857   7.7352535332e+01   3.3980118190e+01    0.1463547    0.1344544  85.22 5.665017e-05    1.028    0.027
       138  -7.8455    249.6899     58.6902   6.6383493010e+01   1.6427668224e+01    0.1168229    0.1052673  23.68 0.0003642383    1.622    0.383
       139  -8.3352    190.6636     53.9755   7.3149274518e+01   3.0835780080e+01    0.2209267    0.1257495  -6.65 0.0007037485    4.580    0.782
       140  -8.3341    140.3269     54.6771   8.2854225853e+01   4.2972062845e+01    0.1455695    0.1113513 -77.77 0.0007048596    1.690    0.408
       141  -8.5121    220.6249     45.1702   6.6821813722e+01   2.4917626250e+01     0.173311    0.1288831 -27.68 0.0005498291    1.645    0.392
       142  -8.3162    189.4925     44.5253   7.0903586435e+01   3.2476421695e+01     0.140615    0.1251952  86.23 -5.229412e-05    1.001    0.001
       143  -7.8121    173.4635     40.5103   7.2368165216e+01   3.6953045884e+01    0.1395707    0.1260706  69.98 1.749178e-05    1.041    0.040
       144  -9.9779    248.8704     37.8136   6.2139994121e+01   1.9600077383e+01    0.2780482     0.257957 -54.29  0.001087274    1.310    0.237
       145  -9.2537    242.5053     37.9440   6.2798531994e+01   2.0963654031e+01    0.1781384    0.1160562 -42.61 0.0004074525    1.484    0.326
       146  -9.1226    229.4617     37.4337   6.4064447522e+01   2.3948227834e+01    0.2337439    0.1966989 -87.95 0.0006915245    1.066    0.062
       147  -8.6058    115.9400     35.5440   8.2452062120e+01   5.1113625376e+01    0.2061621   0.09145844  36.54  0.000808799    2.594    0.615
       148  -8.6872    218.4953     34.0784   6.4549468161e+01   2.6923232903e+01    0.1826877    0.1228741 -42.59  0.000472108    1.489    0.328
       149  -8.1408    104.2990     34.3117   8.4996916921e+01   5.3723995061e+01    0.1359338   0.09260971  20.99 0.0002951877    1.603    0.376
       150  -8.3781    164.4608     32.5036   7.1655075083e+01   4.0171777008e+01    0.2091308    0.1332997 -32.84 8.324267e-05    1.730    0.422
       151  -8.4813    163.1005     29.1855   7.0952797084e+01   4.0899334276e+01    0.2157122    0.1715929 -85.43  0.000853966    1.310    0.236
       152  -8.2704    248.5257     31.4836   6.0888185290e+01   2.0522431710e+01    0.1282445    0.1011277 -73.19 0.0008098496    1.016    0.015
       153  -8.7245    244.8338     29.1822   6.0765286693e+01   2.1620504892e+01    0.1607897    0.1451213  70.39  0.001078451    1.353    0.261
       154  -8.9682    220.9724     23.0803   6.1822773674e+01   2.7738016182e+01    0.2507655    0.1653513 -26.42  0.001367583    1.939    0.484
       155  -8.6872    249.3211     22.4935   5.9022182869e+01   2.1507399740e+01    0.2016861    0.1650629  67.19  0.001336647    1.407    0.289
       156  -8.6417    141.2387     21.0242   7.2381285355e+01   4.7032193028e+01    0.1577971    0.1136171 -24.40 0.0006099722    1.594    0.373
       157  -8.7155    206.3543     20.0894   6.2724828794e+01   3.1507898267e+01    0.1782078    0.1514903 -64.85 0.0006248244    1.148    0.129
       158 -10.1686    240.6984     18.3966   5.8952139043e+01   2.3874891590e+01    0.2175606    0.1890564 -85.91 0.0006275174    1.176    0.150
       159  -9.3695    226.5230     18.0018   6.0169857613e+01   2.7078771186e+01    0.1923159    0.1417813  84.82 0.0003515966    1.162    0.139
       160  -8.3995     90.1828     18.6013   8.3151484363e+01   5.8329384392e+01    0.1790329   0.09655354  40.51 0.0005064965    1.619    0.382
       161  -9.2240    191.7025    246.5472   1.1535982401e+02  -5.1380575858e+00    0.2972605    0.1737268 -35.60  0.001593023    1.989    0.497
       162  -9.6649    224.3491    244.8673   1.0893648386e+02  -1.0129486708e+01    0.4535716    0.3865947 -74.73  0.002850782    2.052    0.513
       163  -8.5122    219.5957    239.7375   1.0895582198e+02  -8.6652997929e+00    0.1995531    0.1227015 -42.28 0.0007316034    1.886    0.470
       164  -9.1378    210.0608    245.4427   1.1169222867e+02  -7.9710942958e+00    0.2318955    0.1597088 -13.50 0.0008738198    1.667    0.400
