#   1 NUMBER                 Running object number                                     
#   2 MAG_AUTO               Kron-like elliptical aperture magnitude                    [mag]
#   3 X_IMAGE                Object position along x                                    [pixel]
#   4 Y_IMAGE                Object position along y                                    [pixel]
#   5 X_WORLD                Barycenter position along world x axis                     [deg]
#   6 Y_WORLD                Barycenter position along world y axis                     [deg]
#   7 A_WORLD                Profile RMS along major axis (world units)                 [deg]
#   8 B_WORLD                Profile RMS along minor axis (world units)                 [deg]
#   9 THETA_WORLD            Position angle (CCW/world-x)                               [deg]
#  10 FWHM_WORLD             FWHM assuming a gaussian core                              [deg]
#  11 ELONGATION             A_IMAGE/B_IMAGE                                           
#  12 ELLIPTICITY            1 - B_IMAGE/A_IMAGE                                       
         1 -13.5106    244.4962      5.9423   5.4648938159e+01   2.3318243017e+01     1.447899     0.846978 -47.43   0.00859189    1.341    0.254
         2 -10.3212    191.2390    247.7645   1.1270947672e+02   2.3078116438e-01    0.2663718    0.2240561   8.05  0.002103688    1.314    0.239
         3  -9.8873    224.7415    249.7467   1.0711204534e+02  -3.9787684550e+00     0.177127    0.1413124   1.57  0.001179456    1.375    0.273
         4 -10.3589    209.5520    249.2917   1.0964506788e+02  -2.1698230384e+00    0.2608455    0.1838714   2.57  0.001970862    1.190    0.159
         5 -10.2942    242.3339    247.4274   1.0391403057e+02  -5.6972311929e+00    0.2190682    0.1501491  -7.53  0.001039719    1.280    0.219
         6 -10.3679    232.9562    246.6313   1.0531990870e+02  -4.5970443073e+00    0.2614601    0.1802491  -5.64  0.001176873    1.254    0.203
         7  -9.9067    175.9827    246.6882   1.1540309184e+02   2.2974004814e+00    0.2125314    0.1644525 -22.72  0.001442515    1.532    0.347
         8 -11.4633    247.2450    241.6471   1.0231149714e+02  -5.6841477495e+00    0.5841957    0.4612148 -53.89  0.003436368    4.735    0.789
         9 -10.4396    235.0789    180.3332   9.4315742914e+01   2.5483906087e+00    0.3987553    0.1981228 -17.16  0.001507997    2.115    0.527
        10 -10.8377    250.1763    151.9537   8.6549613227e+01   4.0011217152e+00    0.8643742    0.1363985 -34.84  0.002697645    5.255    0.810
        11 -11.1476    248.4643    233.4164   1.0091189579e+02  -5.0314917100e+00    0.3867481    0.3133131  34.32  0.002850936    2.067    0.516
        12 -11.2204    236.0903    229.0015   1.0224356090e+02  -3.1871635106e+00    0.3701105    0.2945055 -18.63  0.001761661    1.558    0.358
        13 -11.5350    238.2601    219.4918   1.0042414491e+02  -2.4407124794e+00    0.4602442    0.2782869 -23.74  0.001856615    1.583    0.368
        14 -10.9104    249.6696    183.9293   9.2625432766e+01   1.3826329778e-01    0.4329822    0.1853983 -29.35  0.001573476    2.077    0.519
        15 -10.8117    247.7597    176.3949   9.1560971785e+01   1.2903562420e+00     0.494144    0.2355332 -23.76  0.002678734    1.879    0.468
        16 -11.1217    232.9338    212.1211   1.0013490808e+02  -9.7551162476e-01    0.4061232    0.2294344 -13.98  0.001498754    1.653    0.395
        17 -10.9585    250.1165    199.7117   9.5295224560e+01  -1.7198857293e+00    0.3299261    0.1513203 -31.21  0.001897547    2.069    0.517
        18 -11.1851    240.3591    207.8700   9.8215139112e+01  -1.4244954160e+00    0.5208147    0.2458981 -37.23  0.002421304    2.505    0.601
        19 -11.4006    241.3786    178.5906   9.2971171890e+01   1.8908373756e+00    0.7290305    0.2277655 -32.28  0.003203823    2.933    0.659
        20 -11.4906    236.6015    198.4680   9.7260351200e+01   1.3053281515e-01    0.9570236    0.3110725 -24.16  0.003856329    3.859    0.741
        21 -10.5796    237.1097    186.6428   9.5117517577e+01   1.4831803042e+00     0.360437     0.213301 -17.79  0.001255544    1.509    0.337
        22 -11.2528    246.3937    165.2159   8.9687041613e+01   2.8606820192e+00    0.8044864    0.2415201 -28.76  0.003276835    3.182    0.686
        23 -10.6182    245.8760    156.3750   8.8062684379e+01   4.0619991994e+00    0.3668232     0.200549 -12.15   0.00110366    1.923    0.480
        24 -11.5121    247.1409    225.8934   9.9983782764e+01  -4.1405377974e+00    0.3840977    0.2935369  24.96  0.001804757    1.565    0.361
        25 -12.1922    247.7957    215.8814   9.8314675150e+01  -3.1865235000e+00    0.5620493    0.3098629 -24.39  0.002176417    1.666    0.400
        26 -10.3824    246.8902    206.0801   9.6868379553e+01  -2.0279369716e+00    0.2882911    0.1951412 -30.55  0.001226797    1.697    0.411
        27 -11.2616    242.9179    200.0262   9.6492915449e+01  -8.5973940135e-01    0.4674293    0.2204249 -20.57  0.001759011    2.018    0.504
        28 -11.8368    245.5104    190.9156   9.4512156274e+01  -1.4030549478e-01    0.6189532    0.3769943 -36.68  0.003472017    1.947    0.487
        29 -10.5371    225.1656    242.9680   1.0610092406e+02  -3.3499626694e+00    0.2522555    0.1829624  -2.02  0.001076965    1.208    0.173
        30  -9.8246    201.7140    242.0458   1.1005329321e+02  -4.3269682754e-01    0.2053752    0.1827913  -0.87  0.001101105    1.501    0.334
        31  -9.4426    169.0189    242.0456   1.1615163073e+02   3.7844506146e+00     0.184765    0.1346578  22.20 0.0008826152    1.013    0.012
        32  -9.9487    239.7930    240.0368   1.0326877477e+02  -4.7172405452e+00    0.1997914    0.1592607 -12.45  0.001032827    1.539    0.350
        33  -9.6065    219.7394    239.8827   1.0658720598e+02  -2.3942948309e+00    0.1911003    0.1311812 -29.00 0.0008452098    1.755    0.430
        34  -9.6306    214.0180    240.8073   1.0770623839e+02  -1.8063633086e+00    0.1758039     0.133246  -4.71 0.0008923945    1.264    0.209
        35  -9.8364    183.3901    239.2142   1.1304380860e+02   2.2407376613e+00    0.2250616    0.1984438   0.01  0.001309176    1.359    0.264
        36  -9.9048    159.1753    238.2662   1.1760743299e+02   5.6003991757e+00    0.2066597    0.2044515  19.65  0.001619992    1.481    0.325
        37 -11.0068    229.9284    235.6025   1.0424560083e+02  -3.1500809761e+00    0.3690771    0.3457569  39.61  0.002876956    2.204    0.546
        38 -11.2545    217.2206    211.4889   1.0274177687e+02   1.1315012795e+00    0.4630477    0.2711874 -24.85  0.001943594    1.687    0.407
        39  -9.6466    225.9390    212.7486   1.0142266340e+02  -1.5839942387e-01    0.2205117    0.1419022 -25.14  0.001040185    1.548    0.354
        40 -10.0562    217.3793    203.9413   1.0148199212e+02   2.0370691413e+00    0.2760454    0.1758216 -14.14  0.001139459    1.475    0.322
        41  -9.5870    219.5164    193.9861   9.9414231026e+01   3.0006646358e+00    0.2183052    0.1397216 -10.92  0.001116937    1.466    0.318
        42 -10.5663    224.2366    191.4650   9.8146934542e+01   2.6587676629e+00    0.4050417    0.2462967 -16.89  0.001577569    1.537    0.350
        43 -10.7337    225.5011    206.4960   1.0048169691e+02   6.3429302987e-01    0.3852545     0.253412   4.99  0.001554119    1.272    0.214
        44 -10.3806    229.9438    186.4283   9.6275954990e+01   2.4979248711e+00    0.3395165     0.197355 -21.97  0.001215242    1.577    0.366
        45 -10.0758    230.2349    179.6529   9.5000828726e+01   3.3224219948e+00    0.3607211    0.1773161 -18.44  0.001169544    2.170    0.539
        46 -10.2060    232.8833    173.7486   9.3463785130e+01   3.7056155670e+00    0.4703516    0.1512708 -29.43  0.001935516    3.090    0.676
        47 -10.3331    229.0487    227.6424   1.0321137752e+02  -2.2082480208e+00    0.2689189    0.1514059 -28.79  0.001242087    1.854    0.461
        48 -11.2796    227.4506    219.8978   1.0229445622e+02  -1.1640284483e+00    0.4138648    0.3083543 -12.35  0.002261796    1.285    0.222
        49 -10.5103    222.6014    200.5467   9.9993424418e+01   1.7455398938e+00    0.3250252    0.2661434  28.17  0.001653021    1.433    0.302
        50 -10.9118    228.6077    198.7985   9.8659998051e+01   1.1478169965e+00    0.4165934    0.3389188  20.58  0.002529284    1.322    0.244
        51 -10.4667    231.0329    192.8796   9.7229259779e+01   1.5435376349e+00    0.3279086     0.187823 -19.16 0.0009957538    1.614    0.381
        52 -10.8224    204.9744    234.8405   1.0846493992e+02  -2.7217625058e-02    0.3024076     0.279485  -1.80  0.001870851    1.605    0.377
        53 -10.7315    190.8955    234.5856   1.1100885364e+02   1.8188789403e+00    0.3407642    0.2828559 -33.38  0.002513396    1.658    0.397
        54 -10.2420    176.8456    235.3159   1.1377272121e+02   3.5955866900e+00    0.2908634    0.1681311 -33.94  0.001480263    2.060    0.515
        55 -10.8766    216.1145    233.1307   1.0624498161e+02  -1.2279557383e+00     0.342142    0.2667569   6.73  0.001668104    1.190    0.160
        56  -9.4639    170.4712    234.4647   1.1489765573e+02   4.5681940655e+00    0.1915241    0.1157015 -39.12  0.001081193    2.057    0.514
        57  -9.4365     99.7650    232.9834   1.2937388186e+02   1.4494469043e+01    0.1315083    0.1036909 -67.95 0.0008875007    1.652    0.395
        58  -9.0642    144.5340    232.4836   1.1986138343e+02   8.4283103205e+00    0.1236655   0.09293765  30.06 0.0003307171    1.038    0.036
        59  -9.1613    122.5130    232.5229   1.2447122357e+02   1.1485470953e+01    0.1245409     0.093816  33.00  0.000433378    1.003    0.003
        60  -9.3376    157.9753    230.5167   1.1687071203e+02   6.8296476210e+00    0.1721181    0.1503908   1.19  0.001237045    1.248    0.199
        61  -9.6360    113.4741    230.4771   1.2618432035e+02   1.3054639183e+01    0.1849065     0.120156 -82.75  0.001042825    2.452    0.592
        62  -9.1866    173.6085    228.7262   1.1351390253e+02   4.8968758809e+00    0.1314486    0.1161484 -37.24 0.0007910386    1.567    0.362
        63 -10.0325    211.7567    226.9060   1.0609730255e+02   2.1468006777e-02    0.2664204    0.1539098 -21.44  0.001241598    1.761    0.432
        64  -9.2203    184.5049    227.8899   1.1128189321e+02   3.5086137804e+00     0.154013    0.1109814 -26.73 0.0009453602    1.569    0.362
        65  -8.8617    138.4649    228.4626   1.2064076707e+02   9.8793700731e+00    0.1253768   0.09524693  28.71 0.0001795224    1.013    0.013
        66  -9.9207    222.9172    226.4735   1.0407904644e+02  -1.3328208927e+00    0.2117197    0.1488506  -3.47 0.0009506355    1.191    0.160
        67 -10.0381    198.7691    226.4432   1.0838627237e+02   1.7692900905e+00    0.2261796    0.1706352   9.34 0.0009450899    1.071    0.066
        68  -9.5696    162.9775    226.9954   1.1539788866e+02   6.6204040445e+00     0.197036    0.1474416  20.43  0.001233831    1.060    0.057
        69 -10.0883    205.9053    224.7993   1.0683537939e+02   1.0262944168e+00    0.2459472    0.1545148 -23.95  0.001425149    1.649    0.394
        70  -9.4958    190.5866    225.2827   1.0974935734e+02   3.0131534682e+00    0.2386715    0.1727189  -6.69  0.001072331    1.338    0.253
        71 -10.4756    216.8234    222.8167   1.0458434499e+02  -1.5433192709e-01    0.2896772     0.217439 -31.83  0.001642745    1.709    0.415
        72  -9.0962    170.3942    224.7877   1.1360868615e+02   5.8800779529e+00    0.1512091    0.1050663 -18.79 0.0006704265    1.623    0.384
        73  -9.4336    128.9900    224.9947   1.2224379063e+02   1.1764035907e+01    0.1963121    0.1367662   6.24  0.001139274    1.714    0.416
        74  -9.1348     97.4100    223.7791   1.2902440727e+02   1.6369067978e+01    0.1485404    0.1159564 -45.78 0.0009549814    1.678    0.404
        75  -9.6717    180.2651    222.4676   1.1133029351e+02   4.8058852392e+00    0.2040509    0.1525723 -23.61  0.001026389    1.479    0.324
        76  -9.9639    148.0180    222.5066   1.1788789735e+02   9.4145093338e+00    0.2179499    0.1915603 -23.35  0.001111242    1.365    0.267
        77  -9.7592    185.9059    220.8596   1.0999955446e+02   4.2302126615e+00    0.2257262    0.1659028 -32.66  0.001247288    1.612    0.380
        78  -9.2226    174.5091    222.0888   1.1241082975e+02   5.6690373013e+00    0.1558089     0.116786 -29.77 0.0007532529    1.549    0.354
        79  -9.7707    140.4679    221.5162   1.1935993781e+02   1.0661162631e+01    0.1900038    0.1115712 -33.90  0.001026036    2.221    0.550
        80 -10.6342    202.2729    218.0457   1.0647998696e+02   2.3360229789e+00    0.3421224    0.2065125 -28.11  0.001489691    1.754    0.430
        81 -10.5726    193.2512    217.8899   1.0814845857e+02   3.5955067137e+00    0.3173027    0.2440537 -20.58  0.001598038    1.391    0.281
        82 -10.2296    210.7958    217.7078   1.0487163229e+02   1.2334272569e+00    0.2819407    0.1742024 -22.63  0.001228757    1.622    0.383
        83  -9.8346    209.8614    211.8722   1.0412357343e+02   2.0747617582e+00    0.2564974    0.1524647   0.94  0.001032142    1.731    0.422
        84  -8.9965    155.4519    224.4808   1.1659921915e+02   8.0504905160e+00    0.1255075   0.09583814  24.20 0.0001464365    1.016    0.016
        85  -8.9216    220.4238    218.2130   1.0324286072e+02  -8.3400654219e-02    0.1337642    0.1015421 -28.81 0.0006707529    1.613    0.380
        86  -9.4111    119.5061    218.4996   1.2355812474e+02   1.4187986303e+01    0.1292072    0.1013283  33.34  0.000810631    1.013    0.013
        87  -9.4555    179.1835    216.4869   1.1066997215e+02   5.7737164273e+00    0.2014315    0.1437523   5.29 0.0007475643    1.318    0.241
        88 -10.0419    170.8655    215.8733   1.1224771696e+02   7.0654131753e+00    0.2718467     0.176457 -30.61  0.001308123    1.761    0.432
        89  -9.5245     82.5187    216.9692   1.3174350732e+02   1.9574955111e+01    0.1585159   0.09653462 -37.30 0.0008102471    2.591    0.614
        90  -9.1314    165.4225    215.2925   1.1327558616e+02   7.9475739562e+00    0.2016006    0.1169723 -35.22  0.001114639    2.022    0.505
        91  -9.1232    185.4071    214.7574   1.0918586483e+02   5.1181622790e+00    0.1565087    0.1044731 -17.61 0.0006401435    1.598    0.374
        92  -9.6127    142.8241    215.2142   1.1803580568e+02   1.1309776312e+01     0.177926    0.1315683  13.19 0.0008982245    1.336    0.251
        93  -9.9370    154.4325    213.3173   1.1529029644e+02   9.8764701318e+00    0.2064837    0.1200981 -37.94  0.001120679    2.057    0.514
        94  -9.8485    176.8764    209.6232   1.1009769735e+02   7.0797819692e+00    0.2513587    0.1721754 -28.31  0.001517916    1.611    0.379
        95  -9.8653    160.8223    210.2534   1.1350113895e+02   9.3884551684e+00     0.237395    0.1674925 -20.74  0.001400707    1.633    0.388
        96  -9.2027    200.4271    210.0383   1.0557413073e+02   3.6140612383e+00     0.165764    0.1087139 -26.30  0.000701834    1.585    0.369
        97  -9.8918    192.8927    209.1831   1.0687091016e+02   4.7998336082e+00    0.2443791     0.161578 -24.09  0.001413132    1.580    0.367
        98  -9.1325    186.3449    210.3082   1.0831952346e+02   5.5929174626e+00    0.1924579    0.1198794   4.89   0.00077777    1.723    0.420
        99 -10.3884    205.9873    207.1079   1.0406782715e+02   3.2136625644e+00    0.2939046    0.1717149 -20.42  0.001310011    1.759    0.432
       100  -8.8630    171.3054    207.3260   1.1088135516e+02   8.2493382697e+00    0.1300604   0.08581744   5.00 0.0004699848    1.647    0.393
       101  -9.6559    120.2371    207.0162   1.2200617649e+02   1.6074487770e+01    0.1489256    0.1131845 -55.23 0.0007279101    1.629    0.386
       102  -9.3142    156.3911    205.8194   1.1378961333e+02   1.0754454750e+01    0.1693197    0.1153848 -26.30  0.000950823    1.724    0.420
       103 -10.1830    149.8644    206.1492   1.1524903244e+02   1.1705424277e+01    0.1815135    0.1378926   9.51  0.001077396    1.317    0.241
       104  -9.0491    126.3194    206.3328   1.2052723484e+02   1.5279194181e+01    0.1301414   0.09477057   2.05 0.0004699069    1.696    0.410
       105  -9.8020     86.4883    206.0065   1.2979009537e+02   2.1118735247e+01    0.1668354    0.1002371 -36.87 0.0008104588    2.568    0.611
       106 -10.1883    139.7275    204.4325   1.1724102051e+02   1.3554240255e+01    0.2126707    0.1519011 -17.32   0.00117799    1.772    0.436
       107 -10.2680    198.0196    202.7995   1.0486021021e+02   4.9231734167e+00    0.2832879     0.184496 -18.86  0.001291393    1.558    0.358
       108  -9.6381    186.8470    202.3929   1.0696439700e+02   6.6308262033e+00    0.2333348    0.1698356 -18.05  0.001062691    1.402    0.287
       109  -9.1547    179.1699    202.8573   1.0857650830e+02   7.7209396908e+00    0.1808356    0.1297438   5.89 0.0007864154    1.334    0.251
       110  -9.3550    173.1466    202.8857   1.0981243085e+02   8.6347344892e+00     0.180745    0.1324018   5.38 0.0007913297    1.326    0.246
       111 -10.5665    210.4691    200.1741   1.0209898090e+02   3.4811287662e+00    0.2971106     0.225651 -17.81  0.001651786    1.289    0.224
       112  -9.8090     98.5053    201.9926   1.2649965221e+02   2.0208493286e+01    0.1695458    0.1043398 -32.81 0.0008100562    2.496    0.599
       113  -8.8750    192.5581    201.5167   1.0570108243e+02   5.9031410515e+00    0.1263631    0.1003164  14.14 0.0003436428    1.027    0.026
       114  -9.8630    164.9507    201.2008   1.1126143371e+02   1.0159251446e+01    0.2241306    0.1319557  12.01  0.001082248    2.038    0.509
       115  -9.0029    144.3063    201.3515   1.1577639757e+02   1.3364334696e+01    0.1337209   0.09417641   1.27 0.0007042288    1.710    0.415
       116 -10.2485    131.9400    201.0439   1.1852928385e+02   1.5348851125e+01    0.2158547    0.1524679   3.14  0.001146321    1.762    0.432
       117  -9.2441     80.6813    199.6639   1.3055408133e+02   2.3159051960e+01    0.1227881   0.09930436 -11.09 0.0007049108    1.702    0.412
       118  -9.8854    215.2940    197.1576   1.0071319759e+02   3.1887236714e+00    0.2573735    0.1455449 -27.56   0.00100135    1.742    0.426
       119 -10.0073    202.2581    196.5263   1.0300799533e+02   5.1579163325e+00    0.2782283    0.1930106 -11.61  0.001178544    1.384    0.278
       120  -9.5024    149.3935    197.7284   1.1410271745e+02   1.3174678250e+01    0.1714278    0.1213312 -29.05 0.0009503402    1.650    0.394
       121  -9.2939    176.2883    196.9473   1.0821004207e+02   9.0497572526e+00    0.1820158    0.1521279  -0.49 0.0007604198    1.141    0.123
       122  -9.1034    170.3902    196.7512   1.0940590520e+02   1.0004774948e+01    0.1738269    0.1152759 -24.21 0.0009064851    1.690    0.408
       123  -9.8172    124.7533    197.2404   1.1966877205e+02   1.7155041385e+01    0.2198247   0.09986994  25.23 0.0008838409    2.431    0.589
       124  -9.6569    184.3216    195.4174   1.0631943852e+02   8.0311381081e+00    0.2857185    0.1695554  -9.41  0.001409421    2.161    0.537
       125  -9.5452    140.6695    196.6504   1.1590306226e+02   1.4748496820e+01    0.1378442   0.09661535   1.48 0.0007048392    1.768    0.434
       126  -9.7254    209.3827    193.6225   1.0118129411e+02   4.5050679722e+00    0.2455359    0.1593807  -9.00 0.0008808695    1.512    0.338
       127  -9.3836    194.2814    193.7189   1.0405923271e+02   6.7482992656e+00    0.2012372    0.1478871 -28.62  0.000986615    1.441    0.306
       128 -10.0117     89.0114    197.2277   1.2826687154e+02   2.2499058401e+01    0.2265165    0.1298548 -26.18 0.0008988135    3.689    0.729
       129  -9.0102    146.3249    192.3163   1.1395788353e+02   1.4598059940e+01    0.1373933   0.09695566   4.27 0.0004091634    1.669    0.401
       130 -10.1328    215.2040    189.4332   9.9388171364e+01   4.2152830501e+00    0.4125631    0.1690872 -28.97  0.001597228    2.527    0.604
       131  -9.6868    218.0764    182.5969   9.7648394902e+01   4.7085456596e+00    0.3036148    0.1514152 -21.38  0.001254681    2.136    0.532
       132  -9.5900    199.0647    190.2812   1.0254030383e+02   6.5094429235e+00    0.2217248    0.1551898 -12.16   0.00131029    1.391    0.281
       133  -9.6394     96.3396    191.3247   1.2577928253e+02   2.2634756868e+01    0.1319366    0.1025865  -5.50 0.0007051213    1.726    0.421
       134  -9.1616    205.3540    189.8696   1.0127554932e+02   5.6146242247e+00    0.1752803    0.1028239 -20.63 0.0008454783    1.753    0.430
       135  -9.0531    185.4092    189.7915   1.0514356721e+02   8.7040198534e+00     0.175278    0.1124718 -20.64 0.0009406767    1.680    0.405
       136  -9.2810    172.2975    189.9674   1.0788102178e+02   1.0772669687e+01    0.1866978    0.1574726  -0.90 0.0008626258    1.138    0.121
       137  -9.5107    210.1440    188.3510   1.0011825160e+02   5.1071445563e+00    0.2146129    0.1469555 -14.54  0.000850532    1.372    0.271
       138  -9.3158    178.9631    189.0411   1.0633085370e+02   9.8457181792e+00    0.2135577     0.142472   2.05   0.00103312    1.669    0.401
       139  -9.4818    220.2805    187.1816   9.8082815722e+01   3.7757105597e+00    0.2020934    0.1322535 -20.41 0.0008056298    1.413    0.292
       140  -9.2824    193.4668    187.0355   1.0305730066e+02   7.8464309780e+00    0.1793898   0.09916846 -12.03 0.0008084971    2.444    0.591
       141  -9.3376    128.6909    186.6322   1.1720044252e+02   1.8511617753e+01      0.13976    0.1025033  -3.99 0.0007036595    1.759    0.431
       142  -9.1638    166.5221    184.9827   1.0826639271e+02   1.2530866952e+01    0.1923119    0.1075957 -17.90 0.0008101002    2.682    0.627
       143 -10.4812    225.3474    172.3348   9.4472043286e+01   5.0065018333e+00    0.4325423    0.2295994 -19.90  0.001971541    1.900    0.474
       144 -10.1603    223.8208    183.1130   9.6730868627e+01   3.7971729750e+00    0.2888044    0.1600998 -24.45  0.001086063    1.704    0.413
       145  -9.7108    225.5249    179.0009   9.5684691278e+01   4.0901716398e+00    0.2262814    0.1456034  -9.95 0.0007433875    1.454    0.312
       146  -9.4611    104.3106    184.3282   1.2288482799e+02   2.2860001317e+01    0.1341783    0.1053129  -6.48 0.0005418229    1.664    0.399
       147  -9.9001    203.5642    182.4173   1.0028187137e+02   6.9402658245e+00     0.256934    0.1914273  -1.88  0.001186819    1.212    0.175
       148  -9.6637    183.8186    182.1364   1.0411975803e+02   1.0137737129e+01    0.2971199    0.1751186 -21.73  0.001471661    1.949    0.487
       149 -10.0022    211.0756    181.0429   9.8631048367e+01   5.9761969239e+00    0.2997678     0.178578 -16.95  0.001488829    1.721    0.419
       150  -8.9964    197.3876    181.7344   1.0134188836e+02   8.0106886577e+00    0.1743359    0.1112104 -20.99 0.0009403953    1.599    0.375
       151  -9.5626    120.3600    180.3186   1.1827859380e+02   2.1109204953e+01    0.1432119    0.1054887   0.11 0.0007043316    1.764    0.433
       152  -9.5441    191.0102    178.2295   1.0195617933e+02   9.5675002968e+00    0.2436789    0.1561463 -18.29  0.001280564    1.669    0.401
       153  -9.7322     83.5083    179.5086   1.2763930393e+02   2.6992744022e+01     0.138579    0.1196519  45.96 0.0008104799    1.022    0.021
       154  -9.6783    215.4088    174.0360   9.6541841740e+01   6.2898612327e+00    0.3855617    0.1118526 -32.06  0.001418601    3.637    0.725
       155  -9.2299    205.1474    176.1254   9.8823735782e+01   7.6015079533e+00     0.204103    0.1501629   1.44 0.0007410269    1.245    0.197
       156  -9.3549    197.7372    175.6089   1.0014481808e+02   8.8691887637e+00    0.2353677     0.146725 -20.89  0.001237245    1.659    0.397
       157  -9.2807    150.5086    176.4961   1.1038531931e+02   1.6731224334e+01    0.1423433    0.1217954  21.84 0.0002499549    1.032    0.031
       158 -10.5402    101.0022    175.9786   1.2258442357e+02   2.5126979941e+01    0.2060309    0.1770756  44.24  0.001183881    1.020    0.019
       159  -9.0911    210.5035    174.9173   9.7600367508e+01   6.9300452957e+00    0.1865984    0.1150089 -27.51  0.001020346    1.566    0.361
       160 -10.4830     95.8121    183.0199   1.2487744628e+02   2.4430233303e+01    0.2184078    0.1537301 -27.56  0.001078424    2.024    0.506
       161  -8.9511    140.3314    175.3297   1.1258377968e+02   1.8710618362e+01    0.1453966    0.1051369   1.27 0.0007051838    1.718    0.418
       162  -9.8630    219.0381    176.9029   9.6430345270e+01   5.3374568379e+00    0.2922598     0.159103 -23.41  0.001362606    1.794    0.443
       163  -9.6919     77.3279    172.3318   1.2843053735e+02   2.9465293856e+01    0.1347893     0.107203 -19.22 0.0007051556    1.714    0.417
       164  -8.5685    187.6645    171.6675   1.0140333804e+02   1.1152958176e+01    0.1437273   0.09453528   4.45 0.0007052178    1.736    0.424
       165  -9.4474    107.6785    171.6840   1.2020635241e+02   2.4977396758e+01    0.1405912    0.1098619  -5.51 0.0007041549    1.661    0.398
       166  -9.8929     62.5080    171.5019   1.3238571137e+02   3.1641939336e+01    0.1369462    0.1183482  54.55 0.0004612691    1.016    0.016
       167  -9.7432    237.4179    168.4930   9.1729255144e+01   3.7293340637e+00    0.2673809    0.1632783 -17.72  0.001159393    1.461    0.316
       168 -10.2875    218.9642    166.9488   9.4554103335e+01   6.7311725048e+00     0.381847    0.2306584  -6.67  0.001815034    1.835    0.455
       169  -8.9858    212.0022    168.6709   9.6136600447e+01   7.5903085184e+00    0.1843184    0.1474573   9.36 0.0007144805    1.059    0.056
       170  -9.6516    205.2879    168.0265   9.7256258678e+01   8.7732641584e+00    0.2434264    0.1621232  11.25  0.001014998    1.525    0.344
       171  -9.0866    150.6677    167.6665   1.0876279386e+02   1.8344668160e+01    0.1488868    0.1061028   2.01 0.0007052225    1.730    0.422
       172  -9.1799    100.3396    167.3366   1.2150280480e+02   2.7112266445e+01     0.144314    0.1111614 -10.35 0.0007051018    1.757    0.431
       173 -10.0362    229.2170    165.1401   9.2438701374e+01   5.3937470654e+00    0.2556956    0.1433652 -19.02 0.0008566821    1.732    0.423
       174  -9.4722    128.0145    166.2629   1.1405942888e+02   2.2659805598e+01    0.1998578    0.1146928  36.14 0.0008271121    1.550    0.355
       175  -9.8128    191.8806    163.9587   9.9061306108e+01   1.1663656094e+01    0.3236253    0.1801772 -23.68  0.001503228    2.011    0.503
       176  -9.2444    184.8585    164.4396   1.0058206751e+02   1.2810013552e+01    0.2635212    0.1619062  -0.54  0.001171699    2.237    0.553
       177  -9.8536    240.1777    163.2934   9.0292440321e+01   4.0012613986e+00    0.2498751     0.178028  -8.91 0.0009452632    1.179    0.152
       178  -9.7860    233.8186    163.3233   9.1323724689e+01   4.9414126209e+00    0.2391279    0.1694999 -14.29  0.001141866    1.205    0.170
       179  -9.3412    199.6527    163.8505   9.7513255874e+01   1.0348333273e+01    0.2172872    0.1512958 -11.92  0.001174235    1.452    0.311
       180  -8.6226    225.7155    163.6471   9.2740935685e+01   6.1364040940e+00    0.1329233   0.08417559  -0.48 0.0007019726    1.662    0.398
       181 -10.1882    213.0543    162.0074   9.4642876477e+01   8.3902965887e+00    0.3510582    0.2085044 -11.75   0.00168985    1.897    0.473
       182  -9.7628    205.4804    160.7046   9.5779255011e+01   9.8446946840e+00    0.3233567    0.1947572 -15.07  0.001595009    1.842    0.457
       183  -9.6288    221.5497    160.7151   9.2881227771e+01   7.2024426337e+00    0.2324752    0.1561049  -9.35 0.0008477864    1.436    0.304
       184 -11.4156    228.9728    123.0513   8.3736196827e+01   1.1389306970e+01    0.5904317    0.3099421  -7.81  0.002309746    3.168    0.684
       185 -13.0756    232.7467    112.8766   8.0894914403e+01   1.2182782270e+01     1.010758    0.5840008 -23.32  0.005103498    1.632    0.387
       186 -10.5959    230.1575    139.4973   8.7100819234e+01   8.8143233069e+00    0.3758286    0.2049105 -20.35  0.001410169    1.840    0.457
       187 -10.7909    233.2050    128.2426   8.4218851481e+01   9.9015412185e+00      0.49394    0.2595743 -16.84  0.001993528    2.178    0.541
       188 -11.1084    234.6929    133.9169   8.5205899133e+01   8.8460602225e+00    0.4278923    0.3335649  18.84  0.002596336    1.278    0.218
       189  -9.8710    242.0909     91.7237   7.4817787308e+01   1.3440728508e+01    0.3402131    0.2293984  -5.50  0.001070483    1.755    0.430
       190 -10.8686    233.0955    152.7948   8.9362780397e+01   6.4779206779e+00     0.773387    0.2394675 -25.81  0.002588814    4.274    0.766
       191 -11.2378    235.8425    144.2313   8.7182599115e+01   7.2204909587e+00    0.9373805    0.4168079 -15.22  0.003522208    3.568    0.720
       192 -13.1892    242.6411    106.2756   7.8029698842e+01   1.1340763530e+01     1.661825    0.8251841 -15.56  0.007128172    2.613    0.617
       193 -11.0864    240.7549    124.9655   8.2384123620e+01   9.0797600016e+00    0.5804889    0.3374458  -8.33  0.002421937    2.086    0.521
       194 -10.7259    243.7316    138.9155   8.4881381496e+01   6.6905251514e+00    0.4518211    0.2561563 -18.79  0.001666781    1.667    0.400
       195 -10.8156    248.7794    134.5161   8.3238350455e+01   6.4856673958e+00    0.5839342    0.2170397 -36.76  0.002623258    2.391    0.582
       196 -11.8267    246.7197    117.6152   7.9961182224e+01   9.0877862017e+00     0.817417    0.5667402  22.98  0.004788233    1.625    0.385
       197 -10.5339    242.3302    132.7852   8.3813979361e+01   7.7452127540e+00    0.3636461    0.2399401 -14.66  0.001297614    1.403    0.287
       198 -11.5045    248.3410    126.5211   8.1633775239e+01   7.6209239336e+00    0.7490366    0.3191362 -24.46  0.003383678    2.272    0.560
       199 -10.4175    237.9445    157.5392   8.9527408513e+01   5.0898079634e+00    0.3330813    0.2090164  -9.36  0.001372866    1.543    0.352
       200 -11.8148    242.9606    149.8967   8.7227542959e+01   5.3437105632e+00     1.236901    0.5499903 -10.54  0.004199997    4.769    0.790
       201 -10.0157    226.5408    156.2507   9.1139111109e+01   7.0355635346e+00     0.376845    0.1794355 -25.95  0.001403403    2.032    0.508
       202  -9.5297    228.3707    150.8696   8.9747249167e+01   7.4976463404e+00    0.2550971    0.1694065 -17.94  0.001415704    1.365    0.267
       203  -8.9503    176.7098    158.6289   1.0113916170e+02   1.5253614411e+01    0.1478797    0.1023208  -0.72 0.0007023386    1.719    0.418
       204  -9.1369    221.6711    155.8073   9.1880080553e+01   7.8821685872e+00     0.178004     0.106923 -37.31 0.0009359933    1.694    0.410
       205  -9.6309    216.4442    155.2013   9.2671025774e+01   8.8295565603e+00    0.2622682    0.1590016 -14.01   0.00122316    1.755    0.430
       206  -9.5505    197.3548    155.8284   9.6345623229e+01   1.2007425590e+01    0.2752545    0.1848049  -1.46  0.001383588    1.694    0.410
       207  -9.0675    187.6557    155.1150   9.8132562975e+01   1.3859342760e+01    0.2042468    0.1199041 -25.20 0.0008706254    1.846    0.458
       208  -9.4473    113.6709    155.6720   1.1596950230e+02   2.7452962648e+01    0.1500024    0.1154701  -6.51 0.0007051063    1.708    0.414
       209  -9.3528    205.9495    153.5235   9.4234431273e+01   1.0865260023e+01    0.2693557    0.1458979  -2.20  0.001013031    3.293    0.696
       210  -9.7809    221.4526    151.3844   9.1019184186e+01   8.5551491666e+00    0.2876522    0.1766015  -0.53  0.001325094    1.939    0.484
       211  -8.6153    157.6484    151.6736   1.0399513930e+02   2.0094763573e+01    0.1553407    0.1101415   4.22 0.0007047943    1.762    0.433
       212  -8.7930    202.4777    150.4848   9.4256081939e+01   1.1949062202e+01    0.1396314    0.1166774   2.33 4.035249e-05    1.063    0.059
       213  -9.0141    196.6246    149.1703   9.5104083279e+01   1.3210595250e+01    0.1990673     0.120171 -23.14 0.0009438643    1.741    0.426
       214  -9.6911    215.2192    147.8920   9.1382892977e+01   1.0121143920e+01    0.2389986    0.1807242  12.96 0.0008302591    1.264    0.209
       215  -8.8368    191.3175    147.3504   9.5765785960e+01   1.4484479980e+01    0.1489739    0.1015041   2.87 0.0007047623    1.735    0.424
       216 -10.0630    223.7113    145.3315   8.9383884182e+01   9.0558661621e+00    0.3195715    0.2207295   5.18  0.001168568    1.510    0.338
       217  -9.6003    208.2033    144.1402   9.1850923259e+01   1.1923837523e+01    0.2841732    0.1841102   3.21  0.001300295    1.864    0.463
       218  -8.9740    176.5018    145.0273   9.8343011043e+01   1.7693970493e+01    0.2073002    0.1203973 -15.06 0.0008097444    2.546    0.607
       219  -9.1184    218.5734    143.8945   8.9957795600e+01   1.0140964340e+01    0.1903688    0.1033513 -11.18 0.0008045839    2.489    0.598
       220  -9.1296    200.5577    144.2189   9.3292546912e+01   1.3294571543e+01    0.1921609    0.1224067 -20.91 0.0008327229    1.618    0.382
       221  -9.3909    214.1207    141.3629   9.0195863225e+01   1.1299356398e+01     0.237299    0.1652835 -15.92 0.0008102516    1.385    0.278
       222  -8.7518    194.6785    142.6507   9.4088717185e+01   1.4639892882e+01    0.1493096    0.1017454   3.41 0.0007048772    1.743    0.426
       223  -9.4524    139.6519    141.6702   1.0631108967e+02   2.5612001464e+01    0.2418237    0.1815412  -0.70  0.001110851    1.702    0.413
       224  -9.7316    224.4925    139.0186   8.7923415905e+01   9.8422590736e+00    0.2882102    0.1592698 -17.67  0.001061273    1.966    0.491
       225  -9.0460    181.5241    140.5197   9.6289428161e+01   1.7520607272e+01    0.1462739    0.1297974   6.31 0.0005513165    1.037    0.036
       226  -8.7968    166.3578    139.3113   9.9331774935e+01   2.0742138269e+01    0.1568854    0.1115636   7.21 0.0005248751    1.738    0.425
       227  -9.0371    124.3410    139.3324   1.0988442310e+02   2.9117294374e+01    0.1588663    0.1203285  -3.16 0.0004918214    1.750    0.429
       228  -9.7433    218.6193    137.5056   8.8586602244e+01   1.1087903961e+01    0.2994764    0.1859085  -2.38  0.001430315    2.008    0.502
       229  -9.6849    208.9440    136.5884   9.0082531863e+01   1.2970308710e+01     0.265483    0.1779717 -14.24  0.001267957    1.556    0.357
       230  -9.3478    198.9486    136.0120   9.1804144567e+01   1.4929760145e+01    0.2325178    0.1599595   1.68   0.00112898    1.719    0.418
       231  -9.0824    193.0122    135.7585   9.2895024906e+01   1.6109950378e+01    0.2104776    0.1447166 -11.89  0.001016667    1.632    0.387
       232  -9.6009    215.6802    134.6422   8.8468924670e+01   1.2045772712e+01    0.1904956    0.1251822  24.46 0.0009740316    1.631    0.387
       233  -8.9414    163.5025    134.4852   9.8896810058e+01   2.2240413552e+01    0.1530602    0.1370883  10.19 1.564338e-05    1.081    0.075
       234  -9.8009    225.9333    132.4821   8.6283878277e+01   1.0548664928e+01    0.2631417    0.1646191 -13.96  0.001342884    1.669    0.401
       235  -9.2082    179.7810    130.8104   9.4459807134e+01   1.9597713919e+01    0.2528107       0.1538   5.47 0.0009481277    2.789    0.641
       236  -9.9388    205.9253    129.8328   8.9123750884e+01   1.4605358471e+01    0.2211211    0.1743096   4.70  0.000957013    1.283    0.221
       237 -10.7268    221.3005    127.6164   8.5973600123e+01   1.2093054572e+01    0.3369062    0.2007128  -4.75  0.001520774    2.259    0.557
       238  -9.2991    192.8392    127.8734   9.1132571213e+01   1.7479377659e+01    0.2300015    0.1836771   3.88  0.001044154    1.299    0.230
       239  -8.7750    186.6554    127.6872   9.2315507463e+01   1.8755254163e+01    0.1530738     0.108473   8.28 0.0007046734    1.709    0.415
       240  -8.8776    172.6551    127.6674   9.5255008833e+01   2.1639043727e+01    0.1587294    0.1133685   6.60 0.0007050094    1.761    0.432
       241  -9.3815    212.1831    127.8248   8.7561364865e+01   1.3741115867e+01     0.198013    0.1511331   2.23  0.001077479    1.354    0.261
       242  -9.7994    180.3290    122.6441   9.2418753714e+01   2.0954339348e+01    0.3037253    0.2055503   7.84  0.001322278    2.002    0.501
       243  -9.7049    212.8638    121.5959   8.6028185254e+01   1.4584298207e+01    0.2400039    0.1746115 -17.69 0.0009021152    1.327    0.247
       244  -9.0761    188.3944    121.7941   9.0576376976e+01   1.9426500293e+01    0.2080233    0.1324148 -23.33  0.000663591    1.687    0.407
       245  -8.8893    203.4926    120.0218   8.7304110015e+01   1.6662530430e+01    0.2017593    0.1175783 -10.08 0.0008095286    2.469    0.595
       246  -8.8586    194.5042    119.9849   8.8958456253e+01   1.8481233179e+01    0.2061626    0.1215901 -10.76 0.0008098169    2.483    0.597
       247  -8.6857    220.3068    119.3380   8.4275615907e+01   1.3522996549e+01    0.1406708   0.09784047   3.23 0.0007041809    1.678    0.404
       248  -8.7432    174.3617    118.3010   9.2624120661e+01   2.3014659590e+01     0.158372    0.1143565  11.39  0.000614083    1.722    0.419
       249 -12.0384    237.5777    101.0589   7.7536082975e+01   1.2979207017e+01    0.5233838    0.3692292  21.38  0.002900497    1.703    0.413
       250  -9.9834    219.9333    113.8822   8.3083452867e+01   1.4419514607e+01    0.2155764    0.1721185  -2.94  0.001222064    1.260    0.206
       251  -9.5157    223.3115    111.3211   8.1960560242e+01   1.4161452923e+01    0.1961963    0.1081822  26.38 0.0008363047    2.525    0.604
       252  -8.9693    186.2079    113.5805   8.9012433454e+01   2.1319810162e+01    0.2055679    0.1334661  34.74 0.0007959893    1.638    0.389
       253  -9.0481    194.8625    112.2106   8.7011869025e+01   1.9720473271e+01     0.207654     0.165731   6.89  0.001072054    1.368    0.269
       254  -8.9876    213.2892    110.3278   8.3327035468e+01   1.6258816618e+01     0.141105     0.102203   3.35 0.0003406455    1.617    0.381
       255  -9.0910    219.3006    108.3428   8.1891620593e+01   1.5381358455e+01    0.1410779    0.1003041   3.61 0.0004533758    1.675    0.403
       256  -8.9282    183.3256    107.3429   8.8017193736e+01   2.3042677670e+01    0.1570495    0.1143371   8.20 0.0007050928    1.737    0.424
       257  -9.7164    222.5724    103.2625   8.0190675580e+01   1.5506762868e+01    0.1912641    0.1201279 -20.92 0.0008061052    1.590    0.371
       258  -8.9641    213.6871    103.6828   8.1672538265e+01   1.7210452427e+01    0.1418385    0.1034675   7.27 0.0007035583    1.644    0.392
       259  -8.7848    206.1912    103.5944   8.2883308062e+01   1.8763493829e+01    0.1938474    0.1280208  37.16 0.0008003864    1.648    0.393
       260 -10.9818    230.2241    101.9054   7.8751348347e+01   1.4232316855e+01    0.2712826    0.1897317  41.98  0.001290426    1.583    0.368
       261  -8.8063    209.3386     99.3092   8.1306888554e+01   1.8785157827e+01    0.1449378    0.1056503  11.34 0.0007043884    1.685    0.407
       262  -9.6866    225.4617     98.4910   7.8635127867e+01   1.5647553846e+01    0.1362393    0.1187997 -18.86 0.0002500962    1.042    0.041
       263  -8.8083    217.3184     98.3285   7.9808939832e+01   1.7294688563e+01    0.1416203    0.1028684   7.64 0.0007046857    1.683    0.406
       264 -11.0704    235.6426     94.3562   7.6254392792e+01   1.4281331856e+01    0.2883107    0.2198456 -16.98  0.001008386    1.248    0.198
       265 -11.0292    236.9626     89.0832   7.4857124257e+01   1.4767061170e+01    0.2818948    0.2017794  34.52 0.0009327897    1.642    0.391
       266 -11.0073    247.5931     96.2935   7.5165527397e+01   1.1824187104e+01    0.6096697    0.2195594  53.98  0.002621473    3.232    0.691
       267  -8.6829    183.6858     94.6691   8.4639039077e+01   2.5177595491e+01    0.1548642    0.1159269  10.71 0.0007045183    1.679    0.404
       268  -9.0143    207.3034     93.3630   8.0153024107e+01   2.0146750771e+01    0.1474053     0.107195   6.72  0.000703705    1.731    0.422
       269  -9.8849    247.7690     91.2068   7.4004458089e+01   1.2475685044e+01    0.2408483     0.196561  26.78 0.0007662913    1.412    0.292
       270  -8.8192    188.6882     91.6562   8.2900456691e+01   2.4545971071e+01    0.1538927     0.114479  10.24 0.0007046199    1.704    0.413
       271  -9.8523    231.4340     89.6697   7.5715865658e+01   1.5752004721e+01     0.215767    0.1520615  28.91  0.000756562    1.717    0.418
       272  -9.8137    249.1567     86.9105   7.2874312080e+01   1.2797861400e+01    0.3474248    0.1938318  -7.90  0.001565523    2.611    0.617
       273 -10.2342    244.6616     86.7069   7.3357655080e+01   1.3646343047e+01    0.3845229    0.1726791  50.24  0.001813045    2.543    0.607
       274 -10.2928    246.9829     83.5151   7.2357788201e+01   1.3644914949e+01     0.404884    0.2172504  35.24  0.001929055    2.598    0.615
       275  -8.9953    226.4837     86.5224   7.5628549916e+01   1.7183560775e+01    0.1355669    0.1195516 -24.17 0.0001827011    1.039    0.037
       276 -11.2249    244.0155     81.1322   7.2155966262e+01   1.4514665163e+01    0.4622951    0.2788086  27.72  0.002272333    2.410    0.585
       277  -9.2061    230.8040     81.4157   7.3830490536e+01   1.7039961611e+01    0.1758159    0.1206837  41.50 0.0007308261    1.689    0.408
       278  -9.2097    250.1010     79.4915   7.1093845250e+01   1.3602429966e+01    0.1601659    0.1269806  57.25  0.001004959    1.513    0.339
       279  -8.8463    225.5425     80.4844   7.4287160928e+01   1.8238493379e+01    0.1357243    0.1199323 -27.66 0.0001298105    1.034    0.033
       280  -8.6870    215.6641     78.6691   7.5178399783e+01   2.0579261939e+01    0.1420732    0.1051682  13.63 0.0007052132    1.732    0.423
       281  -9.3698    243.6195     75.2787   7.0848838221e+01   1.5368332374e+01    0.2215099    0.1493344 -21.33 0.0008382948    1.420    0.296
       282  -8.9562    239.4569     75.4852   7.1370294986e+01   1.6143659526e+01    0.1306213    0.1120172 -28.06 0.0008083616    1.052    0.050
       283 -10.1741    248.7617     72.2169   6.9584838282e+01   1.4796096723e+01    0.3505602    0.2253659  11.42  0.001748354    2.419    0.587
       284 -10.4247    236.0130     71.0000   7.0704231898e+01   1.7425424445e+01    0.2742433    0.1407666  67.38 0.0009025933    2.426    0.588
       285  -9.3820    243.8764     70.3756   6.9682021096e+01   1.5963896221e+01    0.1646911    0.1149868  45.74 0.0007912398    1.708    0.415
       286  -9.0361    247.3593     68.2828   6.8829482663e+01   1.5568328906e+01     0.122013   0.09361667  14.94 0.0005391724    1.673    0.402
       287  -9.2057    248.8530     64.1508   6.7728336166e+01   1.5811699320e+01    0.1633932    0.1420306   2.78 0.0008010225    1.336    0.251
       288  -8.6434    250.6482     54.7119   6.5395423653e+01   1.6645819516e+01    0.1177773   0.09296865  16.42 0.0005110381    1.668    0.400
