#   1 NUMBER                 Running object number                                     
#   2 MAG_AUTO               Kron-like elliptical aperture magnitude                    [mag]
#   3 X_IMAGE                Object position along x                                    [pixel]
#   4 Y_IMAGE                Object position along y                                    [pixel]
#   5 X_WORLD                Barycenter position along world x axis                     [deg]
#   6 Y_WORLD                Barycenter position along world y axis                     [deg]
#   7 A_WORLD                Profile RMS along major axis (world units)                 [deg]
#   8 B_WORLD                Profile RMS along minor axis (world units)                 [deg]
#   9 THETA_WORLD            Position angle (CCW/world-x)                               [deg]
#  10 FWHM_WORLD             FWHM assuming a gaussian core                              [deg]
#  11 ELONGATION             A_IMAGE/B_IMAGE                                           
#  12 ELLIPTICITY            1 - B_IMAGE/A_IMAGE                                       
         1 -17.0715    142.0186     83.4446   7.6787571089e+01   3.7295003401e+01     5.236078     3.813441  33.40   0.02370066    1.552    0.356
         2 -19.4121    174.6458    145.6660   8.5616483357e+01   1.7732143286e+01      8.48139     6.424792 -27.68   0.04333688    1.396    0.284
         3 -11.8866    238.6419     16.1075   4.1512569014e+01   2.3224559196e+01    0.3640434    0.2226173 -50.88  0.001322324    1.456    0.313
         4 -10.2874    196.4406      9.2490   4.3404578567e+01   3.4323332980e+01    0.2044439    0.1164064 -38.53 0.0009509957    1.643    0.391
         5 -10.5472    124.9435      8.3898   5.3113123750e+01   5.3078486575e+01    0.2216104    0.1881154 -34.26  0.000504571    1.243    0.195
         6  -9.7148    156.3960      7.7902   4.7697273659e+01   4.4984796857e+01    0.1851967    0.1363503   1.03 0.0002640803    1.548    0.354
         7 -10.4918     26.6882      6.9842   8.6160608993e+01   7.2449273050e+01    0.1684427    0.1285051 -25.45  0.000406395    1.063    0.060
         8 -11.5985    211.9210      4.7758   4.0689072867e+01   3.0842551579e+01    0.3686611    0.2355812  51.47  0.000984889    1.730    0.422
         9 -10.3291    178.5881      5.8462   4.4249195858e+01   3.9307186108e+01    0.2070545    0.1157102 -38.23 0.0007932785    1.734    0.423
        10 -10.3775    159.5210      5.8692   4.6588679407e+01   4.4338269527e+01    0.2013359    0.1404661 -19.99 0.0005221326    1.505    0.336
        11  -9.9341    130.4348      6.4968   5.1315412336e+01   5.1865321517e+01    0.1405132    0.1308607  37.35 6.318105e-05    1.019    0.018
        12 -11.5182    248.2908      4.0097   3.7827928949e+01   2.2314183440e+01    0.3576755    0.2007365 -85.99  0.001490734    1.869    0.465
        13 -11.4519    237.8856      4.6262   3.8669809369e+01   2.4614042978e+01    0.2362637    0.1713638  11.77  0.001028985    1.930    0.482
        14 -10.7966    107.6590      4.4082   5.4949993513e+01   5.7696514008e+01     0.264905    0.2105177  28.04 0.0005516108    1.192    0.161
        15 -10.1368      7.7806      4.7714   9.6147460268e+01   7.4673362832e+01    0.1735331    0.1250739   6.02  0.001205086    1.483    0.326
        16 -11.0177    206.5072      1.7824   4.0305532473e+01   3.2485846276e+01    0.2509646    0.1783116  79.64 0.0007172072    1.362    0.266
        17  -9.7584    142.2500      2.2144   4.7691355729e+01   4.9196041210e+01    0.2465873    0.1390513 -59.45  0.001048043    2.243    0.554
        18 -10.4804     39.7383      2.3497   7.6616048390e+01   7.1392295600e+01    0.1946082    0.1446628  45.04  0.001212091    1.716    0.417
        19 -10.0119    116.7424      1.3868   5.1710312770e+01   5.5754480912e+01    0.2006113    0.1123631  52.72  0.000616829    1.602    0.376
        20 -16.4244    208.1640    179.1262   8.5967872601e+01   5.7300139740e+00     1.905821     1.416452   5.38  0.007878596    1.385    0.278
        21  -9.4983    234.3300    250.6541   9.3306083559e+01  -6.8225868546e+00   0.09164999   0.07830478  44.94 0.0007050068    1.757    0.431
        22 -11.2361    218.4656    249.2704   9.5627296752e+01  -4.5359464855e+00    0.2537849    0.1917136  45.87  0.001316811    1.610    0.379
        23 -12.5248    193.1876    248.7933   9.9692595066e+01  -9.0388323360e-01    0.3570603    0.1881654  35.26  0.002228191    1.452    0.311
        24 -10.7556    135.2927    250.4891   1.0967765172e+02   7.3379110498e+00    0.2673309   0.09104545  46.22  0.001319903    2.296    0.564
        25 -11.2485    125.5678    248.7466   1.1116469111e+02   8.9772697930e+00    0.2201276    0.1775845 -60.35  0.001018996    1.595    0.373
        26 -11.2020    121.6705    244.4904   1.1141588005e+02   1.0144514786e+01     0.237287    0.1631958  49.51 0.0006420273    1.124    0.111
        27 -16.1244    142.2671    143.8472   9.2297810297e+01   2.4663090425e+01     1.968401     1.128971 -33.06  0.008196467    2.217    0.549
        28 -16.5049    212.0559    122.6782   7.2988052034e+01   1.3918278282e+01     2.732411     1.173844  51.08   0.01061342    2.494    0.599
        29 -16.8472    195.3492    166.0547   8.5788486186e+01   1.0098297464e+01     3.297101     1.388365  29.20   0.01119956    3.678    0.728
        30 -16.5215    199.3292    152.3671   8.2173493182e+01   1.1576407470e+01      1.88985      1.28818  24.02  0.009404469    1.593    0.372
        31 -10.8103    155.2476    245.4479   1.0570445060e+02   5.0849994566e+00     0.212858   0.08734134  37.87 0.0008886023    1.960    0.490
        32 -11.2321     59.4184    216.2255   1.2008755680e+02   2.3305854511e+01    0.3152592     0.214161  36.93  0.002102263    1.590    0.371
        33 -10.4197     57.5041    233.7577   1.2167896066e+02   2.0457866780e+01    0.1780982    0.1160793  36.80 0.0005346166    1.641    0.390
        34 -10.7678    236.1950    213.5458   8.7292283974e+01  -3.2719221729e+00    0.2959709    0.1275069  33.54  0.001478966    2.011    0.503
        35 -12.0301     96.5585    213.0215   1.1278729726e+02   1.8878884407e+01     0.368955    0.3100879  27.17  0.001766613    1.491    0.329
        36 -11.2832     13.4618    216.3118   1.2829800664e+02   2.8358268923e+01    0.1863531    0.1386911  71.18 0.0002816262    1.103    0.093
        37 -16.6062    206.8162    133.3770   7.6491487049e+01   1.3233161978e+01     2.594383     1.275536  52.04  0.008946992    2.246    0.555
        38 -10.4066    105.0934    212.0562   1.1103949619e+02   1.7792616962e+01    0.2003958    0.1517093  75.65 0.0003909795    1.319    0.242
        39 -11.8865    106.2926    205.1735   1.1001573536e+02   1.8843967202e+01    0.5309236    0.3615279  -4.88  0.002382611    3.816    0.738
        40 -10.5421      2.9681    211.6802   1.2990296807e+02   3.0185007283e+01    0.1439519    0.0986486  66.08 0.0005100696    1.073    0.068
        41 -10.5035     73.8230    218.2660   1.1758513386e+02   2.1092132980e+01    0.1913007    0.1316804  81.66 0.0007365589    1.370    0.270
        42 -10.0090     44.1935    209.1576   1.2239403693e+02   2.6440896189e+01    0.1537543     0.129721  75.27 0.0004680473    1.198    0.166
        43 -10.7327     11.3803    208.3448   1.2830172597e+02   3.0028807887e+01    0.1331319    0.1137145 -68.62 0.0007582649    1.614    0.380
        44 -10.4206    240.8080    206.8491   8.5400722147e+01  -3.1998016851e+00    0.3097033    0.1168849  28.54  0.001343562    2.947    0.661
        45 -11.4943     97.4842    230.7335   1.1436993550e+02   1.5719709018e+01    0.2512405    0.1970929  51.16  0.001441343    1.089    0.081
        46 -11.0010     69.2571    203.3400   1.1713354330e+02   2.4461629190e+01    0.2092796    0.1703399  73.34 0.0005454234    1.056    0.053
        47 -11.8372     11.6179    202.0271   1.2796370799e+02   3.1203562779e+01    0.4074421     0.147379  76.53  0.002061288    2.641    0.621
        48 -10.5808     45.5770    201.5010   1.2158269769e+02   2.7749454870e+01     0.232585    0.1587387  71.98   0.00157665    1.172    0.147
        49 -11.8132    190.3702    230.7258   9.7718606062e+01   1.6460316272e+00    0.4263899    0.1560025  38.50  0.002052843    2.213    0.548
        50 -13.2613    123.6601    215.2590   1.0784832825e+02   1.4405190259e+01    0.5014353    0.3986001  80.79  0.001426163    1.388    0.280
        51 -12.0609    199.7147    220.2720   9.4550971146e+01   1.5068930977e+00    0.5903077    0.2363691  32.86  0.002760148    2.354    0.575
        52 -10.7068     46.8766    195.2799   1.2085160748e+02   2.8823980738e+01     0.200478    0.1427691 -75.53  0.000712016    1.379    0.275
        53 -10.5413     69.4729    194.9179   1.1629106301e+02   2.6076097859e+01    0.2361258    0.1611614  46.69 0.0008503404    1.332    0.249
        54 -13.2811    203.2920    225.4987   9.4725351192e+01   3.0538433341e-01    0.4907905     0.285277  29.94 0.0005863644    1.453    0.312
        55 -11.4165     90.5565    187.4403   1.1110494960e+02   2.4606783473e+01    0.5637771     0.292594 -89.02  0.002444293    2.938    0.660
        56 -10.3597     92.4464    183.5467   1.1021960887e+02   2.5109793279e+01     0.201399    0.1950927  83.74 0.0004779182    1.230    0.187
        57 -11.2485     53.0111    191.9200   1.1934729232e+02   2.8767943531e+01    0.1855525    0.1453754 -88.39  0.001276156    1.167    0.143
        58  -9.6701     55.5177    188.5596   1.1853830846e+02   2.9144193559e+01    0.1218239   0.09436448  71.77 8.870126e-05    1.032    0.031
        59 -11.6749    106.2224    190.4000   1.0819327350e+02   2.1626912543e+01    0.3680816    0.1815083  46.48  0.001207346    1.783    0.439
        60 -12.1490    196.5604    227.0349   9.6114045643e+01   1.1519465508e+00    0.4123322    0.2177986  45.60   0.00134282    1.776    0.437
        61 -10.6527     81.1820    187.8911   1.1313111151e+02   2.5876893749e+01    0.2669368    0.1608419  43.22   0.00121884    1.526    0.345
        62 -11.0019     96.9325    186.0390   1.0958141309e+02   2.3926578653e+01    0.2522124    0.1512863  79.40  0.001236547    2.131    0.531
        63 -10.8839     66.6906    185.0532   1.1587203577e+02   2.8440710213e+01    0.1961448    0.1593285  51.98 0.0002044754    1.206    0.171
        64 -10.1773    245.2195    233.7954   8.9105660615e+01  -6.6733151455e+00    0.1534166    0.1166322  16.55 0.0004581257    1.093    0.085
        65  -9.4059     63.2712    182.3174   1.1631339501e+02   2.9454864420e+01    0.1085162   0.09241779 -49.33  0.000215855    1.561    0.359
        66 -10.9271     25.0105    181.9719   1.2424436743e+02   3.3908945427e+01    0.1707536    0.1284917  77.29  0.001212458    1.008    0.008
        67 -10.5782     84.8849    180.4966   1.1146579095e+02   2.6857271686e+01    0.1890677    0.1142169  43.05  0.001017804    1.545    0.353
        68 -10.7871     51.3920    180.0155   1.1861046323e+02   3.1419801690e+01    0.2075188    0.1585004  51.70   0.00031654    1.251    0.201
        69 -12.5210     94.7195    177.1071   1.0888322120e+02   2.6085035351e+01    0.8161129     0.337757 -68.75  0.003238152    2.952    0.661
        70 -12.0843     89.5098    173.9943   1.0961435360e+02   2.7530186083e+01    0.3754115    0.3370028  -6.81  0.002331977    1.585    0.369
        71 -12.1026    100.2830    171.5864   1.0687461332e+02   2.6364639717e+01    0.4179085    0.3000776  62.57 0.0004270087    1.346    0.257
        72 -11.6924     98.6903    167.3150   1.0660310529e+02   2.7522076686e+01    0.4015672    0.2196285  47.82  0.001757835    1.711    0.416
        73 -10.1568     13.3859    177.7478   1.2632267018e+02   3.5893163389e+01    0.1557288   0.08261273 -72.17  0.000744178    1.686    0.407
        74 -10.0503    248.3512    177.3785   7.8755586532e+01  -8.3634640353e-01    0.1895647    0.1210375   8.20 0.0009417786    1.585    0.369
        75  -9.6223     42.3110    177.3072   1.2029316886e+02   3.3050289686e+01    0.1068816   0.08806149 -51.67 0.0002899959    1.618    0.382
        76 -10.5028     68.8700    174.9799   1.1430642665e+02   3.0266301656e+01    0.1831447    0.1531268  78.64            0    1.018    0.017
        77  -9.7946     19.6864    175.3043   1.2488153339e+02   3.5820941636e+01    0.1220543   0.06431083  66.83 0.0002627139    1.618    0.382
        78 -11.6106     78.9780    170.5872   1.1152324217e+02   2.9806281411e+01    0.4672107    0.2508845  78.32  0.001600001    2.532    0.605
        79 -10.6363     55.2461    171.0373   1.1688406671e+02   3.2871558848e+01    0.3231293    0.1431084 -69.00 0.0008408555    2.077    0.518
        80 -11.9538    201.1959    232.9034   9.6173054594e+01  -2.6117639436e-01    0.2150279    0.1843958  21.69 0.0003607095    1.145    0.127
        81 -10.8387      2.8045    168.2614   1.2793448783e+02   3.8787122226e+01    0.1917235     0.111666  83.48 0.0003070158    1.309    0.236
        82 -12.1676     85.6172    159.1524   1.0841955694e+02   3.1331653070e+01    0.7401232    0.5090174   5.39  0.003381679    2.855    0.650
        83 -10.8223     92.8598    160.2479   1.0688101218e+02   2.9974571556e+01    0.3175497    0.1798691 -56.20 0.0009092292    1.776    0.437
        84 -11.4783     91.6191    165.7137   1.0798274314e+02   2.8976983334e+01    0.2719454    0.2281302  73.23 0.0005284111    1.081    0.075
        85 -12.4363     86.7804    165.3086   1.0903654600e+02   2.9803300999e+01    0.6261907    0.3379166  30.69 0.0003401029    2.268    0.559
        86 -10.8625     65.9389    165.4077   1.1383902786e+02   3.2736042916e+01    0.2781322    0.2220728 -88.63  0.001002096    1.102    0.092
        87 -11.0844     42.3762    161.9549   1.1884695137e+02   3.6381193685e+01    0.6014091    0.1842334 -82.28   0.00191893    4.975    0.799
        88 -11.1360     16.6959    161.1589   1.2452964699e+02   3.9134494938e+01    0.1904715    0.1291609  58.73  0.000549113    1.318    0.241
        89 -12.0326     77.0898    158.5472   1.1034808365e+02   3.2721972335e+01    0.3922222    0.2908153  28.77  0.001744498    1.653    0.395
        90 -10.1037     56.9412    158.1544   1.1505709744e+02   3.5512658912e+01    0.1910983    0.1434106  76.78 0.0003645411    1.183    0.154
        91 -10.0264     62.7205    157.0440   1.1355508926e+02   3.5026692828e+01    0.1737432     0.143969 -87.26 0.0002006982    1.057    0.054
        92 -11.6685     13.9208    150.7245   1.2437219910e+02   4.1683314775e+01    0.4340788    0.1642498 -80.78  0.002100135    2.199    0.545
        93 -10.2198     83.5555    153.5280   1.0806883950e+02   3.2900763072e+01    0.2484822    0.1903743 -80.61 0.0006716078    1.242    0.195
        94 -11.7615     80.8291    149.5254   1.0811824002e+02   3.4216472100e+01    0.4614463    0.2197112 -55.39  0.001447896    2.046    0.511
        95 -10.3933     71.7207    153.0334   1.1086040502e+02   3.4725284501e+01    0.2047701    0.1389079 -41.82 0.0006977434    1.940    0.485
        96 -12.1365     73.0309    146.9734   1.0965805210e+02   3.5931170910e+01    0.4754635    0.2863002  78.74 0.0003336928    2.001    0.500
        97 -12.7079     73.2518    140.8578   1.0865912058e+02   3.7320343219e+01    0.5490619    0.3485302  82.00 0.0003749713    1.833    0.454
        98 -11.3082     54.4718    147.6064   1.1435001512e+02   3.8227316119e+01    0.3507114    0.1699844 -56.62  0.001686334    2.012    0.503
        99 -10.3377    132.4943    230.1237   1.0795781405e+02   1.0675883362e+01    0.1771067    0.1270017  44.74 0.0004578384    1.113    0.102
       100 -10.7710     79.0879    144.4140   1.0774639141e+02   3.5648685064e+01    0.2446684    0.1791605 -78.68 0.0003179834    1.305    0.234
       101 -10.3964     59.9440    140.6302   1.1202954416e+02   3.9169268634e+01    0.1793933    0.1569071  76.63 0.0004642757    1.085    0.078
       102 -10.4758     36.4590    141.0526   1.1804007690e+02   4.1783505434e+01    0.1775966     0.145407  87.45 0.0003705798    1.028    0.027
       103  -9.9819     23.5011    138.5018   1.2100849039e+02   4.3630159577e+01    0.2221946   0.09677083 -87.95  0.001023488    2.237    0.553
       104  -9.8872     55.7001    135.9282   1.1245006587e+02   4.0810555617e+01    0.1849814    0.1427843 -77.66 0.0002674575    1.120    0.107
       105  -9.5321     47.3048    133.3191   1.1428556758e+02   4.2425060194e+01    0.1267595   0.09169088 -45.87  0.000437427    1.631    0.387
       106 -11.8995     78.1952    131.7975   1.0584736622e+02   3.8732430859e+01    0.2596527    0.2268488  87.83 0.0002326433    1.058    0.055
       107 -12.2307     78.0371    126.9322   1.0500467820e+02   3.9909258942e+01    0.5766892    0.3789984   3.80  0.002419707    3.033    0.670
       108 -11.5526     68.4357    131.0804   1.0832471856e+02   4.0300419324e+01    0.2657527    0.2114955  52.31 0.0004635867    1.291    0.225
       109 -11.4023     63.3565    128.1014   1.0919702884e+02   4.1696399814e+01    0.3805375    0.2052843 -57.49  0.001073256    1.684    0.406
       110  -9.9046     20.5475    129.4691   1.2084227267e+02   4.5993714954e+01     0.124266    0.0970251 -85.40 -4.539217e-05    1.013    0.013
       111  -9.5851     19.4983    123.4936   1.2048118462e+02   4.7486685215e+01    0.1249255   0.09788679 -82.57 0.0008105504    1.023    0.023
       112 -11.2307     68.8715    120.9927   1.0642895707e+02   4.2652725681e+01    0.5563018    0.2458088  59.42  0.001945914    3.623    0.724
       113 -10.0319     29.9609    121.7325   1.1742432524e+02   4.6985330420e+01    0.1676736    0.1431035  89.22 0.0002116451    1.085    0.078
       114  -9.4799     78.6618    118.7315   1.0324569567e+02   4.1770284496e+01    0.1345906    0.1095091 -25.11 0.0002004225    1.598    0.374
       115 -13.1049     95.6632    110.1763   9.6583242492e+01   4.1021935454e+01     1.018903    0.3604457 -43.73  0.003323868    3.190    0.687
       116 -11.1608     93.4303    105.5539   9.6107933063e+01   4.2492926713e+01    0.2151639    0.1757742 -26.06 6.222948e-05    1.464    0.317
       117 -12.3599     87.7497    114.5943   9.9819244340e+01   4.1321483670e+01    0.3520716     0.279606 -27.56  0.001812326    1.580    0.367
       118 -12.9950     90.1627    109.8124   9.8056401829e+01   4.2051202155e+01    0.8833122    0.4276794 -66.64  0.003272036    2.609    0.617
       119  -9.7112    249.5106    116.5179   6.5457468266e+01   7.2855574861e+00    0.2133694    0.1191907 -19.99 0.0006360594    1.781    0.438
       120  -9.9780    250.1862    113.5378   6.4659925832e+01   7.5863493589e+00    0.2123939     0.170621   4.24  0.000320448    1.266    0.210
       121 -11.5473      6.0259    114.7951   1.2324145770e+02   5.0535730459e+01    0.2156242    0.1379495 -81.59 0.0005180581    1.199    0.166
       122 -10.0460    236.9959    114.0292   6.6746977798e+01   1.0117045158e+01    0.2601716     0.191936  48.37 0.0008772223    1.500    0.333
       123  -9.9694     17.6146    114.1724   1.1994111603e+02   4.9845531634e+01    0.1773398   0.08817237 -64.83 0.0002704552    1.610    0.379
       124 -11.0963     73.2400    110.4930   1.0310242838e+02   4.4553206901e+01    0.2684715    0.1837415 -59.76  0.001367132    1.309    0.236
       125 -10.9703     32.9796    110.8849   1.1506894087e+02   4.9304799895e+01    0.2411778    0.1530729 -71.73  0.001160623    1.292    0.226
       126 -10.5844     23.5888    108.5930   1.1750810916e+02   5.0694589096e+01     0.202623    0.1514752  34.82 0.0007396673    1.596    0.374
       127 -10.8212     84.8497    107.7103   9.9100001736e+01   4.3426344058e+01    0.2620181    0.2187499 -46.44 0.0004943208    1.198    0.165
       128 -10.7943    128.0540    229.7665   1.0872404841e+02   1.1403527257e+01    0.1817357    0.1698355 -54.14 0.0004374506    1.352    0.261
       129 -11.8477     70.4675    104.6308   1.0266529013e+02   4.6364070105e+01    0.2511251    0.1897988 -83.08 0.0007050022    1.398    0.285
       130 -10.1731      1.8480    103.8667   1.2332506772e+02   5.3358736189e+01    0.1603109    0.1161714  75.88 0.0006896807    1.298    0.229
       131 -11.3884     84.8675     99.8986   9.7227700840e+01   4.5270178105e+01    0.3187568    0.1954371 -58.66  0.000658018    1.536    0.349
       132 -12.6952     72.6779     96.7076   1.0016718528e+02   4.7935853447e+01     0.576912    0.3647576 -73.25  0.002322401    1.789    0.441
       133 -16.0807    187.6132    210.9603   9.5258583274e+01   4.6816889027e+00     3.660491     1.274333  35.15   0.01511634    2.802    0.643
       134 -12.0215    103.3344     94.9769   9.0508674592e+01   4.3126725046e+01    0.3875638    0.2723959 -67.09 0.0009000385    1.626    0.385
       135 -12.0893     99.1955     91.7723   9.0822144451e+01   4.4632526135e+01    0.3471566    0.3274985 -35.05 0.0008075244    1.083    0.077
       136 -12.7303     92.9800     93.5363   9.3150385132e+01   4.5362936162e+01    0.5340356    0.3154641 -50.99  0.001283274    1.563    0.360
       137 -11.1075     46.2024     93.1514   1.0782692844e+02   5.2232604164e+01    0.3763671    0.1680713 -52.41   0.00085311    1.924    0.480
       138 -11.1946     66.8338     90.1419   1.0041447935e+02   5.0343602203e+01    0.3591892    0.1979868 -50.78  0.001018977    1.603    0.376
       139 -12.6703     89.1695     88.1773   9.2828786077e+01   4.7263441207e+01      0.64216    0.4468155 -13.40  0.002190555    2.220    0.550
       140 -10.1507     92.5425     83.4731   9.0437580895e+01   4.7727272754e+01    0.2147801    0.1931714  22.88 3.366804e-05    1.242    0.195
       141 -12.5216    240.0756     85.8805   5.9332831967e+01   1.3701733114e+01    0.3282381    0.2733055 -38.82 0.0004265226    1.111    0.100
       142 -10.9599    239.2957     81.6768   5.8372358803e+01   1.4488030830e+01    0.2508154    0.1948222 -56.36 0.0004898419    1.401    0.286
       143 -12.2008     78.9887     83.0973   9.4603252175e+01   5.0141801261e+01     0.474921    0.3361279 -61.65  0.002362379    1.402    0.287
       144 -11.0727    126.5068    226.5057   1.0863728921e+02   1.2144895332e+01    0.2428525    0.1594149  38.00  0.001325232    1.344    0.256
       145  -9.7237     11.5363     84.4982   1.1782100319e+02   5.7339535485e+01    0.1256122   0.09633012 -69.66 0.0001687997    1.019    0.019
       146 -11.1447     72.0142     82.2543   9.6645181460e+01   5.1430500476e+01    0.3781415     0.229633   5.65  0.001447775    3.304    0.697
       147 -10.5271    247.8597     78.0683   5.6345768466e+01   1.3177548857e+01    0.2230054    0.1990298  12.71 0.0006868938    1.239    0.193
       148 -10.3580    231.0911     74.8144   5.7712789185e+01   1.7314016108e+01    0.2151744    0.1943439 -26.75 0.0008300161    1.036    0.035
       149 -10.0355    225.5930     72.7739   5.7933540227e+01   1.8871675066e+01    0.2055047    0.1219813 -39.77 0.0003955736    1.522    0.343
       150 -10.4335    222.1013     70.5107   5.7816304010e+01   2.0020596092e+01    0.2266725    0.1863509  74.62 0.0004194345    1.378    0.274
       151 -10.5757    223.8468     67.1509   5.6663741877e+01   2.0110312232e+01    0.2660171     0.207475  19.36 0.0002832007    1.560    0.359
       152 -10.6926    236.0204     71.9917   5.6316009069e+01   1.6620535134e+01    0.2125341    0.1892971 -31.20 0.0003187168    1.017    0.017
       153 -11.8043     93.4269     71.4405   8.6416512417e+01   5.0195357891e+01     0.275827    0.2504362 -46.92 0.0002496373    1.049    0.046
       154 -11.2502     24.0633     71.4344   1.1094916242e+02   5.9521349081e+01    0.2322156    0.1611708 -60.65 0.0003165337    1.139    0.122
       155 -10.5057      6.5069     71.4070   1.1747453083e+02   6.0716818627e+01    0.2862928    0.1491865  76.11  0.001054369    2.584    0.613
       156 -10.9371     53.0073     70.1391   9.9843929835e+01   5.6856449741e+01    0.2090837    0.1775213 -46.20 0.0004807584    1.050    0.048
       157 -16.2624    145.3999    190.6403   1.0015588623e+02   1.5063293318e+01     3.280017     1.838102  63.66     0.014393    2.637    0.621
       158 -10.1718    235.7418     68.3353   5.5400289419e+01   1.7209511156e+01     0.248834    0.1386463  66.73  0.001109889    2.118    0.528
       159 -10.0631     43.6433     67.7558   1.0265717665e+02   5.8509619041e+01    0.2653546    0.1030008 -55.04  0.001113843    2.073    0.518
       160  -9.9697    244.3645     66.7220   5.3914060882e+01   1.5527933875e+01    0.2257748    0.1880236 -79.80 0.0006527752    1.385    0.278
       161 -10.7783    241.1111     63.3493   5.3441584929e+01   1.6714375758e+01    0.3272724    0.1798468 -40.62 0.0006242721    1.595    0.373
       162 -10.1673    215.3520     66.8735   5.7785759487e+01   2.2163989823e+01    0.2494978    0.1999739  84.86 0.0006703185    1.445    0.308
       163 -11.4137     97.6791     58.4708   8.0592253671e+01   5.2015878331e+01    0.4639962    0.1861719 -46.77  0.001651711    2.531    0.605
       164 -11.6994     98.9114     65.4134   8.2677466891e+01   5.0386513192e+01    0.4213339     0.307432 -47.34 0.0008489793    1.320    0.243
       165 -11.2246     94.7770     66.3627   8.4290689354e+01   5.1002920657e+01    0.2474538    0.2338523  27.11 0.0005816933    1.129    0.115
       166 -10.7526     29.8686     63.2513   1.0677575730e+02   6.0924272399e+01    0.2266471    0.1496732 -68.03 0.0006172542    1.387    0.279
       167 -11.0548    129.9489     61.9530   7.2758419911e+01   4.4248135561e+01    0.2257704    0.2205468 -13.94 0.0003488746    1.018    0.018
       168  -9.5908     47.3405     62.6522   9.9778639201e+01   5.9242173930e+01     0.133575    0.1019056  85.67 0.0007045919    1.791    0.442
       169 -10.4094    107.3623    230.5505   1.1256630796e+02   1.4341600045e+01    0.3169059    0.1037121  33.70  0.001213118    3.956    0.747
       170 -12.4906    137.6920     58.5480   6.9671085506e+01   4.2992022596e+01    0.5124852       0.3486  35.01 0.0004374297    1.656    0.396
       171 -10.3322      9.8618     59.8693   1.1398504715e+02   6.3188185541e+01    0.1939433    0.1297648 -51.47 0.0004568518    1.228    0.185
       172 -10.8768    105.6736     59.0228   7.8367992804e+01   5.0257526672e+01    0.2205382     0.185178 -37.04 0.0006086553    1.125    0.111
       173 -11.0255     90.8058     56.1609   8.1926500387e+01   5.3821237414e+01    0.3398546    0.2222504 -17.65  0.001236645    1.955    0.488
       174 -10.6493     93.1088     52.1932   7.9691105562e+01   5.4132732932e+01    0.2602824     0.189807 -27.16 0.0006175263    1.353    0.261
       175 -10.1645     27.6301     56.7699   1.0594887511e+02   6.2592359472e+01    0.1767946    0.1053568 -67.71 0.0002986006    1.594    0.373
       176  -9.5651      1.4697     57.5660   1.1692088748e+02   6.4162134420e+01    0.1204221   0.09111153 -63.80 0.0001139384    1.009    0.009
       177  -9.6373    241.0899     56.1786   5.1595010839e+01   1.7705360102e+01    0.1987203    0.1421936 -49.38 0.0006731081    1.315    0.239
       178 -10.1826    114.2884     56.3438   7.4915827300e+01   4.8882260531e+01    0.2456317    0.1881714 -15.16 0.0007132678    1.439    0.305
       179 -10.6464    110.9891     55.0036   7.5350955981e+01   4.9860063388e+01    0.2663567    0.2230573  60.12 0.0003196092    1.337    0.252
       180 -11.1121    210.5638     54.4277   5.4962858219e+01   2.5155939746e+01    0.2860993    0.2481456  83.50 0.0009421213    1.236    0.191
       181 -13.2709    201.2601     51.9933   5.5578035555e+01   2.7827084374e+01    0.4307154    0.3244748  48.68 0.0007682362    1.421    0.296
       182 -11.7023    206.3702     50.2109   5.4330974243e+01   2.6796759496e+01     0.369978    0.2269975 -39.10 0.0009248967    1.498    0.332
       183 -11.5430    249.3370     52.9619   4.9868177673e+01   1.6312166637e+01    0.2876894    0.2075279 -27.08 0.0003437128    1.267    0.211
       184 -16.3187    230.7909    168.1992   7.9830056193e+01   3.3084936100e+00     2.376607     1.691702  10.45   0.01356429    1.389    0.280
       185 -12.1889    124.7833     51.4132   7.0294808639e+01   4.7333075218e+01    0.4979358    0.3431157 -12.32  0.002196441    1.744    0.426
       186 -12.1786    184.2907     50.8116   5.7835104939e+01   3.2338250365e+01    0.3536937    0.2865785 -81.87 0.0003042712    1.382    0.277
       187 -10.5547     81.9965    230.2571   1.1711102139e+02   1.7924590693e+01    0.1606723    0.1144119  53.42 0.0003839046    1.097    0.089
       188 -10.7482     69.5049    230.1380   1.1932513393e+02   1.9578937939e+01    0.1930427    0.1306618  44.98 0.0003291986    1.311    0.237
       189 -11.5716    230.5931    220.1603   8.9298301708e+01  -3.1848043366e+00    0.3080147    0.1986921  36.10  0.001316382    1.375    0.273
       190 -10.2511     58.0632     52.5522   9.2285748800e+01   6.0040943608e+01    0.1851795    0.1358535  31.69 0.0003553223    1.546    0.353
       191 -17.0023    129.6367    155.1931   9.7461306641e+01   2.4733839866e+01     4.476445     2.104088  52.19   0.01787944    2.294    0.564
       192 -11.8743    119.3776     50.0935   7.1210253866e+01   4.8827669954e+01    0.5813625     0.295534 -57.41  0.001911432    3.381    0.704
       193 -11.1800     30.3185     49.8756   1.0278846070e+02   6.3875287422e+01    0.2613451    0.2017391 -80.08 0.0008128991    1.563    0.360
       194 -12.9798    147.5348     46.4592   6.3203000799e+01   4.2511011113e+01    0.5849683    0.4828898  19.86  0.001713574    1.345    0.256
       195 -11.2812    241.3423     47.9674   4.9447378540e+01   1.8745026026e+01     0.448889    0.2833571  86.62  0.001995532    1.958    0.489
       196 -11.0611    114.4770     47.5620   7.1566582668e+01   5.0388119453e+01     0.262696    0.2504568  -9.35 0.0006022822    1.009    0.009
       197 -11.5806     95.6658     48.1091   7.7296922733e+01   5.4371583783e+01    0.3664868     0.210517  50.88 0.0009431005    1.921    0.479
       198 -10.8469    160.5443     44.9616   6.0089630516e+01   3.9378713536e+01    0.3048303    0.2607884   1.69   0.00085526    1.284    0.221
       199 -11.8393    155.8013     43.2529   6.0406815132e+01   4.0862519527e+01    0.4221396    0.3490114 -24.50 0.0006172971    1.213    0.176
       200 -12.2140     88.5786     43.8646   7.7875499640e+01   5.6552944289e+01    0.5002136    0.3069219  23.54  0.001623408    2.146    0.534
       201 -10.6859    173.6891     44.8968   5.7713756658e+01   3.5956333245e+01    0.3017285    0.1956188  44.46  0.001027974    1.647    0.393
       202 -11.5055    129.8852     44.3831   6.6408566979e+01   4.7255463562e+01    0.3339098    0.2693926  42.38 0.0004916651    1.253    0.202
       203 -11.8178    119.1631     43.4633   6.8733112823e+01   4.9977660098e+01    0.4884174    0.2630233 -13.80  0.001659867    2.720    0.632
       204 -12.1165    124.1681     40.8217   6.6439968598e+01   4.9199806145e+01    0.5495067    0.2656923 -40.24  0.002160284    2.064    0.516
       205 -12.6842    191.7212     43.0063   5.4267519057e+01   3.1528301151e+01    0.5888672    0.3128224 -31.73  0.001298909    1.771    0.435
       206 -10.8187    186.3174     43.9260   5.5362371215e+01   3.2800686928e+01     0.259486    0.2041715  88.07  0.000639093    1.397    0.284
       207 -12.4033     18.1779     43.0135   1.0606439252e+02   6.6389381110e+01    0.2766748    0.1899858 -52.01 0.0004371991    1.129    0.114
       208 -12.1947    175.5527     40.0183   5.5811975675e+01   3.6153481358e+01    0.6466691     0.431502  49.15  0.002972885    1.542    0.352
       209 -10.5769    115.0049     41.9880   6.9251611478e+01   5.1185628736e+01    0.2309366     0.219876  -7.52 0.0007736813    1.010    0.010
       210 -10.1997     41.0881     41.3374   9.5144250846e+01   6.4544130095e+01    0.2180145    0.1454639 -39.88 0.0005682267    1.255    0.203
       211 -12.6779    240.4728    226.6191   8.8732193713e+01  -5.2977799985e+00    0.2918485    0.2055686  31.56 0.0001223228    1.272    0.214
       212 -12.6334    134.3316     37.0499   6.2606579378e+01   4.7257612436e+01    0.6087382    0.3110632 -36.35 0.0003848081    1.904    0.475
       213  -9.8775     36.1456     49.1730   1.0006465625e+02   6.3449954015e+01    0.1616173    0.1434738 -71.26 0.0002980798    1.282    0.220
       214 -10.7262    165.3393     38.5654   5.7043260856e+01   3.9035763219e+01    0.3701114     0.302439 -84.16  0.001142625    1.361    0.265
       215 -10.4355     11.9752     39.9774   1.0803890919e+02   6.7479037162e+01    0.1837476     0.140045 -52.45  0.000340058    1.025    0.024
       216 -11.4498    155.3603     37.0609   5.8320744756e+01   4.1857547352e+01    0.4405978    0.2659825  44.37 0.0005905307    1.731    0.422
       217 -11.2479     63.9655     40.9541   8.5505623812e+01   6.1465286725e+01    0.4592723    0.1784393  48.58  0.001683979    3.625    0.724
       218  -9.4910      8.4620     34.5028   1.0806677492e+02   6.8866470999e+01    0.1206855   0.09266943 -51.21 0.0001810908    1.031    0.030
       219 -11.0211    199.9374     32.6429   5.0007332289e+01   3.0773930026e+01    0.2801144    0.1997282 -38.45 0.0007071818    1.314    0.239
       220  -9.9868    188.0110     33.0405   5.1708530904e+01   3.3811362987e+01    0.2291832    0.1586429 -57.39 0.0003719232    1.523    0.343
       221  -9.6455    103.0136     33.0210   6.8891374416e+01   5.5302413745e+01    0.1724629    0.1606011   4.16 0.0003295786    1.016    0.016
       222 -10.4997     99.5380     31.5559   6.9268374406e+01   5.6288647974e+01    0.2014093    0.1759645 -68.38 0.0005155175    1.444    0.307
       223 -13.9975    244.4136    220.3964   8.7100521221e+01  -5.2046325374e+00    0.3486204    0.2738722  12.11  0.001237159    1.089    0.082
       224 -11.9763    214.3765     31.4659   4.7947638825e+01   2.7271738163e+01    0.3263872    0.2546669  73.32 0.0003572741    1.326    0.246
       225 -10.3699    220.5027     30.5105   4.7012593157e+01   2.5878231049e+01    0.2372647    0.1381839  72.18  0.000763605    1.809    0.447
       226 -12.0285    216.2591     25.0863   4.5950346636e+01   2.7571955539e+01    0.5356938    0.2168946 -41.99  0.002149632    2.191    0.544
       227 -10.6015    194.0226     31.4708   5.0412909572e+01   3.2445516747e+01    0.2530311    0.2011185  -8.16 0.0006568544    1.415    0.293
       228 -10.0415    194.9667     28.2269   4.9302246512e+01   3.2600120226e+01    0.2301086    0.1891216 -66.08  0.001164291    1.218    0.179
       229 -11.4888    165.8362     31.1633   5.4438778933e+01   3.9886442943e+01    0.3272579    0.2707094  44.91 0.0004788488    1.240    0.194
       230 -11.2673    125.7227     29.0276   6.1416540540e+01   5.0514924470e+01    0.4085236    0.1859016 -18.62  0.001483252    2.627    0.619
       231 -10.4931    203.0135     28.7129   4.8463625861e+01   3.0471924719e+01    0.2030713    0.1865076 -85.90 0.0005500262    1.079    0.073
       232 -12.7003    237.6759    221.9505   8.8433721863e+01  -4.4096587482e+00    0.2710131    0.2130577  33.85 0.0004543865    1.362    0.266
       233 -10.1097    106.0163     27.4903   6.5682738271e+01   5.5422704370e+01    0.3156454    0.2133721 -62.22  0.001407496    2.175    0.540
       234 -11.1735    141.8543     25.7131   5.6735045320e+01   4.6853877622e+01    0.3755665    0.2136182 -22.83 0.0008919133    1.810    0.447
       235 -11.1117    209.5925     25.2403   4.6703299314e+01   2.9218771991e+01    0.2938791    0.2104997  60.84 0.0006780562    1.444    0.307
       236 -10.7812     32.3902     24.9218   9.2370900632e+01   6.8726437737e+01    0.2306963    0.2032226  41.15  0.001028905    1.521    0.343
       237 -11.8445    201.9059     22.6977   4.6815860987e+01   3.1466617484e+01    0.4014465    0.2899199  -5.99  0.001995112    1.648    0.393
       238 -11.2033    149.4255     23.2360   5.4414779418e+01   4.5182529394e+01    0.2516975     0.239798  55.17 0.0003123246    1.029    0.029
       239 -11.8342    149.6265    227.9738   1.0458809706e+02   8.3562068884e+00    0.2824824    0.1459677  42.41  0.001382515    1.553    0.356
       240 -10.5532    222.8754     21.7913   4.4383719314e+01   2.6329685747e+01    0.1950151    0.1849045  32.67 0.0004615104    1.228    0.186
       241 -10.9102    174.5875     22.1087   5.0065754329e+01   3.8667428113e+01    0.2728449     0.209452  72.12 0.0005397525    1.292    0.226
       242 -10.4596     48.9620     21.0747   8.2718136207e+01   6.7259357609e+01    0.2143498    0.1398901  -8.96  0.001132153    1.723    0.420
       243 -10.4639    219.5708    226.0432   9.2053401099e+01  -2.2155241002e+00     0.190039    0.1181321  33.31 0.0009130044    1.304    0.233
       244 -10.2910    185.5448    242.9624   1.0021386707e+02   8.8669431574e-01    0.1559366     0.141816 -37.98  0.000662249    1.471    0.320
       245 -10.7741    215.9783    222.1113   9.2044237761e+01  -1.2246575130e+00     0.207275    0.1477257   2.09 0.0009931312    1.390    0.281
       246  -9.6198     12.3879     16.7901   9.9291953921e+01   7.2142332002e+01    0.1784413    0.0803479 -43.98 0.0009495858    1.668    0.401
       247 -10.9705    108.1840    219.6134   1.1127972614e+02   1.6026067453e+01    0.1860773    0.1649564 -71.76 0.0005152504    1.321    0.243
       248 -10.3853     49.6565     15.0915   7.9315264286e+01   6.8098891577e+01    0.2151017     0.182504  53.12 0.0009409889    1.651    0.394
       249 -10.4058    205.1340    217.8853   9.3237918973e+01   9.5752625976e-01    0.1672014    0.1421793  33.41  0.000376304    1.205    0.170
       250 -12.2237    125.4606    205.3172   1.0624917491e+02   1.5817548102e+01    0.5076666    0.2315477  47.34  0.001181113    1.901    0.474
       251 -10.3877    188.9809     13.1594   4.5388360068e+01   3.5857971227e+01    0.2072463    0.1959295  88.73 0.0003541672    1.038    0.037
       252  -9.2483     76.6707     11.7334   6.7058146397e+01   6.3768817305e+01    0.1379775   0.09167492  20.09 0.0002678608    1.576    0.366
       253 -10.3183     22.7058     11.6814   9.0960967676e+01   7.2120079596e+01    0.1247482   0.07485202 -21.66 0.0002623974    1.607    0.378
       254 -12.1474    182.7748    237.9252   1.0002074165e+02   1.9106726964e+00    0.3729142    0.2032974  35.67 0.0008632646    1.458    0.314
       255 -10.4839    189.9484    241.4808   9.9272084954e+01   4.0874427951e-01    0.1721702    0.1337654  14.51 0.0004541265    1.239    0.193
       256 -11.9347    193.5555    237.3652   9.8100992087e+01   3.5741093656e-01    0.3232198    0.2397976 -10.70  0.001699303    1.551    0.355
       257 -11.4419    113.4998    240.6965   1.1246978811e+02   1.1878607084e+01    0.3246247    0.1641893  36.49  0.001273796    1.798    0.444
       258 -12.2465    125.9310    236.2859   1.0982165942e+02   1.0731648613e+01    0.3518392    0.2494104 -72.47  0.002091174    1.795    0.443
       259 -12.7672    232.1520    236.5495   9.1597493741e+01  -5.1518826209e+00    0.3397979    0.2143812   6.58  0.002266252    1.534    0.348
       260 -11.1498    103.5503    237.0424   1.1387546280e+02   1.3854558508e+01    0.3078287    0.1810335  63.31   0.00165304    1.673    0.402
       261 -12.1452    128.1205    210.9707   1.0645975995e+02   1.4423505471e+01    0.3933407    0.2369011  51.84  0.001984693    1.481    0.325
       262 -10.5748     68.3467    236.4736   1.1999579399e+02   1.8661985232e+01    0.2533474    0.1236783  42.47  0.001510872    1.673    0.402
       263 -11.5878    118.4453    234.9134   1.1101414742e+02   1.2042536781e+01    0.2432381    0.1889886  72.48 0.0008993469    1.335    0.251
       264 -10.2200     42.8903    235.8509   1.2429176661e+02   2.1818336541e+01    0.1428701     0.118397  71.05 0.0005222175    1.246    0.198
       265 -10.5478     33.3826    235.7193   1.2586712163e+02   2.2895778268e+01    0.1904975    0.1092109  64.41    0.0005762    1.283    0.221
       266 -12.6259    165.0056    231.4771   1.0227548295e+02   5.4689330115e+00    0.3200626    0.2822857 -38.48  0.001565955    1.412    0.292
       267 -11.0137    176.3978    244.3744   1.0194966436e+02   2.0747742177e+00    0.2050568     0.186159  48.64  0.001151212    1.302    0.232
       268 -15.9024    236.3359    141.4725   7.3218259592e+01   6.1382941402e+00     1.918936     1.195153  34.48  0.009208747    1.652    0.395
       269 -15.9245    190.4472    101.3943   7.1528516448e+01   2.2406889565e+01     3.131558     1.818596  84.16  0.009285286    4.654    0.785
