#   1 NUMBER                 Running object number                                     
#   2 MAG_AUTO               Kron-like elliptical aperture magnitude                    [mag]
#   3 X_IMAGE                Object position along x                                    [pixel]
#   4 Y_IMAGE                Object position along y                                    [pixel]
#   5 X_WORLD                Barycenter position along world x axis                     [deg]
#   6 Y_WORLD                Barycenter position along world y axis                     [deg]
#   7 A_WORLD                Profile RMS along major axis (world units)                 [deg]
#   8 B_WORLD                Profile RMS along minor axis (world units)                 [deg]
#   9 THETA_WORLD            Position angle (CCW/world-x)                               [deg]
#  10 FWHM_WORLD             FWHM assuming a gaussian core                              [deg]
#  11 ELONGATION             A_IMAGE/B_IMAGE                                           
#  12 ELLIPTICITY            1 - B_IMAGE/A_IMAGE                                       
         1 -15.3206     14.7487    161.2474   1.4086465563e+02   3.9356062847e+01      9.54428     3.189249  64.57   0.04581878    3.135    0.681
         2 -11.8545      2.1818     42.1360   1.3167822896e+02   6.5791148340e+01     1.010385    0.1082494 -69.97   0.00263498    7.446    0.866
         3 -13.1647      3.5045     12.6737   1.2322911174e+02   7.1982398924e+01     1.962397    0.4677312 -54.96  0.008786132    2.519    0.603
         4 -13.8336    205.6162     12.0282   6.1542457737e+01   3.1751177063e+01     1.798626     1.164699  32.23  0.008499794    1.730    0.422
         5 -13.2079    192.0932     30.2581   6.9055266731e+01   3.3335772610e+01      1.30814     1.233215  17.66  0.007057596    1.038    0.036
         6  -9.7668     24.5046    237.5543   1.4280364909e+02   2.5497253433e+01    0.2085313    0.1242417  86.05  0.001593423    1.498    0.332
         7 -11.6097    140.1457    249.4545   1.2545932947e+02   1.0341941096e+01    0.3088162    0.1915474  59.11  0.002199153    1.709    0.415
         8 -11.8040     99.6012    248.0111   1.3178035472e+02   1.5792897142e+01      0.32988     0.271085  35.24  0.002859009    1.386    0.278
         9 -10.6035     46.2430    248.6234   1.4002661532e+02   2.1778621904e+01    0.2751555    0.1049552  66.88  0.001285227    2.602    0.616
        10 -10.5344     37.7834    249.5923   1.4131987735e+02   2.2497911738e+01    0.1974698    0.1062865  50.22 0.0008528648    1.293    0.227
        11 -11.2769     30.9717    250.0000   1.4232924762e+02   2.3106495485e+01     0.405264   0.07851632  39.17  0.002176267    3.370    0.703
        12 -11.6960     35.0892    244.7666   1.4151485126e+02   2.3441335108e+01    0.3840358    0.3580405  15.91  0.003745133    1.855    0.461
        13 -12.3282     11.5040    240.4177   1.4481772865e+02   2.6259050166e+01    0.6420059    0.3127052  61.97  0.004640707    1.416    0.294
        14 -11.9518      5.4567    227.2758   1.4530577054e+02   2.8729632410e+01    0.4841035    0.3532467 -69.55  0.004079211    1.786    0.440
        15 -11.6374      3.8577    248.8917   1.4614119024e+02   2.5715091542e+01    0.5204002    0.2467796  44.17   0.00428912    1.595    0.373
        16 -10.9908      1.6443    240.7945   1.4624286646e+02   2.7049370500e+01    0.4654365    0.1318018 -82.58   0.00291384    3.289    0.696
        17 -11.2168    106.6610    246.9968   1.3058378467e+02   1.5039825932e+01    0.2349296    0.1130238  42.38 0.0009332979    1.532    0.347
        18  -9.3221     50.5940    245.1618   1.3920562158e+02   2.1810856550e+01    0.1101176   0.07807212 -69.60 0.0009467577    1.771    0.435
        19 -11.4687    124.7491    250.0579   1.2796345577e+02   1.2319456862e+01    0.4499287   0.09138279  41.11  0.001965402    3.481    0.713
        20 -10.2301     82.8055    243.7937   1.3413236112e+02   1.8397853234e+01    0.1398977   0.08573251  60.22  0.001043384    1.331    0.249
        21 -11.6274    119.9129    238.1724   1.2768961687e+02   1.4467946497e+01    0.3123946    0.1793039 -83.30   0.00189755    2.980    0.664
        22 -10.0651    163.3147    249.0361   1.2172498067e+02   7.2158607203e+00    0.1453589    0.1116019  38.44  0.001176612    1.072    0.068
        23 -14.1427      8.8187    204.4606   1.4400037303e+02   3.2074304439e+01     2.043326    0.7817588  87.19   0.01012496    2.352    0.575
        24 -11.5252    246.8864    248.9031   1.0880222967e+02  -4.2353782341e+00     0.380154    0.1692871  39.83  0.002449347    1.780    0.438
        25  -8.3449     92.7322    214.7304   1.3021089623e+02   2.1409700343e+01   0.08876343   0.07922315  23.85 0.0001987892    1.470    0.320
        26  -8.8050    152.6871    212.9708   1.1935085004e+02   1.3164120071e+01    0.1451852     0.126032  41.09 0.0003165339    1.099    0.090
        27 -14.1546     46.5701    221.8557   1.3860793514e+02   2.5690434451e+01     1.153083    0.9114461  13.88  0.007023124    2.146    0.534
        28 -10.4187    195.0109    198.9880   1.0987203114e+02   8.2892603440e+00    0.3053242    0.1618077 -52.89  0.001453501    3.536    0.717
        29 -11.3812     65.5340    196.6870   1.3358787651e+02   2.7725654863e+01    0.2780343    0.2024553 -46.86  0.001332407    1.976    0.494
        30 -11.5239     70.9822    189.1403   1.3191301083e+02   2.8394819243e+01    0.2191968    0.1949801 -75.65 0.0004657611    1.298    0.230
        31 -10.7805     80.3994    176.6860   1.2882185898e+02   2.9468798281e+01     0.203261    0.1830544  80.47 0.0004061458    1.120    0.107
        32 -13.0216     67.4834    174.5871   1.3122961284e+02   3.1472417293e+01    0.3886901    0.2410228 -46.69  0.001552629    2.196    0.545
        33  -9.0332     68.4508    234.8963   1.3583494682e+02   2.1326440961e+01    0.1817031    0.1195933  28.53  0.001322115    1.941    0.485
        34 -11.7858     87.4549    167.3985   1.2629227900e+02   3.0272355296e+01    0.6044155     0.438904  57.92  0.003872077    1.248    0.199
        35  -9.6601     99.8105    151.4126   1.2141548258e+02   3.1606719267e+01    0.2643301    0.2206417  26.04   0.00104114    1.387    0.279
        36  -9.0888    102.5703    147.2571   1.2014644427e+02   3.2012000335e+01    0.2331416    0.1629757 -29.86  0.001224755    2.056    0.514
        37 -11.9094     88.4137    150.7539   1.2389371310e+02   3.3389992337e+01     0.232616    0.2224866 -39.41 0.0005770901    1.267    0.210
        38 -12.4743     67.4267    144.0087   1.2780640191e+02   3.7532855146e+01    0.6945131     0.428344  69.73  0.003866847    1.765    0.433
        39 -11.8233     58.8160    134.4498   1.2862075250e+02   4.0570508933e+01    0.9129776        0.326 -79.54  0.002961766    5.119    0.805
        40  -8.4886    192.3554    144.1932   1.0033558809e+02   1.6348770956e+01    0.1723283    0.1255645 -41.19 0.0004010883    1.552    0.356
        41  -9.6086    110.5757    136.8885   1.1653312784e+02   3.2822479900e+01    0.3182976    0.2186639 -26.73  0.001268058    2.097    0.523
        42 -10.3424    109.8073    225.3815   1.2821125496e+02   1.7574707282e+01    0.2559367    0.1068256  42.55  0.001466921    1.838    0.456
        43 -10.3207     98.1677    133.9686   1.1897871603e+02   3.5384975321e+01    0.2197058     0.198955 -32.39 0.0004787199    1.287    0.223
        44 -10.8242     50.3714    129.8565   1.3010199940e+02   4.2493735763e+01    0.2206353    0.1754235  61.60 0.0006988776    1.217    0.178
        45 -12.5220     40.0538    230.7039   1.4011850395e+02   2.5003372916e+01    0.2492552    0.2037895 -85.58  0.000737446    1.415    0.293
        46  -9.4528    107.6177    123.6548   1.1474961782e+02   3.6019945309e+01    0.1980864    0.1876328 -19.44 0.0005335691    1.179    0.152
        47 -10.8146    150.4772    229.7296   1.2172614270e+02   1.1301354963e+01    0.2413246    0.1094802  32.66  0.001306866    2.142    0.533
        48 -10.4767    168.0632    113.0269   9.8155305454e+01   2.6448614567e+01    0.3207499    0.2784788 -83.64 0.0008366895    1.514    0.339
        49  -8.8879    203.4651    111.4993   9.0668122660e+01   1.9067559026e+01    0.1487267    0.1293939   8.47 8.092779e-05    1.054    0.052
        50 -10.9065     81.6057    248.7672   1.3465053887e+02   1.7864708989e+01    0.2364445    0.1257689  50.09  0.001619075    1.342    0.255
        51 -11.1820     23.2108    246.4071   1.4332069140e+02   2.4344133954e+01    0.3720263    0.1454215  63.88  0.002290699    1.977    0.494
        52 -10.2492     21.4987    239.4851   1.4332301102e+02   2.5494682899e+01     0.161348   0.07365479 -82.86  0.001124563    2.129    0.530
