#   1 NUMBER                 Running object number                                     
#   2 MAG_AUTO               Kron-like elliptical aperture magnitude                    [mag]
#   3 X_IMAGE                Object position along x                                    [pixel]
#   4 Y_IMAGE                Object position along y                                    [pixel]
#   5 X_WORLD                Barycenter position along world x axis                     [deg]
#   6 Y_WORLD                Barycenter position along world y axis                     [deg]
#   7 A_WORLD                Profile RMS along major axis (world units)                 [deg]
#   8 B_WORLD                Profile RMS along minor axis (world units)                 [deg]
#   9 THETA_WORLD            Position angle (CCW/world-x)                               [deg]
#  10 FWHM_WORLD             FWHM assuming a gaussian core                              [deg]
#  11 ELONGATION             A_IMAGE/B_IMAGE                                           
#  12 ELLIPTICITY            1 - B_IMAGE/A_IMAGE                                       
         1 -13.2282     31.7745    134.6396   1.2238197702e+02   4.3856657119e+01     2.469756     1.479623  79.27   0.01262524    2.226    0.551
         2 -15.0004    244.4648     90.9220   6.3342768046e+01   1.3123791077e+01     4.877667     1.054213 -40.52   0.01453486    4.290    0.767
         3 -12.7895    146.3607     61.0402   7.3669459457e+01   4.0580213162e+01    0.7089893    0.5266595   2.06  0.003517877    1.835    0.455
         4 -12.2905     47.0925     50.7287   9.9105370477e+01   5.9415652540e+01    0.6071552    0.3694171  48.37  0.003283504    2.634    0.620
         5 -11.2678     83.0259     29.5346   8.0323677220e+01   5.7465135526e+01    0.2362894     0.191487   4.60  0.001436853    1.108    0.097
         6 -11.9541     15.9944     23.4425   1.0196251535e+02   6.6502313062e+01    0.5898585    0.3830239 -56.37  0.003816815    2.400    0.583
         7 -11.9776     50.1650     26.1919   8.9919634361e+01   6.2669613510e+01    0.3021027    0.2621752 -12.28  0.002272073    1.251    0.201
         8 -11.0380     19.3814     10.6185   9.6004862566e+01   6.7925320571e+01    0.2149508    0.1416098  -9.90   0.00152783    1.186    0.157
         9 -11.7454     33.5394      7.0168   8.8962460615e+01   6.6935745941e+01    0.3665296    0.1234522 -31.60  0.001898383    2.766    0.638
        10 -12.2474     49.9612      4.1969   8.1804319663e+01   6.5225511148e+01    0.3830598    0.2288639 -14.91  0.002550377    1.569    0.363
        11 -13.0676     60.6623    166.4169   1.2006267101e+02   3.3298469717e+01      2.57836     1.678083  44.68   0.01401399    1.634    0.388
        12 -13.7389    230.5227    247.3409   9.7036702174e+01  -1.1917440731e+01     1.246451    0.8482991   1.04  0.007231579    1.625    0.385
        13 -11.9564    242.1196    249.1140   9.5204876551e+01  -1.3888219090e+01     0.394973    0.2364739  16.31  0.002211077    1.755    0.430
        14 -14.5168    128.7501    243.5583   1.1619686000e+02   5.7946531677e+00     1.975174     1.479026  87.28   0.01153377    1.490    0.329
        15  -9.5318     37.4336    251.0000   1.3353800636e+02   1.7846232597e+01    0.2086834   0.05565556  39.49 0.0008965052    3.632    0.725
        16 -11.3284     26.9298    246.9007   1.3495553158e+02   1.9879112762e+01    0.4392789     0.209152 -70.17  0.002638791    1.901    0.474
        17 -10.1548      1.6930    250.4574   1.3909770968e+02   2.1922052175e+01    0.1605106   0.07972091  68.02  0.001049964    1.566    0.362
        18 -13.2528     77.9931    186.7618   1.1903308289e+02   2.6154613328e+01     1.625624    0.8272536  36.43  0.007505946    2.155    0.536
        19 -13.5485    112.4668    182.0810   1.1045490809e+02   2.1683658957e+01     1.551136     1.009364 -40.60  0.007024776    1.869    0.465
        20 -13.1502     94.8528    177.7927   1.1382460112e+02   2.5655900706e+01     1.281143     0.920314  58.42  0.005052005    1.408    0.290
        21 -14.0680     31.7931    169.9737   1.2708437567e+02   3.5772751812e+01     3.187303     1.353224  48.22   0.01539548    2.538    0.606
        22 -13.7853     97.0477    224.1176   1.1998514452e+02   1.4920390262e+01     2.014633     1.047059  37.78  0.008961757    2.017    0.504
        23 -15.0139     95.0909    204.3356   1.1777272922e+02   1.9521959116e+01     2.381548     1.888952  40.68   0.01206648    1.363    0.266
        24 -12.6394     24.0027    194.2391   1.3123774881e+02   3.1122486747e+01     2.177148    0.8177581  53.86   0.01023051    2.784    0.641
        25  -9.8459     65.4403    240.5000   1.2783037501e+02   1.6260676413e+01    0.2480934    0.1023707  43.28  0.001216316    2.204    0.546
        26 -13.8963     13.0492    225.9312   1.3578500587e+02   2.5543178470e+01      1.53797    0.4139574  61.47  0.005510865    5.215    0.808
        27 -13.6400     45.5248    195.7271   1.2709570439e+02   2.8414269689e+01     1.902297    0.8694459  53.86  0.008870005    2.224    0.550
        28 -14.2359    248.0625    204.5141   8.6117585970e+01  -8.0448914526e+00     3.469445    0.5534562 -38.62  0.008964416    6.670    0.850
        29 -10.6257     75.0742    240.0735   1.2602920519e+02   1.4981419035e+01    0.3253503    0.1918681  66.41  0.001278661    1.567    0.362
        30 -10.0082      2.0594    190.5425   1.3509718168e+02   3.3962345060e+01    0.2573639    0.1176246  74.09  0.001347202    2.295    0.564
        31 -11.9303    116.2304    163.2475   1.0615354832e+02   2.5420646348e+01    0.7388022    0.5485291  77.31  0.003551425    1.582    0.368
        32 -11.2336     88.6192    162.0607   1.1266245528e+02   3.0367818289e+01    0.5643342    0.3060388  57.79  0.002398581    2.240    0.554
        33 -11.5664     96.9663    150.0553   1.0838270340e+02   3.1884886759e+01     0.799199    0.4248712  70.00  0.002601969    3.972    0.748
        34 -10.7036     81.3570    149.3144   1.1219883213e+02   3.4500113167e+01    0.4372852    0.3029144 -55.43  0.002259769    1.324    0.245
        35 -11.6399     66.8625    197.6865   1.2289686596e+02   2.5230219305e+01     0.643925    0.4744389 -80.00   0.00259231    1.198    0.165
        36 -11.4533     88.6685    143.7565   1.0928124959e+02   3.4705917987e+01    0.6239718    0.2812581 -51.50  0.002554949    2.042    0.510
        37 -11.5122    123.5661    140.7194   9.9713276871e+01   2.9334190130e+01    0.8448551    0.3936471 -60.74  0.002992184    2.614    0.617
        38 -12.5183     45.9594    128.0944   1.1762181273e+02   4.3948271234e+01     1.403112    0.6988049 -83.26  0.005429386    3.415    0.707
        39 -10.3076     82.3899    134.3320   1.0906228816e+02   3.7875916097e+01    0.3093379    0.2348793  59.39  0.001194906    1.495    0.331
        40 -12.7375    122.6250    128.7716   9.7264830534e+01   3.2259940081e+01    0.6529368    0.5388979  76.78  0.003282798    1.398    0.285
        41  99.0000     11.2920    233.4596   1.3658464983e+02   2.4215827367e+01      1.52804    0.3313152  57.59  0.005446775    5.434    0.816
        42 -10.4038      9.0450    123.1937   1.2650286512e+02   4.8204224841e+01    0.3482248    0.1787107  61.97  0.001745549    2.914    0.657
        43 -12.3958    112.3637    113.9808   9.6446168706e+01   3.7507366465e+01    0.9181719    0.7555638 -84.89  0.004699773    1.473    0.321
        44 -12.9421     45.6934    105.7883   1.1347523286e+02   4.8945645156e+01     1.878031     1.049071  76.76  0.006431175    5.434    0.816
        45 -12.5931     35.7131    100.3204   1.1529305171e+02   5.1083538459e+01    0.8348278    0.6696877  12.59  0.004918015    1.467    0.318
        46 -10.4566     73.0705    121.3854   1.0893175020e+02   4.2192800532e+01    0.2582299    0.2188787  84.00   0.00148081    1.359    0.264
        47 -11.1769     95.9435    104.0486   9.8510327251e+01   4.2549646260e+01    0.6277925     0.428939  24.77  0.003076706    1.702    0.412
        48 -10.8534     94.2776     96.3176   9.7021406549e+01   4.4449137697e+01      0.45849    0.2733411 -57.45  0.001754255    1.881    0.468
        49 -11.1651     82.4446    117.7271   1.0553410633e+02   4.1678421492e+01    0.5117971    0.3761503  63.92  0.002616868    1.730    0.422
        50 -11.7614     83.8275     98.0191   1.0047725683e+02   4.5757734759e+01    0.6523206    0.3645183  58.81  0.002619702    3.054    0.673
        51 -12.2349     50.3567     91.2447   1.0889280059e+02   5.1528855958e+01     1.171564    0.7262663 -88.82  0.004892784    3.694    0.729
        52 -12.9863     33.3295     75.2422   1.1049308043e+02   5.6387193859e+01     1.092523    0.5308819 -52.43  0.005381967    1.727    0.421
        53 -11.1124     40.9270     79.1946   1.0898703373e+02   5.4917424523e+01    0.4295219    0.2266226 -51.39  0.002321366    1.618    0.382
        54 -10.6320     72.8458     89.6275   1.0161394734e+02   4.9081721572e+01    0.3594992    0.2514822 -25.24  0.001930521    1.525    0.344
        55 -10.8082     22.4644     87.7535   1.1673820591e+02   5.4785760421e+01    0.3231901    0.2040367 -68.31  0.001930537    1.620    0.383
        56 -13.2436     12.6754    143.5943   1.2825890714e+02   4.3438591042e+01     1.745967    0.8247621  61.50  0.008392007    2.953    0.661
        57 -11.5405     56.5963     83.9298   1.0517712971e+02   5.2303823451e+01    0.5424058    0.2216787 -42.30  0.002410396    2.205    0.546
        58 -13.1405    142.8475     75.1454   7.8389205720e+01   3.9014888946e+01     1.006568    0.6793382 -40.96  0.004901518    1.529    0.346
        59 -12.1585     72.4453     72.1618   9.7029889244e+01   5.2510335760e+01    0.6730794    0.5023944 -27.86  0.003958432    1.250    0.200
        60 -12.4166     43.0562     62.6933   1.0398293895e+02   5.7797187292e+01    0.7020121    0.4625414 -56.81  0.004165531    1.726    0.421
        61 -12.3856    155.5641     66.1829   7.3066971093e+01   3.7678316143e+01    0.4802879    0.4290808   9.73  0.002697948    1.281    0.220
        62 -10.7525    184.9983     67.5038   6.7575582726e+01   3.0604830412e+01    0.2290532    0.1348964  58.63  0.001042679    1.619    0.382
        63 -11.7140      6.2644    209.3591   1.3576672917e+02   2.9613476728e+01     1.283739     0.422635  61.85  0.005625959    3.525    0.716
        64  99.0000     42.7169    217.1149   1.2980447834e+02   2.4071094720e+01     2.794957    0.6300988  48.04   0.01070919    3.854    0.741
        65 -11.2408     85.1378     44.1415   8.4532854117e+01   5.5165946612e+01    0.4088139    0.3388902  80.65  0.002402702    2.023    0.506
        66 -12.2991    164.5153     57.3137   6.8835413094e+01   3.7015397587e+01    0.7296398      0.55864 -29.69  0.003899555    1.468    0.319
        67 -10.8768     28.2050     46.4383   1.0455482783e+02   6.1982713626e+01    0.2582861    0.1894268  -4.93  0.001408995    1.273    0.215
        68 -11.4872     59.9954     46.5110   9.3355710665e+01   5.8528872410e+01    0.2467023    0.1485896 -23.97  0.001338146    1.625    0.385
        69 -12.2430     66.1070    215.2338   1.2510996883e+02   2.1442318244e+01    0.7606105    0.5525503  72.43  0.002994149    1.210    0.173
        70 -13.6175     30.0237    224.7332   1.3277369686e+02   2.3959061669e+01     1.573115    0.4216346  45.05  0.007116026    3.122    0.680
        71 -10.4172     32.0745    238.2018   1.3347470936e+02   2.0988502798e+01      1.55257    0.3386255  48.72  0.006535725    3.558    0.719
        72 -10.5596      6.4248    242.5262   1.3792523543e+02   2.2945250525e+01    0.8583955    0.2306494  53.96  0.004197543    3.040    0.671
        73 -12.8611     86.7870    238.1018   1.2363197741e+02   1.3641420824e+01       1.5405    0.3666858  46.98  0.005600045    3.516    0.716
