#   1 NUMBER                 Running object number                                     
#   2 MAG_AUTO               Kron-like elliptical aperture magnitude                    [mag]
#   3 X_IMAGE                Object position along x                                    [pixel]
#   4 Y_IMAGE                Object position along y                                    [pixel]
#   5 X_WORLD                Barycenter position along world x axis                     [deg]
#   6 Y_WORLD                Barycenter position along world y axis                     [deg]
#   7 A_WORLD                Profile RMS along major axis (world units)                 [deg]
#   8 B_WORLD                Profile RMS along minor axis (world units)                 [deg]
#   9 THETA_WORLD            Position angle (CCW/world-x)                               [deg]
#  10 FWHM_WORLD             FWHM assuming a gaussian core                              [deg]
#  11 ELONGATION             A_IMAGE/B_IMAGE                                           
#  12 ELLIPTICITY            1 - B_IMAGE/A_IMAGE                                       
         1 -13.0801     11.5112     49.4303   9.1411918454e+01   6.6101114252e+01     2.706757     1.184895 -69.21  0.009327669    5.473    0.817
         2 -13.0219     37.9077     49.7146   7.8753258418e+01   6.3318070178e+01    0.9151618    0.7260573 -36.99  0.005676988    1.279    0.218
         3 -11.5390    128.2322     25.0770   4.1701700034e+01   4.9027471984e+01    0.4547714    0.2624045 -31.50  0.002384245    1.964    0.491
         4 -11.4487     22.8004     24.1514   7.5939672153e+01   6.9280510973e+01     0.505062    0.2337402 -27.27  0.002543253    2.273    0.560
         5 -12.2572    165.0748     22.7892   3.5458281095e+01   4.0759809469e+01    0.3474248    0.2373261  80.85 0.0002180756    1.301    0.231
         6 -11.2867    106.9422     18.1425   4.3691564913e+01   5.4588322306e+01     0.481653    0.1833011  46.44  0.002076287    2.387    0.581
         7 -11.9070      3.5081     16.5966   8.3528041987e+01   7.2362813384e+01    0.3371517     0.237284  28.05  0.001875909    1.653    0.395
         8 -11.4523     48.6611     15.2134   5.9830432875e+01   6.6643938961e+01    0.7634218    0.3392353  40.57  0.003886561    1.900    0.474
         9 -10.2450     43.2593      8.3091   5.8847309658e+01   6.8277086168e+01     0.258422    0.2367082 -21.93  0.001854355    1.436    0.304
        10 -11.9450     40.7980     16.7049   6.3827695951e+01   6.7763464307e+01    0.4391396    0.3630903 -50.07  0.001650738    1.885    0.470
        11 -10.9262     39.9487     11.0191   6.1546046277e+01   6.8536885624e+01     0.265388    0.1729692  42.44 0.0005409623    1.471    0.320
        12 -11.6324    233.6481     11.4520   2.6706069498e+01   2.7508332929e+01    0.2952583    0.1506623 -44.24  0.001483607    1.713    0.416
        13 -12.1742    234.9934      4.7668   2.5412148156e+01   2.7967464405e+01    0.3600641    0.2615411  44.97  0.002263051    2.304    0.566
        14 -10.1465     74.5145      2.3442   4.5636313468e+01   6.2929638742e+01    0.2232121    0.1682667  83.47 0.0009316648    1.734    0.423
        15 -11.2942     78.3721     10.5856   4.7875395032e+01   6.1455965421e+01     0.698538    0.2576764  47.08  0.002550129    2.154    0.536
        16 -10.4505     73.6268      6.5341   4.7580407189e+01   6.2775429486e+01    0.2452636    0.1982701 -34.82  0.001640426    1.529    0.346
        17 -10.4088     70.5100     13.5188   5.1355167976e+01   6.2775913426e+01    0.2532203    0.1770382  26.13 0.0008870132    1.360    0.265
        18 -10.9896     73.3236     17.0235   5.1909621143e+01   6.1872835528e+01    0.4457918    0.2351362  38.18  0.002281386    1.698    0.411
        19 -10.5237     34.2917     15.7633   6.6360583440e+01   6.8865261398e+01    0.2948331    0.1892314   0.48  0.001441808    1.585    0.369
        20 -11.3377     20.2218     15.8813   7.3541577410e+01   7.0738468294e+01    0.5654874    0.2990061  -1.12  0.002880064    2.416    0.586
        21 -10.3907    116.6431     14.4324   4.0541838810e+01   5.2745037674e+01    0.4134012    0.1974955  37.81  0.001886321    2.518    0.603
        22 -12.3955    128.7003     11.0730   3.7429493464e+01   5.0289471710e+01    0.4156779    0.2874053 -83.67 0.0005778742    1.574    0.365
        23 -10.1902     97.9494     12.9566   4.3877532634e+01   5.7067737744e+01    0.3147095    0.1997206  73.51  0.001148592    1.679    0.405
        24 -10.9274     60.4183     13.5956   5.4704597322e+01   6.4711193337e+01    0.3928344    0.2280806  58.79  0.002101437    1.979    0.495
        25 -10.3149     15.0285     13.7752   7.5414022393e+01   7.1625025231e+01    0.1764595    0.1355732 -12.80 0.0004160555    1.138    0.121
        26 -10.8841    240.9830      9.3247   2.5858462488e+01   2.6360987078e+01    0.1984721    0.1084219 -58.33 0.0004888245    1.427    0.299
        27 -10.1442     29.1033     11.0630   6.6615047923e+01   7.0170751564e+01    0.3517673    0.2318796  61.11  0.001692919    3.871    0.742
        28 -10.2079     23.2430      7.6680   6.7906228983e+01   7.1372460853e+01     0.339728    0.1429971  43.15  0.001439294    2.673    0.626
        29 -10.4268    175.5278     11.2169   3.1452881919e+01   3.9602867284e+01    0.2297065    0.1466006  75.79  0.001003485    1.328    0.247
        30 -10.5499    164.4705      9.4871   3.2223650480e+01   4.2248290538e+01    0.2602396     0.160511 -37.88  0.001538665    1.754    0.430
        31 -10.3228    164.5243      5.4559   3.1229869603e+01   4.2610305644e+01    0.2110014    0.1690594 -60.42 0.0008951195    1.250    0.200
        32  -9.7535    150.7474      5.6247   3.2839154414e+01   4.5714534079e+01    0.2133751    0.1226552  69.36 0.0002671316    1.432    0.302
        33 -11.4020    146.4906      7.7138   3.3925725504e+01   4.6502601545e+01    0.4305621    0.2623284 -37.26  0.002045185    1.818    0.450
        34 -11.3030    148.7746      1.9521   3.2113128094e+01   4.6477201784e+01    0.2979817    0.1591989  74.73 0.0003471105    1.561    0.359
        35 -10.4419      6.0593     11.2136   7.9469699781e+01   7.2908648387e+01    0.2193679    0.1257448  20.73 0.0007628393    1.559    0.358
        36 -11.0313      8.8600      8.6227   7.6495843663e+01   7.2977323019e+01    0.3788153    0.1727412  29.98  0.002163081    2.041    0.510
        37 -12.6634    213.7733      5.9645   2.7034017374e+01   3.1992254903e+01    0.6924694    0.3914174 -72.34  0.004296596    1.528    0.345
        38 -11.5759    119.9163      3.9701   3.6692225927e+01   5.2894398863e+01    0.3764119     0.169665  71.11  0.001018286    1.964    0.491
        39 -10.4950    191.0826      7.5289   2.9147870487e+01   3.6567076233e+01    0.3073719    0.2480839  84.96  0.001364229    1.116    0.104
        40 -10.6947    187.4437      5.5150   2.9027296029e+01   3.7547611883e+01    0.2565013    0.1828055  65.81   0.00106191    1.384    0.277
        41 -10.5117    155.8225      6.6649   3.2503764864e+01   4.4467512172e+01    0.3002005    0.1838843  35.75   0.00105721    2.290    0.563
        42 -11.0099    194.2887      1.7616   2.7649984441e+01   3.6442731979e+01    0.4610199    0.1778648  66.04  0.002365699    2.245    0.555
        43 -10.6544     98.1585      4.1198   4.0724344375e+01   5.7758657190e+01    0.2824846    0.1827747  24.68  0.001086041    1.804    0.446
        44 -10.2170     91.0025      6.7219   4.3217507568e+01   5.9113192149e+01    0.4138364    0.1544726  51.77   0.00193084    2.054    0.513
        45 -10.8577     27.2793      2.8819   6.3399045089e+01   7.1328082150e+01    0.2382986    0.2086334  57.81   0.00169449    1.910    0.476
        46 -10.3471     32.1836      1.3734   6.0278095726e+01   7.0739302887e+01    0.3201975   0.09062452  44.08  0.001243607    2.994    0.666
        47 -11.4218     19.8092      3.2595   6.7456816807e+01   7.2326416981e+01    0.6718504    0.2638745  22.69  0.002989187    3.176    0.685
        48 -11.3926     11.4654      2.8033   7.1933969604e+01   7.3414797732e+01    0.3308778    0.1909187  10.88  0.001893291    1.566    0.361
        49  -9.3098    109.3795      5.5095   3.9005422315e+01   5.5154043235e+01    0.1219886    0.1003017  54.35 0.0001397131    1.071    0.066
        50 -10.8335    202.2638      3.6307   2.7417614132e+01   3.4587446108e+01    0.3099664    0.1945394  57.33  0.001296027    1.823    0.452
        51 -10.4615    178.9723      3.9862   2.9448985332e+01   3.9536470493e+01    0.1844034    0.1423022 -85.02 0.0004596686    1.050    0.048
        52 -10.4298     68.1999      3.5519   4.7914821999e+01   6.4109760215e+01    0.1803378    0.1525964  19.05 0.0006659515    1.171    0.146
        53 -10.7921    242.9878      2.9629   2.4628602446e+01   2.6668054726e+01    0.1672232    0.1203991 -69.70 0.0005923061    1.020    0.020
        54  -9.9133    126.2722      2.8948   3.5376293938e+01   5.1532726085e+01    0.1570083    0.1439618  62.34 0.0004146019    1.145    0.127
        55 -10.2320    118.1917      8.2176   3.8301442384e+01   5.2939705387e+01    0.1838702    0.1605747  25.15 0.0006460414    1.322    0.243
        56  -9.7874    167.2282      1.5465   3.0007302973e+01   4.2354453090e+01    0.2395797   0.09959334  80.58  0.001137768    2.214    0.548
        57 -11.4088     35.4935    161.8889   1.0505305923e+02   3.7264916797e+01     0.355531    0.2695743 -36.50  0.001473346    1.485    0.327
        58 -10.3966    247.6189    250.0913   6.9574969314e+01  -1.1298451485e+01    0.1815528    0.1357444  17.09  0.001315114    1.375    0.273
        59 -12.4679    226.0853    245.7237   7.2656301328e+01  -8.3495837398e+00    0.5389358    0.3003643 -20.23  0.003076255    1.705    0.414
        60 -12.6197    233.3058    245.6375   7.1345307725e+01  -9.1533653611e+00    0.5776403    0.3489307 -40.87  0.003533302    1.773    0.436
        61 -11.6633     88.9588    249.4415   1.0195152485e+02   9.6468018127e+00    0.3586414    0.2551938  32.81 0.0009071942    1.262    0.208
        62 -10.1696     72.4087    250.1770   1.0567385023e+02   1.1717695848e+01    0.2173648     0.170059  12.67  0.001292603    1.545    0.353
        63 -12.9601     19.1180    237.2638   1.1611093582e+02   2.0720492147e+01     1.566062    0.4115127  54.26  0.005776333    3.792    0.736
        64 -11.7304      5.2016    235.7600   1.1890018534e+02   2.2403625666e+01    0.3743835     0.346188  49.36  0.002784942    1.288    0.223
        65 -13.1165      6.7679    244.8989   1.1906545288e+02   2.0323480824e+01    0.7714847     0.627537  58.85  0.003915774    1.108    0.097
        66 -12.6817     22.4002    248.7818   1.1615163791e+02   1.7944860305e+01       0.8807    0.2534703  33.46  0.003851794    2.862    0.651
        67 -12.0678     15.9116    246.4371   1.1732355869e+02   1.9102081461e+01    0.5502846    0.2536266  56.75  0.001665541    1.861    0.463
        68  -9.2817    177.2740    168.6713   6.8254771117e+01   1.2581082432e+01    0.1398575    0.1167112 -79.11 0.0002644894    1.588    0.370
        69 -10.1227      4.9695    168.7533   1.1437072355e+02   3.8209344533e+01    0.1512672    0.1122353  22.73 0.0008804848    1.575    0.365
        70 -12.1201     50.7780    161.9147   1.0055909601e+02   3.5531534078e+01    0.6594679    0.4470216  76.96  0.001809764    1.740    0.425
        71 -11.6112     44.3454    162.4293   1.0253112267e+02   3.6156341151e+01    0.3710595    0.2033175 -61.99  0.001270356    1.651    0.394
        72  -9.2140    111.7109    164.3356   8.3418852549e+01   2.5622241290e+01    0.1568473    0.1222181  78.39 0.0003631128    1.633    0.388
        73  -8.9787    200.6555    162.3062   6.2194781293e+01   9.7387801627e+00    0.1357887    0.1118337 -81.69 0.0007042463    1.692    0.409
        74 -12.7649     21.0110    157.4858   1.0873656272e+02   3.9793644404e+01    0.6668459    0.4396614  11.94 0.0009522714    1.859    0.462
        75  -9.7054    216.2946    155.0028   5.7847618636e+01   8.4753443148e+00    0.1911709    0.1552567 -38.94 0.0002926447    1.077    0.072
        76 -11.3375     10.0902    152.6769   1.1138371687e+02   4.1909906323e+01    0.2901143    0.2303371  54.20 0.0004379103    1.331    0.249
        77 -10.1106    177.3360    150.5551   6.4400053917e+01   1.6356087115e+01    0.3060253     0.234857  85.66  0.001417596    1.914    0.478
        78 -10.4520    207.0610    146.6669   5.7764845580e+01   1.1642291523e+01    0.1861886    0.1786848  -0.40 0.0007063828    1.124    0.110
        79  -9.4713     19.3471    146.1436   1.0785007094e+02   4.2863981020e+01    0.1993135    0.1157391 -83.74 0.0005318065    1.728    0.421
        80  -9.7342    220.3781    143.8232   5.4879146910e+01   9.8579259444e+00    0.1939059    0.1129011 -34.49  0.000667926    1.617    0.382
        81 -10.1322      3.1153    143.8539   1.1250738155e+02   4.4637896709e+01    0.1912497    0.1587287  82.30 0.0003746435    1.172    0.147
        82  -9.4516     54.4649    137.5200   9.5323063198e+01   4.1436230766e+01    0.1474064    0.1366786 -53.82 0.0008092399    1.017    0.017
        83 -11.4449      9.1756    136.4935   1.0980888540e+02   4.6109636403e+01    0.2735092    0.1863829 -63.48 0.0002805633    1.240    0.193
        84 -10.3861      2.6166    136.5491   1.1186630967e+02   4.6519538218e+01    0.3634087    0.1160618 -65.06  0.001471464    2.350    0.574
        85  -9.3543    143.5761    137.4469   6.9160003123e+01   2.5899941140e+01    0.1529651    0.1486211 -52.28 0.0001953783    1.028    0.027
        86 -10.5120     17.4363    137.0992   1.0726603300e+02   4.5347405640e+01    0.2177341    0.1896691  36.05  0.001313581    1.288    0.224
        87  -9.7430     20.8680    134.8294   1.0584683769e+02   4.5654016714e+01    0.1882799    0.1484763  84.79 0.0006385455    1.322    0.244
        88  -9.9292    249.1329    133.8779   4.8574381569e+01   6.9333498271e+00    0.1874503    0.1479157 -52.97 0.0004384767    1.189    0.159
        89  -9.3337    122.6945    134.6949   7.3933677228e+01   3.0731855819e+01    0.1580885    0.1240796 -10.15 0.0002970195    1.603    0.376
        90  -9.8293     48.1954    133.6800   9.6665899974e+01   4.3201286654e+01    0.2770427    0.1615964  44.14  0.001231216    1.893    0.472
        91 -10.4531     79.6968    132.7197   8.6208389277e+01   3.9026476086e+01     0.260002    0.2412507  37.90 0.0005439821    1.115    0.103
        92 -11.2906     55.4802    132.4602   9.4023060181e+01   4.2610670524e+01    0.6447569    0.2773341  24.10  0.002394134    2.671    0.626
        93 -11.2485     36.6377    130.1838   9.9895496902e+01   4.5387496641e+01    0.4868031    0.2458746 -44.32  0.001565713    1.951    0.487
        94 -11.1008     73.9356    129.0708   8.7253371752e+01   4.0852373313e+01     0.347853    0.3160055 -63.22 0.0009237053    1.102    0.093
        95 -11.3069     24.0341    125.8909   1.0344228747e+02   4.7676473127e+01    0.2982052    0.2197664  16.71 0.0009953853    1.534    0.348
        96 -10.1734     20.1816    121.8284   1.0411307969e+02   4.9026355174e+01    0.2314784    0.1357168 -40.00 0.0008272306    1.690    0.408
        97 -10.9426     15.6396    125.5522   1.0623369850e+02   4.8432997119e+01    0.4041116    0.2430243  18.61  0.002059624    1.897    0.473
        98 -11.0092     10.7433    122.7206   1.0748054126e+02   4.9495108612e+01     0.297502    0.2445358  59.26  0.001080614    1.380    0.276
        99  -9.6727    220.1467    124.1263   5.0849894010e+01   1.3490115501e+01      0.18601     0.143565 -59.48 0.0004395359    1.295    0.228
       100  -9.3534    243.7150    122.6747   4.7140951209e+01   9.6882326850e+00    0.1213217   0.09216842 -18.94 0.0003871404    1.603    0.376
       101  -9.3669     32.6400    121.6852   9.9759273519e+01   4.7958639237e+01     0.152744   0.09402777 -33.60 0.0007042884    1.753    0.430
       102 -10.7163     73.2515    117.5977   8.4846247034e+01   4.3802890669e+01    0.5207956    0.2798366 -70.79  0.001743149    2.786    0.641
       103  -9.8488      1.4249    118.9017   1.1012254396e+02   5.1018735539e+01    0.1971609    0.1077632 -68.99 0.0003424928    1.519    0.342
       104 -10.1882     23.2499    117.7751   1.0236938542e+02   4.9797102468e+01    0.1929103    0.1408004 -36.56 0.0005481757    1.346    0.257
       105 -11.3192     16.2215    115.5065   1.0448158148e+02   5.0919019213e+01     0.469633    0.2468666 -35.15  0.001510778    2.016    0.504
       106  -9.3562     32.1967    117.0009   9.9052529104e+01   4.9183292748e+01    0.1957222    0.1429346  52.13 0.0004621405    1.623    0.384
       107  -9.5325    179.4720    116.4347   5.6243535282e+01   2.2879335343e+01    0.1447968    0.1364407 -55.75 0.0005226588    1.007    0.007
       108  -9.6601     85.9550    115.9703   8.0267152054e+01   4.2091037390e+01    0.1880889    0.1744896 -41.19 0.0006742873    1.049    0.047
       109  -9.8031    214.1330    115.1635   4.9898109650e+01   1.6212696862e+01    0.1964234    0.1756427 -25.89 0.0004550154    1.221    0.181
       110 -11.5873     37.1493    110.1803   9.5910999725e+01   5.0380738199e+01     0.448267    0.3024814  67.31  0.002103663    2.102    0.524
       111 -11.4388     55.0751    109.9095   8.9334204078e+01   4.8315586446e+01    0.2941405    0.2679136  -8.15  0.000475429    1.109    0.098
       112 -10.9838    249.3924    112.3074   4.4395637066e+01   1.0486265194e+01    0.2302238    0.1771168 -55.42 0.0005541255    1.142    0.124
       113 -11.8337     14.4619    108.8730   1.0401393473e+02   5.2690490602e+01    0.4956958    0.3193917  -2.84  0.002607705    1.820    0.451
       114 -10.5136      1.3207    108.3175   1.0870493843e+02   5.3633244690e+01    0.3686244    0.1589406 -66.57  0.001705823    1.876    0.467
       115  -9.8830      2.3197    105.3154   1.0789741604e+02   5.4311737758e+01    0.1732453    0.1126905 -77.28 0.0003257631    1.471    0.320
       116 -11.2731     23.6229    105.9193   1.0007773323e+02   5.2706392964e+01    0.3934785    0.3439791  34.14    0.0023105    1.303    0.232
       117 -10.0493     26.0060    102.2832   9.8454044229e+01   5.3384834273e+01    0.2595102    0.1846884 -66.41 0.0002934219    1.365    0.267
       118 -10.6357     94.7118    112.4620   7.6591644223e+01   4.1341223260e+01    0.3208393    0.2854205 -15.07  0.001460286    1.181    0.153
       119 -11.0642    120.2303    101.3403   6.6119685521e+01   3.8699389129e+01    0.7346852    0.2861294 -32.92  0.002063907    4.267    0.766
       120 -10.7427     51.9982    103.9626   8.9038940385e+01   5.0150658010e+01    0.2382354     0.158578 -27.24 0.0006528688    1.656    0.396
       121  -9.8352     37.9993    103.7317   9.4208365639e+01   5.1863407719e+01     0.194888    0.1802828 -20.76 0.0006104445    1.073    0.068
       122 -11.2488     19.6355    100.7780   1.0059456251e+02   5.4278529335e+01     0.303266    0.2019144 -29.84  0.001616167    1.503    0.335
       123 -11.5387    143.8068     98.2555   5.9329641782e+01   3.4190629483e+01    0.5548132    0.4233617  60.87   0.00260291    1.374    0.272
       124 -11.7428     63.1919     98.5479   8.3569714080e+01   4.9860772378e+01     0.571497    0.3031327  23.47  0.002374331    2.145    0.534
       125 -10.7659     50.5585     99.1871   8.8402017891e+01   5.1465408102e+01    0.3167415    0.2153853   2.58  0.001043837    1.745    0.427
       126 -10.2983      5.4952     97.9752   1.0552338054e+02   5.5906410585e+01    0.1882371    0.1647254 -12.06 0.0005889205    1.231    0.188
       127  -9.5592    205.5351     97.4891   4.7390175773e+01   2.1019335346e+01    0.1376927    0.1199528 -60.67 0.0001332394    1.028    0.027
       128 -10.1489    173.4880     83.4721   4.9422701792e+01   3.0276130468e+01    0.2331329    0.1345723 -41.31 0.0008089555    1.695    0.410
       129 -12.4810    158.0329     89.8190   5.4002471342e+01   3.2610556402e+01     1.194543    0.4964368 -55.84  0.003821727    3.598    0.722
       130 -12.1625    166.6066     83.7549   5.0759997608e+01   3.1766569291e+01    0.7441142    0.4964492  62.07  0.003274823    1.529    0.346
       131 -11.8481     10.8839     90.8537   1.0209390381e+02   5.7263672131e+01    0.3181276    0.2656369   5.80 0.0005785889    1.311    0.237
       132 -11.4311    161.8766     88.1049   5.2784046024e+01   3.2058295288e+01    0.5736505    0.3755937 -56.41  0.002352903    1.627    0.385
       133  -9.4181      1.2135     95.9544   1.0683394454e+02   5.6618039273e+01     0.168425   0.08966082 -67.62 0.0003533565    1.621    0.383
       134  -9.1400    250.3181     95.6773   4.1095760663e+01   1.3010411988e+01    0.1271216   0.07931663 -64.58 0.0006026204    1.669    0.401
       135 -10.5235     37.6736     91.5232   9.1470328883e+01   5.4779315620e+01    0.6151609    0.2078635 -51.72  0.002350268    2.490    0.598
       136  -9.1587    113.3354     93.2964   6.5798596554e+01   4.1815842414e+01    0.1534176    0.1190296   6.72 0.0003231947    1.649    0.393
       137 -10.1409     66.7702     93.2552   8.0837257998e+01   5.0510937931e+01    0.2027684     0.177019  14.33 0.0003134784    1.142    0.124
       138 -10.5911     62.6502     93.4137   8.2384962053e+01   5.1106193697e+01    0.3429958    0.1262772  39.26  0.001229728    2.818    0.645
       139  -9.7066     31.3588     92.8217   9.4293764334e+01   5.5133963122e+01    0.2031195    0.1054221 -48.93 0.0005024853    1.663    0.399
       140  -9.5364    127.4673     92.5277   6.1778472570e+01   3.8926906824e+01    0.1480709    0.1455009  67.58 0.0001451155    1.013    0.013
       141  -9.2331     46.5341     92.4672   8.8231268940e+01   5.3529195978e+01    0.1388175    0.1289456 -30.46 0.0002721449    1.052    0.049
       142 -10.5676     25.5334     91.0518   9.6220009201e+01   5.6091289610e+01    0.2736917    0.2076742 -59.08 0.0007460607    1.252    0.201
       143 -11.5846     21.9574     87.5346   9.6875420449e+01   5.7212861687e+01     0.435279     0.238849 -48.63  0.001523852    1.536    0.349
       144 -11.2600     58.0899     90.0419   8.3154068268e+01   5.2527681122e+01    0.4499806     0.283617  16.68   0.00111533    1.795    0.443
       145 -11.5523     14.4094     96.7917   1.0184898691e+02   5.5622414047e+01    0.3938448    0.1952364 -52.49  0.001909112    1.640    0.390
       146 -10.4944     96.2763     89.2608   6.9701342204e+01   4.6122320764e+01    0.3699404    0.1755325  42.34  0.001451017    2.076    0.518
       147  -9.9511     83.0798     88.6717   7.3812688337e+01   4.8743295513e+01    0.2038705    0.1819209  18.63 0.0005315028    1.099    0.090
       148 -11.7952      4.6190     84.3475   1.0337955871e+02   5.9148876079e+01    0.7033835    0.2631976 -45.26  0.002954459    2.140    0.533
       149  -9.1583    135.3016     88.6351   5.8753475083e+01   3.7942220142e+01    0.1547745    0.1163037 -78.69 0.0007035088    1.732    0.423
       150 -10.7884     78.3097     87.3210   7.5044211640e+01   4.9878199891e+01    0.2922592    0.2605982 -45.70  0.000735704    1.164    0.141
       151 -10.4797     65.2233     87.3924   7.9743038132e+01   5.2036650458e+01    0.2787933    0.2333736 -40.32  0.001139064    1.159    0.137
       152 -10.6875     67.7995     83.5326   7.7664704013e+01   5.2447675255e+01    0.3116938    0.2054648  18.42  0.001237094    1.697    0.411
       153 -10.4898     46.4012     87.2115   8.6893454411e+01   5.4732333466e+01    0.3257695    0.2363389  58.32   0.00162382    1.941    0.485
       154  -9.6040    120.9859     86.6927   6.1825661091e+01   4.1478487681e+01    0.2084689    0.1887443  43.79 0.0005334677    1.080    0.074
       155 -10.2695    115.4259     83.8150   6.2491429716e+01   4.3234829428e+01    0.2810628    0.1986158  45.75 0.0006660823    1.375    0.273
       156  -9.5353     25.9658     84.0215   9.4385192619e+01   5.7663321187e+01    0.1576569     0.137485 -28.15            0    1.035    0.034
       157 -10.3281     14.7353     84.1375   9.9110751420e+01   5.8552511309e+01    0.1950274    0.1700034 -23.66 0.0005543197    1.101    0.092
       158 -11.7138     30.9980     80.5606   9.1399651162e+01   5.7952487266e+01    0.4245763    0.2873503 -40.67  0.002311673    1.303    0.233
       159  -9.9184     74.1453     82.1842   7.4969645322e+01   5.1667720858e+01    0.2294066    0.1903601 -10.32 0.0005363583    1.245    0.197
       160  -9.9295     62.8073     82.5411   7.9222681507e+01   5.3445891820e+01    0.2070048    0.1360398  31.29  0.001006614    1.523    0.343
       161  -9.6985    127.0061     80.6922   5.8557161503e+01   4.1271850620e+01    0.2088407    0.1927975  44.00 0.0009158242    1.065    0.061
       162  -9.5258     86.6830     81.6995   7.0524687568e+01   4.9500592698e+01    0.1486744    0.1119955   0.00 0.0001831797    1.617    0.382
       163 -12.0416     37.0254    243.3230   1.1274208920e+02   1.7489842679e+01    0.6644497    0.3176495  88.91   0.00235711    2.406    0.584
       164 -11.1145      5.9617     50.4341   9.4536381399e+01   6.6307382995e+01    0.9500561    0.4109555 -63.71  0.004352157    2.779    0.640
       165 -14.0628     16.5203     67.5478   9.4284625097e+01   6.2064323393e+01    0.5078771    0.4444352 -14.66  0.001062992    1.107    0.097
       166 -11.7032     13.5483     77.3208   9.8066855853e+01   6.0171400133e+01    0.2874442    0.2522609 -31.12 0.0005786799    1.066    0.062
       167 -12.5006      8.1098     73.6148   9.9593077179e+01   6.1353489234e+01     0.784278    0.4253484   4.72  0.003721393    2.021    0.505
       168 -11.7092      6.7293     66.6531   9.8557577438e+01   6.2944840658e+01    0.5230739    0.1646702 -53.57 0.0008318269    2.358    0.576
       169 -12.3802      2.6264     62.3367   9.9411259712e+01   6.4098460644e+01    0.4626983    0.3083258 -61.25  0.001555171    1.452    0.311
       170  -9.5044    183.6317     80.6812   4.7000982079e+01   2.8509005235e+01    0.1371795    0.1099314  20.80 0.0001568573    1.787    0.441
       171  -9.5052    112.4321     79.5642   6.2063098770e+01   4.4678862433e+01    0.1446696    0.1393732  34.77 4.759393e-05    1.002    0.002
       172  -9.7095     58.6608     79.3245   7.9839049659e+01   5.4748877537e+01      0.37317    0.1239755 -46.37  0.001334678    2.847    0.649
       173 -10.6326     61.3173     78.2895   7.8507185944e+01   5.4559894560e+01    0.2364621    0.1987846  47.60  0.001153021    1.386    0.278
       174 -12.7824     44.7216     74.9644   8.4094779227e+01   5.7587535545e+01    0.2969248    0.2616938  23.78 0.0004746748    1.206    0.171
       175 -10.1144     91.1853     74.3929   6.6798702224e+01   5.0038228287e+01    0.2989275     0.188247  42.09 0.0008527382    1.531    0.347
       176 -10.3662     95.3224     72.2895   6.4837373155e+01   4.9597513783e+01    0.3274285    0.2195287 -14.35  0.001210224    2.025    0.506
       177 -10.5080     75.9532     74.5506   7.1963032220e+01   5.2872053067e+01    0.3850037    0.2256776  21.18  0.001075355    2.130    0.531
       178 -10.7586    207.4334     73.1016   4.1738491903e+01   2.4656716985e+01    0.2472811    0.2001101 -85.62 0.0004032911    1.193    0.162
       179 -11.5896    156.5896     82.8198   5.2477649322e+01   3.4193591506e+01    0.7065402    0.4518558  37.43  0.003212908    1.897    0.473
       180 -11.1576     50.3251     61.8287   7.7598428029e+01   5.9429032159e+01    0.6568937    0.4067409  51.25  0.003109657    2.317    0.568
       181 -10.6979     54.1550     74.1835   8.0033591650e+01   5.6466619884e+01    0.2916701    0.1968624  41.37 0.0003961061    1.637    0.389
       182 -11.7948     50.5102     68.3326   7.9660675318e+01   5.8154943263e+01    0.4642643    0.2727062 -43.95   0.00156942    1.641    0.391
       183 -10.3115    101.2646     72.1966   6.3012486724e+01   4.8391757297e+01    0.3725626    0.2463885  74.41   0.00154777    2.510    0.602
       184 -10.8903     37.0412     69.0747   8.5567609059e+01   5.9739205544e+01    0.5245661    0.2925515  53.42  0.002151182    3.348    0.701
       185 -10.1858    194.9256     69.9255   4.2745743186e+01   2.7790517022e+01     0.195528    0.1745324 -75.20 0.0003743936    1.025    0.025
       186 -10.4653    167.8312     69.6777   4.6963195990e+01   3.3841659932e+01    0.1978638    0.1877452 -40.31 0.0003533176    1.171    0.146
       187 -10.1584    130.7349     68.0373   5.3999199562e+01   4.2625077639e+01    0.3963548    0.2505665 -14.58  0.001338045    2.484    0.597
       188  -9.5593    127.5083     66.4324   5.4284987811e+01   4.3622814293e+01    0.2008569     0.126955  46.04 5.942585e-05    1.532    0.347
       189 -11.0625     77.3937     69.7883   6.9927299205e+01   5.3514903257e+01    0.4049135    0.2631249  44.00 0.0009095526    1.550    0.355
       190 -10.5295     42.7204     68.3266   8.2904849081e+01   5.9199386511e+01     0.251194    0.1904443   1.05  0.001416071    1.305    0.234
       191  -9.3480    230.2891     68.6773   3.8042689082e+01   2.0780042093e+01    0.1297682   0.07902177 -65.21 0.0002618235    1.606    0.377
       192 -12.5229    122.5756     63.7234   5.4661224798e+01   4.5179322399e+01    0.4189091    0.3380123 -73.53 0.0004815777    1.488    0.328
       193 -11.5527     94.4767     66.1991   6.3151808972e+01   5.0849210827e+01     0.485108    0.3108225  25.86 0.0009339624    1.836    0.455
       194 -12.3007     30.7235     63.8189   8.6744847749e+01   6.1508274526e+01    0.6716922    0.5175865 -31.39  0.004050356    1.136    0.120
       195 -11.5850     23.8622     41.8444   8.2558476291e+01   6.6344742800e+01    0.6260893    0.5070473  45.88  0.003292056    1.774    0.436
       196 -11.2764     26.4967     55.5152   8.6049644532e+01   6.3578501654e+01     0.344934    0.2264239 -43.37 0.0005385119    1.399    0.285
       197 -11.6693     35.5054     42.4766   7.7166649915e+01   6.4863297535e+01    0.5870728    0.3084749  12.40  0.002595481    2.326    0.570
       198 -11.6468     30.2881    233.8854   1.1349385543e+02   2.0277602887e+01     0.543574     0.214055  79.75   0.00203332    3.762    0.734
       199 -11.6168     26.6826     49.3341   8.3870872389e+01   6.4712795423e+01    0.5343803    0.4481166  65.03  0.001957227    1.968    0.492
       200 -12.8735     27.8773     37.8702   7.9046166478e+01   6.6562809390e+01    0.4570567    0.3105504 -11.48  0.001520816    1.384    0.278
       201 -11.6831     24.3941     34.7730   7.9567363189e+01   6.7468145806e+01    0.2947979    0.2011781  -1.16 0.0009873399    1.350    0.259
       202 -10.0974    150.7844     64.0364   4.8613918428e+01   3.8647635947e+01    0.2060798    0.1868847  34.71 0.0007755947    1.246    0.197
       203  -9.3034    143.5811     64.4740   5.0172856635e+01   4.0245294293e+01    0.1386479    0.1314753  73.72 0.0001163996    1.023    0.023
       204 -10.2397     76.7073     63.0323   6.7928056833e+01   5.4860189897e+01    0.2746778    0.1985302  28.69 0.0009620069    1.342    0.255
       205  -9.8301    202.5102     61.1049   3.9729535483e+01   2.7505015814e+01    0.1878822    0.1179861 -41.90 0.0003800281    1.521    0.342
       206 -10.0373    113.1475     60.9221   5.6174763019e+01   4.7736824538e+01     0.207529     0.186667 -85.12 0.0006740822    1.264    0.209
       207  -9.3180    183.6235     60.2404   4.2106575288e+01   3.1735629600e+01    0.1371752   0.09299734 -81.46 0.0003317717    1.627    0.385
       208  -9.6859    168.5451     60.4696   4.4501242757e+01   3.5102814326e+01    0.1342111     0.125019  83.91 5.178321e-05    1.066    0.062
       209 -11.2451     59.0406     59.1478   7.3155552822e+01   5.8593978362e+01    0.6286712    0.4194459   3.19  0.003132732    1.804    0.446
       210  -9.9125     61.7686     54.2663   7.0369670240e+01   5.8995099577e+01    0.3016014     0.204184 -16.64  0.001561272    1.648    0.393
       211 -10.2666    147.9521     57.7166   4.7428066381e+01   4.0265678711e+01    0.3766574    0.2197058 -67.99  0.001585167    2.488    0.598
       212 -10.2390     69.5636     58.9647   6.9091105892e+01   5.6855676821e+01    0.2011713    0.1304503 -36.23 0.0005959702    1.576    0.365
       213 -10.1389    124.6297     58.0482   5.2459295995e+01   4.5600649439e+01    0.1818938    0.1749141 -32.60 0.0007251049    1.123    0.110
       214 -10.4808    132.9707     54.6785   4.9592625246e+01   4.4187875272e+01    0.3682994    0.2714651   0.61  0.001803027    1.957    0.489
       215 -12.3995    129.6425     49.5642   4.8788997015e+01   4.5687760422e+01     0.388609    0.3493674  35.10 0.0005016137    1.182    0.154
       216 -10.5441    131.4016     42.0396   4.6180019939e+01   4.6292464960e+01    0.3196144    0.2138446 -51.13 0.0007527394    1.672    0.402
       217 -10.6385     75.1460     55.7946   6.5985996081e+01   5.6379442290e+01    0.2603406      0.18508 -35.32 0.0004484221    1.464    0.317
       218  -9.6124     73.3356     51.3410   6.5043434468e+01   5.7433664632e+01    0.2194354    0.1511342   9.98  0.001104451    1.727    0.421
       219  -9.7051     48.3563     55.9002   7.6382177525e+01   6.0797416132e+01    0.1798396    0.1506229  -8.21  0.001002023    1.064    0.060
       220  -9.7334    230.6974     55.1010   3.5286312326e+01   2.2657293287e+01    0.2039285    0.1214214 -57.06   0.00106932    1.438    0.304
       221 -10.9811     87.6396     50.8368   6.0116941273e+01   5.4731617744e+01      0.49788    0.2124098 -44.50  0.002009039    2.764    0.638
       222  -9.6616     55.7234     53.2867   7.2406423738e+01   6.0143118806e+01    0.2816367    0.1480016  17.51  0.001173042    2.596    0.615
       223  -9.5678    172.5531     52.5054   4.1863193193e+01   3.5345176879e+01    0.1331249    0.1188154 -86.41 0.0006637771    1.010    0.009
       224  -9.6681    119.9708     52.5200   5.1863273865e+01   4.7482610472e+01    0.2090803    0.1255946  52.19   0.00033585    1.517    0.341
       225 -10.7550     45.3126     49.9424   7.5548778616e+01   6.2276213053e+01    0.3786652    0.1608005 -42.08  0.001688489    2.327    0.570
       226 -13.0493    105.6021     52.6052   5.5511770847e+01   5.0675025975e+01     0.507181    0.3001795  48.96  0.001218555    1.541    0.351
       227 -10.0576    200.0647     49.4661   3.7445009627e+01   2.9678892669e+01    0.1819869    0.1507841 -63.90 0.0003515139    1.078    0.073
       228  -9.7254    181.6215     49.7546   3.9879494012e+01   3.3680813756e+01    0.1771491    0.1093206 -50.47  0.000266083    1.561    0.359
       229 -11.7412     78.5794     47.1410   6.1731581958e+01   5.7083605509e+01    0.2791344    0.2227166 -21.46 0.0002533146    1.314    0.239
       230 -10.3967     52.4778     49.7409   7.2439941046e+01   6.1247889159e+01    0.2330967    0.1698077  29.14 0.0007189787    1.286    0.222
       231 -10.1267     59.1724     47.8274   6.9031596589e+01   6.0485469093e+01    0.1819967    0.1727237  24.30 0.0004906509    1.230    0.187
       232 -10.6391    151.5513     46.1273   4.3594365469e+01   4.1064700053e+01    0.2363428    0.2086417 -83.44 0.0005643105    1.090    0.083
       233 -10.0386    104.3490     47.1082   5.4036579768e+01   5.1742355591e+01    0.2011133    0.1674705  -0.86 0.0005063021    1.370    0.270
       234 -10.1274    143.1172     45.6046   4.4956438291e+01   4.3099091956e+01    0.2090068    0.1781619 -64.40 0.0005201187    1.218    0.179
       235 -10.6456    112.5359     45.4465   5.1413704407e+01   5.0156173242e+01    0.4222514    0.2299115  35.19  0.001858065    2.182    0.542
       236 -10.9347     91.5114     42.9591   5.6192351568e+01   5.5069083172e+01    0.4489703     0.238987 -45.76  0.002061482    2.302    0.566
       237 -10.6284     95.5641     42.9323   5.5020135841e+01   5.4216793262e+01    0.2476716     0.168782  -2.05 0.0001223464    1.971    0.493
       238  -9.5658     83.0651     44.5400   5.9331933061e+01   5.6578568091e+01    0.1946262    0.1221619  48.22 0.0006115197    1.486    0.327
       239 -11.2494     51.9364     40.2720   6.9063254098e+01   6.2838387235e+01    0.3955249     0.178694 -35.90  0.001837981    2.282    0.562
       240 -12.0871     45.4468     38.6476   7.1178220039e+01   6.4087525366e+01    0.4708115    0.2861037  47.67  0.001357627    2.082    0.520
       241  -9.9299     72.7243     42.6322   6.2070442973e+01   5.8862989117e+01    0.2832561    0.2019678 -71.07  0.001337832    2.730    0.634
       242  -9.9301    148.4689     41.2219   4.2780476474e+01   4.2425023262e+01    0.3108784    0.1238557 -36.29  0.001303827    2.612    0.617
       243 -10.2243    125.4254     42.5069   4.7555335874e+01   4.7612994919e+01    0.2485694    0.1258531  70.77  0.001026835    2.384    0.581
       244 -10.1815    108.1486     42.0006   5.1371626433e+01   5.1597969612e+01     0.406697    0.1595461  41.86  0.001480837    2.722    0.633
       245 -11.4519     69.3285     38.0550   6.1528678233e+01   6.0143782737e+01    0.5128552    0.2982221   2.73  0.001794853    2.796    0.642
       246 -10.5799     74.4849     35.5449   5.8797544803e+01   5.9500561170e+01    0.1307337    0.1138158  29.23 0.0001346053    1.028    0.027
       247 -10.7684     79.4193     29.2932   5.4830190681e+01   5.9304419089e+01    0.2407398    0.2098611  -3.02 0.0005932147    1.202    0.168
       248 -11.2722    225.1892     38.0385   3.2427646413e+01   2.6012616264e+01    0.2663004    0.1768512 -82.91 0.0003620004    1.375    0.273
       249 -11.3893    221.7722     32.2195   3.1577692821e+01   2.7420975005e+01    0.2592066    0.1655349 -49.59 0.0003005858    1.372    0.271
       250  -9.5137     86.0045     38.6919   5.6308011736e+01   5.6785375198e+01    0.1813109    0.1459792  43.13 0.0002274912    1.111    0.100
       251  -9.1521     15.2622     39.6522   8.6154765839e+01   6.7578967210e+01    0.1009168    0.0974007  82.51 0.0006975891    1.606    0.377
       252  -9.0871    160.2835     38.2676   4.0087280127e+01   4.0055875553e+01    0.1220106   0.09532755  42.36 0.0006894658    1.493    0.330
       253  -9.7906      1.3901     37.7342   9.2957660310e+01   6.9000678827e+01    0.1586896   0.08544003 -41.17  0.000262086    1.494    0.331
       254 -11.2612     81.2384     36.3574   5.6919247108e+01   5.8059967763e+01    0.3143596    0.2656982  75.62  0.001871123    1.529    0.346
       255  -9.4294     84.7968     34.6703   5.5204447548e+01   5.7551873892e+01    0.1704075    0.1119154  54.57 0.0002712557    1.470    0.320
       256  -9.7853    172.0303     35.9836   3.7834596180e+01   3.7645265679e+01    0.1939957    0.1417472  44.71 0.0005721069    1.640    0.390
       257  -9.4048    111.0000     36.0119   4.8715967926e+01   5.1720374873e+01    0.2368089    0.1967029 -44.02 0.0007940439    1.359    0.264
       258  -9.8933    108.2090     34.1821   4.8769962489e+01   5.2568104903e+01    0.2023084    0.1586931  41.08  0.000475489    1.199    0.166
       259 -10.6419    100.6050     35.6254   5.1140119876e+01   5.4075027370e+01    0.2551323    0.1850666 -79.62 0.0006908927    2.053    0.513
       260 -12.8871     57.6859     34.2501   6.4357401177e+01   6.2753928694e+01    0.3255914    0.2683771  19.98 0.0007469867    1.032    0.031
       261  -9.9541    139.2111     43.1819   4.4995531384e+01   4.4328933470e+01    0.1835049    0.1495366 -75.16 0.0003932631    1.312    0.238
       262 -11.1548     17.4947     31.1650   8.1716518426e+01   6.8791993992e+01    0.3797887    0.1993655  24.61  0.002131804    1.806    0.446
       263  -9.6214     12.4889     32.9818   8.5138389047e+01   6.8975104189e+01    0.1969138    0.1750943  77.76 0.0006967979    2.019    0.505
       264  -8.9333      9.0076     35.0002   8.7803051042e+01   6.8930627566e+01    0.2928701    0.1675474 -29.83 0.0009362233    1.494    0.331
       265 -11.0520      8.0656     31.2861   8.6930104022e+01   6.9642320652e+01    0.2833981    0.1802844 -11.88 0.0008987299    1.394    0.282
       266  -9.8008    152.3435     38.9690   4.1518454423e+01   4.1808756657e+01    0.1760329    0.1611149 -70.26 0.0003998264    1.114    0.102
       267  -9.7629    134.4307     35.7169   4.3723804321e+01   4.6379657971e+01    0.2330545    0.1245072 -37.25  0.001126972    2.020    0.505
       268 -10.7279    205.8607     32.2572   3.3072140635e+01   3.0679060938e+01     0.192805    0.1382399 -58.90 0.0001836643    1.222    0.182
       269 -10.0325    232.9375     32.4742   3.0681579111e+01   2.5200757858e+01    0.1568024    0.1000366  78.84 0.0003696509    1.495    0.331
       270 -10.0038    166.6112     32.2663   3.7639808274e+01   3.9331617164e+01    0.1596357    0.1261124 -20.21  0.000946324    1.636    0.389
       271 -10.7111     98.0050     31.2552   5.0298079039e+01   5.5167389291e+01    0.2826454    0.1719954  53.31 0.0005823368    1.434    0.303
       272 -11.5189    102.3295     28.5133   4.8267079416e+01   5.4533245619e+01    0.4669114    0.2938294  75.74 0.0007789754    1.988    0.497
       273 -10.3060     50.1435     28.7470   6.5124522850e+01   6.4762130529e+01    0.4318822    0.2243259 -15.00  0.001979341    2.669    0.625
       274  -9.7518     44.0741     31.2686   6.8770620108e+01   6.5377250154e+01    0.1687063    0.1402526  14.13  0.000396849    1.058    0.055
       275 -10.9319    237.5958     29.2613   2.9708768396e+01   2.4706659475e+01    0.2112902    0.1515739  40.44   0.00130581    2.446    0.591
       276  -9.8803     25.8878     30.2683   7.6967866759e+01   6.8002085810e+01    0.1607267    0.1244656   0.71 0.0002911261    1.056    0.053
       277  -9.4542    154.4640     29.5688   3.8666137654e+01   4.2444071993e+01    0.1289705    0.1109718  78.48 0.0001554447    1.018    0.017
       278 -10.7290     69.6232     26.0068   5.6703786240e+01   6.1622204913e+01    0.4209691    0.2515969  16.21  0.001854336    2.105    0.525
       279 -11.2583    111.8726     27.5488   4.5746274824e+01   5.2506200862e+01    0.2622874    0.2085357 -16.41 -1.501334e-05    1.486    0.327
       280 -10.9001     60.0398     27.0178   6.0511583041e+01   6.3282898433e+01     0.187337    0.1720715   2.28 0.0003876208    1.182    0.154
       281 -10.2545    203.9997     26.1198   3.1951449643e+01   3.1805044797e+01    0.2919282    0.1287777 -48.13  0.001438767    2.024    0.506
       282 -11.0049    175.0166     26.6915   3.5187306511e+01   3.8071019032e+01     0.207692    0.1685482 -53.99 0.0002218755    1.239    0.193
       283 -10.2318    250.0309    246.3155   6.8563870363e+01  -1.1033970338e+01    0.1612423    0.1187177  -4.00  0.000863981    1.078    0.072
       284 -11.2645    128.9620     18.7009   3.9658567087e+01   4.9513342477e+01    0.2335986     0.222582  37.67 0.0004418364    1.197    0.164
       285 -13.2837     74.2931    238.1030   1.0403300719e+02   1.3985475211e+01    0.8941019    0.7259594 -76.32  0.005442223    1.313    0.238
       286  -9.9314      1.5018     25.6904   8.8537851035e+01   7.1086163800e+01      0.19078   0.08874558 -42.84 0.0005391415    1.809    0.447
       287 -11.0272    192.8195     23.6361   3.2511064078e+01   3.4481168225e+01    0.3545026    0.1019022 -47.67  0.001447285    3.188    0.686
       288 -11.0464      8.2130     24.8288   8.4274829676e+01   7.0686125573e+01    0.3900692    0.1449152  20.96  0.001894709    2.607    0.616
       289 -11.1236     14.0390     23.1842   8.0268288051e+01   7.0388628261e+01    0.2747523    0.1627025  -2.22 0.0004748649    1.658    0.397
       290 -10.5332     88.5060    241.4896   1.0116964726e+02   1.1330132397e+01    0.2201128    0.1126265 -49.32 0.0009871763    2.263    0.558
       291 -10.6395    159.5083     23.0217   3.6241797565e+01   4.2008715665e+01    0.2798335    0.2366188  20.48  0.001301563    1.607    0.378
       292 -10.1883    185.8104     22.3037   3.2938084545e+01   3.6161290607e+01    0.2084474    0.1421194 -58.76  0.001269675    1.365    0.268
       293  -9.9289    106.4377     22.9712   4.5426179776e+01   5.4217532967e+01     0.231987    0.1702611  89.87 0.0007474541    1.685    0.407
       294  -9.6367    109.2800    242.4420   9.6565176297e+01   8.1850424442e+00    0.1933784    0.1072779  42.78  0.000936851    1.635    0.388
       295 -10.8486     98.9727     22.9753   4.7160166329e+01   5.5871922310e+01     0.474371    0.2030327  51.89  0.001597505    1.921    0.479
       296 -10.3757     94.1675     22.3792   4.8136099201e+01   5.6981267267e+01     0.231071    0.1873403  45.44 0.0006659541    1.055    0.052
       297  -9.6540    226.5221     21.8901   2.9168200720e+01   2.7713394859e+01    0.1552627   0.09828401 -44.34 0.0006152811    1.482    0.325
       298 -10.7895     59.4222     20.6003   5.8055926565e+01   6.4151368325e+01    0.3021782    0.1883509  -4.68  0.001199453    1.914    0.478
       299  -9.9193    120.4736     20.9660   4.1882297502e+01   5.1240074528e+01    0.1628568    0.1286538 -28.23 0.0003183832    1.477    0.323
       300 -10.0705     67.3178     21.0815   5.5486631915e+01   6.2622480854e+01    0.2457555    0.1649966  51.45  0.001425729    1.425    0.298
       301 -10.3051      9.6921     15.7797   7.9444933017e+01   7.1912203894e+01    0.2550895    0.1494253  -8.48 0.0009098436    1.629    0.386
       302 -11.4489      6.0600     20.6656   8.3774789106e+01   7.1525082266e+01    0.2765099    0.1759768   8.10 0.0006753794    1.382    0.276
       303 -10.1160    195.4182    238.7851   7.7369885933e+01  -3.4789889524e+00    0.2567221    0.1650173 -10.86  0.001406524    1.633    0.388
       304 -10.3423    173.9478     20.4708   3.3818227579e+01   3.9000745154e+01     0.183965   0.08993659 -82.93 0.0008094222    2.569    0.611
       305  -9.6275     88.1862     20.6765   4.9068096769e+01   5.8438759097e+01      0.25435    0.1114798  64.27  0.001064312    2.636    0.621
       306 -10.8893    244.1404    237.1370   6.8069265233e+01  -9.1302759836e+00    0.2119338      0.13725 -33.62   0.00135406    1.401    0.286
       307  -9.8131    134.7705    238.2691   9.0233051037e+01   5.2638683747e+00    0.2030756   0.09751855 -41.15 0.0008233105    2.387    0.581
       308 -10.2080    160.1154    235.8416   8.4257879377e+01   1.9760659548e+00    0.1845706    0.1425772  -3.98 0.0003997772    1.312    0.238
       309 -10.0546    221.2288    234.5793   7.1717083104e+01  -6.1026226233e+00    0.1682634    0.1009641  14.10 0.0008553561    1.648    0.393
       310 -10.4557     86.9991    233.1790   1.0055273423e+02   1.3297411464e+01    0.2401229    0.1273219  53.29  0.001084468    2.004    0.501
       311 -10.1108     38.2424    232.7650   1.1166088513e+02   1.9638289517e+01    0.1845994    0.1451508  68.07 0.0007299113    1.107    0.097
       312 -10.0447     24.0668    232.3080   1.1472903809e+02   2.1289127933e+01    0.1956711    0.1539502 -72.23 0.0006438995    1.322    0.243
       313  -9.4572    170.0255    228.9768   8.1018130733e+01   1.7794861387e+00    0.1618491    0.1416984   1.06  0.000369782    1.021    0.021
       314  -9.7144     98.0187    242.4434   9.9120423835e+01   9.7975592801e+00     0.211204    0.1178126  31.91  0.000612238    1.617    0.381
       315 -10.0266    151.6930    228.6587   8.4981651646e+01   4.5808003078e+00    0.1415609   0.09940291  -9.42 0.0007042706    1.686    0.407
       316 -11.0670      4.2876    226.3997   1.1857595456e+02   2.4527879912e+01    0.3205551    0.1830664 -88.31  0.001847126    1.553    0.356
       317 -10.2877     68.9655     17.0000   5.3270925029e+01   6.2735586664e+01    0.2719106    0.1333518  47.24  0.001005831    1.693    0.409
       318  -9.8638     54.4262     18.4617   5.9006704146e+01   6.5286283270e+01     0.190558    0.1094292  54.63 9.856941e-05    2.034    0.508
       319 -10.2567     30.0847     17.5113   6.9208899011e+01   6.9248807670e+01    0.2642595    0.1284591  36.01  0.001430223    1.877    0.467
       320 -10.9005    120.9645    225.9758   9.1621729704e+01   9.8233475107e+00    0.2175973    0.1995133  28.75 0.0007725537    1.005    0.004
       321  -9.7738     66.0695    226.3157   1.0468396361e+02   1.7665001907e+01    0.1902694    0.1572681  46.00 0.0005922535    1.101    0.092
       322 -10.2404    194.9724     16.9175   3.0830205894e+01   3.4760565870e+01    0.1754963    0.1400687 -82.41 0.0003005452    1.005    0.005
       323  -9.0701     82.4669     17.4755   4.9417955013e+01   5.9962503175e+01    0.1279173      0.10434  39.29 0.0008089014    1.041    0.039
       324  -9.7810    184.4001     16.2027   3.1696890853e+01   3.7132239485e+01    0.1669617   0.09532817 -49.64 0.0009454771    1.671    0.402
       325 -10.6393    247.4881     15.4896   2.6539318238e+01   2.4485381791e+01    0.1096793   0.08035283 -69.21 0.0001129472    1.014    0.014
       326  -9.7972    123.6754    221.6729   9.0343610065e+01   1.0312185299e+01    0.1438329    0.1062912 -10.98 0.0006230279    1.694    0.410
       327 -10.2643     21.2495    221.2373   1.1456297587e+02   2.4062532326e+01    0.2054759   0.09068459  88.13  0.000900167    2.472    0.596
       328  -9.5633     13.3192    221.2867   1.1632352497e+02   2.4832221925e+01    0.1125666   0.09095891 -45.30   0.00024932    1.594    0.372
       329  -9.8497     83.8813     13.7998   4.7629228904e+01   6.0018055784e+01    0.1553593    0.1366449  73.07 0.0003658265    1.289    0.224
       330 -11.3906     10.1300    217.1615   1.1675685845e+02   2.6072274759e+01    0.3358079    0.2104322  46.21  0.001797731    1.446    0.309
       331  -9.7646     38.2726    217.4236   1.1035230567e+02   2.3118528467e+01    0.1805984    0.1063118  44.28 0.0007270298    1.538    0.350
       332 -10.6188    243.4857     12.5093   2.6266068611e+01   2.5549961283e+01    0.1101072   0.08045965 -70.14 -4.37965e-05    1.007    0.007
       333 -11.1856     29.4109    215.8541   1.1228628872e+02   2.4457529929e+01    0.2949244    0.2616593 -19.92  0.001149391    1.497    0.332
       334 -11.5412    235.9346    214.3247   6.5609962060e+01  -4.7326449330e+00    0.2419097    0.1491339 -29.70 0.0006023067    1.362    0.266
       335  -9.3344    136.4929    215.5366   8.6356962043e+01   9.5917334021e+00    0.1427383    0.1293292   8.31 0.0001158195    1.062    0.058
       336  -9.2037    169.6949    213.3091   7.8435171030e+01   4.7867828601e+00    0.1285023    0.1112409  69.05 0.0003826591    1.610    0.379
       337 -10.3907     20.8502    212.2794   1.1398589725e+02   2.6175133249e+01    0.2185304    0.1286996  54.76  0.001173062    1.552    0.356
       338 -10.9032      1.4987    211.0689   1.1828648201e+02   2.8237837258e+01    0.3638684    0.1740613 -62.76  0.001385088    2.032    0.508
       339  -9.7876    156.5251     11.4958   3.3657326978e+01   4.3860904949e+01    0.1236565    0.1022845  82.39 0.0001109041    1.008    0.008
       340 -11.7389      5.5468    208.5998   1.1722655583e+02   2.8462972752e+01    0.4572519    0.2338935 -74.39  0.002414291    1.730    0.422
       341 -10.8527      2.5110    205.4881   1.1771466668e+02   2.9449834024e+01    0.2492971    0.1390933 -76.18  0.001143876    1.571    0.363
       342 -11.1181    240.7974    211.5958   6.4296692129e+01  -4.8971478562e+00    0.2325055    0.1613797  32.63  0.001454081    1.660    0.398
       343  -9.4597    208.5334    211.5263   7.0128804541e+01  -6.5626940283e-01    0.1334538    0.1087566 -11.33 0.0002102904    1.053    0.050
       344 -10.2609     10.8256    208.3523   1.1600774016e+02   2.8051241038e+01    0.2438817    0.1738029 -41.64 0.0006008012    1.826    0.452
       345 -10.5681    246.3908    203.5084   6.1936256364e+01  -4.3004476616e+00    0.3465433    0.2791993 -71.65  0.002073008    2.349    0.574
       346  -9.1545    188.2351    204.9916   7.2998690938e+01   3.5088369895e+00     0.174334    0.1075554 -41.52 0.0005693352    1.563    0.360
       347 -11.1197     19.9769    200.5584   1.1325891297e+02   2.9052029383e+01    0.6174528    0.1778381 -72.31  0.002326981    3.055    0.673
       348 -10.5698    175.3419    202.4392   7.5259096389e+01   6.0235034510e+00    0.2390812    0.2268376   8.97  0.000472093    1.125    0.111
       349  -9.4417    117.4705    201.5384   8.8672478082e+01   1.5742935378e+01    0.1451451    0.1384254  35.94 0.0003672694    1.021    0.021
       350  -9.3793    223.3244    200.6955   6.5407125968e+01  -8.3992109811e-01    0.1133102    0.1035343 -72.24  0.000422832    1.642    0.391
       351 -11.5709     16.0362    193.0749   1.1360131647e+02   3.1243268705e+01    0.4847365    0.2582261  26.25  0.002435396    2.047    0.511
       352  -9.4807    222.3127    192.3694   6.4053134772e+01   7.4461182248e-01     0.139701   0.08916923 -13.79 0.0007036019    1.773    0.436
       353 -11.9932    238.0129     17.6960   2.7551115885e+01   2.5986891244e+01    0.2734083    0.1694761 -86.11 0.0003477136    1.396    0.284
       354 -10.1226    244.7390    188.2536   5.9463010869e+01  -1.6207658878e+00     0.216655    0.1302321 -38.48 0.0004696202    1.387    0.279
       355  -9.5176    212.0122    187.9939   6.5119521505e+01   3.0389643947e+00    0.1627284    0.1425623 -11.07 0.0005555215    1.055    0.052
       356  -9.3790      2.3096    187.3506   1.1653137262e+02   3.3804173469e+01    0.1293338   0.08367972 -50.14 0.0006199026    1.716    0.417
       357  -9.6871     61.8337    184.8400   1.0071896346e+02   2.8208684708e+01    0.2070585    0.1612879  73.11   0.00106962    1.338    0.252
       358 -10.4223    167.9453    183.5023   7.3291305987e+01   1.1121384000e+01    0.2216807     0.141707  36.32  0.001031301    1.586    0.370
       359 -11.4644     15.9265    182.4022   1.1270322631e+02   3.3894869150e+01    0.4843782    0.2632755  76.94  0.002301245    1.948    0.487
       360  -9.8316    244.5597    178.1998   5.7642358819e+01   7.7996001906e-02    0.1883003   0.09772364 -31.46  0.000950221    1.731    0.422
       361 -10.6956     46.5014    177.5241   1.0395551703e+02   3.1995297432e+01      0.29463     0.265601  85.99  0.001113361    1.033    0.032
       362 -10.4332     34.0902    173.9840   1.0695970236e+02   3.4283077506e+01    0.2018762    0.1800027 -85.55 0.0002856555    1.007    0.007
       363  -9.2507    107.5519     10.5440   4.1021778723e+01   5.5146584232e+01    0.1249965     0.104232  58.94 0.0002552838    1.004    0.004
       364 -10.8209     18.2693    173.3094   1.1122037192e+02   3.5979247661e+01    0.2921683    0.2081019  56.51  0.001093944    1.406    0.289
       365 -12.0082     36.7130    166.0785   1.0524485419e+02   3.6048390011e+01    0.5606101    0.3535881  59.14  0.002629618    1.737    0.424
