#   1 NUMBER                 Running object number                                     
#   2 MAG_AUTO               Kron-like elliptical aperture magnitude                    [mag]
#   3 X_IMAGE                Object position along x                                    [pixel]
#   4 Y_IMAGE                Object position along y                                    [pixel]
#   5 X_WORLD                Barycenter position along world x axis                     [deg]
#   6 Y_WORLD                Barycenter position along world y axis                     [deg]
#   7 A_WORLD                Profile RMS along major axis (world units)                 [deg]
#   8 B_WORLD                Profile RMS along minor axis (world units)                 [deg]
#   9 THETA_WORLD            Position angle (CCW/world-x)                               [deg]
#  10 FWHM_WORLD             FWHM assuming a gaussian core                              [deg]
#  11 ELONGATION             A_IMAGE/B_IMAGE                                           
#  12 ELLIPTICITY            1 - B_IMAGE/A_IMAGE                                       
         1  -9.3403      2.8461      9.0825   1.2345955468e+02   7.2623173720e+01    0.2020708    0.1519721  54.77  0.001426095    1.917    0.478
         2  -9.7800     72.7056    249.5129   1.3774526260e+02   2.0050287688e+01    0.1706445    0.1639398 -20.66  0.001644559    1.957    0.489
         3 -11.6584    247.3262    238.9238   1.1106782222e+02  -2.7548259638e+00    0.5718542    0.3925216  21.78    0.0047027    1.127    0.113
         4 -10.1622     93.8327    249.3483   1.3464914706e+02   1.7514013974e+01    0.2242667    0.0904941  48.71  0.001485254    1.701    0.412
         5 -10.7498     68.1825    244.8871   1.3813660821e+02   2.1187198665e+01    0.2463355    0.1725078  63.10 0.0004138112    1.065    0.061
         6  -9.1472     57.9830    250.0356   1.3989397012e+02   2.1663716300e+01    0.1182779    0.1048178  42.60  0.001136233    1.704    0.413
         7 -11.5727     33.2332    248.6231   1.4333164063e+02   2.4484993637e+01     1.043196          nan  47.15  0.004922595    4.212    0.763
         8 -10.7067      4.1768    248.6971   1.4732010357e+02   2.7244135153e+01    0.5993475    0.2513593  53.23  0.004939955    1.485    0.326
         9 -10.6496      3.0470    235.3908   1.4711301610e+02   2.9196982664e+01    0.3959222    0.1962465  76.05   0.00181694    1.490    0.329
        10 -11.3041     44.7308    245.9792   1.4159236534e+02   2.3649393027e+01    0.3800222    0.1811208  36.51  0.002666588    2.296    0.564
        11 -10.4227    230.6782    244.1864   1.1406279022e+02  -8.5862640515e-01    0.2274927     0.123965  27.67  0.001624163    1.502    0.334
        12 -11.4721     12.8050    245.5220   1.4605655892e+02   2.6891930195e+01     1.088415    0.1008733  49.83  0.005968024    3.318    0.699
        13 -10.5260     39.8115    240.9715   1.4207236657e+02   2.4856404412e+01    0.2270428    0.1107764  64.49  0.001756496    1.509    0.337
        14 -10.5310     56.7412    236.6819   1.3936809643e+02   2.3617869789e+01    0.3071614    0.1397185  62.46  0.002159116    1.743    0.426
        15  -9.0484     97.7687    239.3763   1.3334648614e+02   1.8293686548e+01    0.1385684   0.07350688  40.06 0.0003402598    1.687    0.407
        16  -7.0764    177.6706    239.6898   1.2122903410e+02   7.1325392790e+00    0.1015899    0.0645432  26.43  0.000704138    1.666    0.400
        17  -9.8690     81.6878    245.8871   1.3620918974e+02   1.9451975089e+01    0.1984465     0.117875 -59.28  0.001549905    2.324    0.570
        18 -10.1730    235.9668    236.4463   1.1232703365e+02  -9.8791604735e-01    0.2403043    0.1404787  50.04  0.001658034    1.841    0.457
        19  -9.6066     12.2175    233.6088   1.4575883024e+02   2.8622503306e+01    0.2056843   0.06614124  59.30  0.001380102    2.080    0.519
        20  -8.9859    249.5810    248.9892   1.1206287742e+02  -3.7791456535e+00    0.2481998    0.1781695  -8.87  0.002163761    1.576    0.365
        21  -7.9341     60.4894    229.4444   1.3838485650e+02   2.4219186360e+01   0.09701984     0.067782  61.41 9.281126e-05    1.027    0.027
        22  -9.5732      5.1052    227.6906   1.4659351043e+02   3.0129847742e+01    0.1824566   0.08910684  41.60   0.00143927    1.823    0.451
        23  -7.2630    134.7244    230.6802   1.2687631771e+02   1.4381199310e+01   0.09204867   0.07220646  26.74 0.0004188011    1.574    0.365
        24 -10.8589    244.3483    248.7902   1.1274902069e+02  -3.0676338360e+00    0.3848948    0.3226549  33.24  0.003519114    1.421    0.296
        25  -8.9118     91.5236    226.4877   1.3333053807e+02   2.0845602529e+01     0.177542   0.08365712  35.33  0.001034589    2.426    0.588
        26  -8.7491     45.8409    223.5523   1.4031103834e+02   2.6722226830e+01    0.1431691    0.1253378  77.51 0.0004536694    1.435    0.303
        27  -8.7698    247.4748    221.5000   1.0864425183e+02  -1.4322169492e+00    0.1052805   0.07580326  26.70 0.0004457511    1.024    0.023
        28  -8.2454      8.3005    221.6736   1.4593167622e+02   3.0738418060e+01   0.09773687   0.04149688  63.77 0.0007029496    1.637    0.389
        29  -8.1724    247.3212    217.3412   1.0806295202e+02  -1.0719765683e+00    0.1120836   0.06122439  20.36 8.742055e-05    1.721    0.419
        30  -8.8424    248.4507    210.8887   1.0694152157e+02  -7.0110584539e-01    0.2469909    0.1874037 -80.00  0.001269914    4.939    0.798
        31  -7.6890     42.6791    210.6967   1.4009839836e+02   2.9033663152e+01   0.07811987   0.07468095  85.22 0.0002608721    1.631    0.387
        32 -10.3571     10.2319    206.4506   1.4508605845e+02   3.2922261954e+01    0.3240834    0.2367226  32.77  0.002771534    1.897    0.473
        33  -7.5647    233.6726    192.3395   1.0621572662e+02   3.2770403883e+00   0.09914307   0.08936957  71.80 0.0007051609    1.733    0.423
        34  -9.8677    188.2930    190.8231   1.1319384994e+02   1.0980794838e+01    0.1974362    0.1565071  39.83 0.0002892504    1.033    0.032
        35  -8.5539      3.1457    182.6085   1.4529743777e+02   3.7495904276e+01    0.1420301    0.0876819  74.05  0.001137207    1.138    0.121
        36  -7.2642     63.3145    159.2970   1.3233849532e+02   3.5562104716e+01   0.09724241   0.08822807 -43.66 0.0003642261    1.605    0.377
        37  -8.5697      8.3476    154.6639   1.4298451304e+02   4.2103502415e+01    0.1138356   0.05301635  66.10 0.0007047912    1.778    0.438
        38  -8.8252     15.9606    151.3792   1.4127086782e+02   4.2080054460e+01    0.1395968    0.1098253  67.81 0.0005606206    1.165    0.142
        39  -9.0734     67.5005    143.3807   1.2965158579e+02   3.8117240962e+01    0.4840136    0.2049422  60.38  0.002188473    2.817    0.645
        40  -8.1756     18.4336    145.5308   1.4036140032e+02   4.2993031121e+01    0.1065613   0.07962517  82.88 6.106304e-05    1.026    0.025
        41  -8.5739      6.3107    143.6541   1.4274410472e+02   4.4372801174e+01    0.1130051   0.05555208  68.55 0.0007045501    1.707    0.414
        42 -10.2852      2.2474    135.6524   1.4310442390e+02   4.6246910428e+01    0.3084674    0.1604884 -71.54  0.002064591    1.648    0.393
        43  -8.7151    132.9504    137.9673   1.1468669733e+02   2.8923922389e+01    0.1867892    0.1717635  65.77  0.001181527    1.006    0.006
        44 -10.1899      2.2192    126.9771   1.4255477736e+02   4.7972130399e+01      0.30866    0.1302789 -85.96  0.001797425    1.894    0.472
        45  -8.1835    197.4515    126.9448   9.9841058646e+01   1.7969665279e+01    0.1948931    0.1661219  38.10 8.943606e-05    1.093    0.085
        46  -8.3575    129.9456    122.9459   1.1242707352e+02   3.2259738623e+01    0.1889257    0.1768225  71.97   0.00116062    1.004    0.004
        47 -10.1678    243.2381    118.0433   9.0368369464e+01   9.8026639690e+00    0.2617308    0.2143664  35.76 0.0003967561    1.186    0.157
        48  -9.9865      2.7840    112.0729   1.4134090224e+02   5.0967146640e+01     0.233797    0.1406494 -68.20  0.001606258    1.450    0.310
        49  -7.4569     31.5378    107.5833   1.3369190277e+02   4.9580100013e+01    0.1172052   0.09055579  86.54 0.0001298937    1.089    0.081
        50  -7.4051    189.4517    104.5679   9.6088323185e+01   2.3071336463e+01    0.1408871     0.133692  21.70 4.987151e-05    1.005    0.005
        51  -9.1595      6.3854    100.1923   1.3940151941e+02   5.3201728678e+01    0.1636798   0.08081239 -88.13 0.0009512329    1.697    0.411
        52  -7.9249    245.9596     98.8061   8.5507148124e+01   1.1574912692e+01    0.1993938    0.1568677 -77.59 0.0007695307    1.930    0.482
        53  -7.5472    193.3888     99.5060   9.4109761093e+01   2.2970922894e+01    0.1425055    0.1324917   5.95 8.173702e-05    1.047    0.045
        54  -7.7153     16.2871     86.6744   1.3516399782e+02   5.5379584897e+01    0.1158249   0.07158393  76.97 0.0002293441    1.608    0.378
        55  -7.1108    213.2962     78.2659   8.5178969991e+01   2.1473978132e+01    0.1446486    0.1057993  22.51 0.0002467963    1.512    0.339
        56  -9.6676      2.7670     76.6639   1.3788997143e+02   5.8455360701e+01    0.2085988    0.1310422 -80.04  0.001400785    1.214    0.176
        57  -7.1223    158.3047     61.2789   9.0145441023e+01   3.7338574956e+01    0.1504995    0.1148486  20.52 0.0002013951    1.550    0.355
        58  -8.5713    195.8986     56.5754   8.1820898352e+01   2.8714035749e+01    0.2315605    0.1962642  -7.50 0.0004237844    1.203    0.169
        59  -8.6817      7.4882     54.4934   1.3307934383e+02   6.2948286005e+01    0.1780041   0.08975238  40.80  0.001038244    2.379    0.580
        60  -8.0182     11.2999     48.3538   1.3050308108e+02   6.4023039589e+01    0.1212926   0.06548945 -47.18 0.0007037205    1.700    0.412
        61  -8.2947    136.0452     46.9078   9.0231329726e+01   4.4985554302e+01    0.2085359    0.2008593 -23.89  0.001161931    1.010    0.010
        62  -9.3863    250.3071     42.0536   7.0517871391e+01   1.7294262984e+01    0.2372409    0.1749877 -19.60 0.0005039456    1.248    0.199
        63  -7.8142    191.2060     29.8532   7.4242891579e+01   3.3385075486e+01    0.2032541    0.1674177  20.63  0.000431292    1.304    0.233
        64  -8.0349    162.9757     23.6818   7.6555760836e+01   4.1547521511e+01    0.2873913    0.1644008  -0.08  0.001012008    2.342    0.573
        65 -10.1962    144.8962     22.9110   7.9560622656e+01   4.6301036956e+01    0.2607361    0.2293454 -18.74  0.001397818    1.113    0.102
        66  -7.6053    155.3740     18.1765   7.5853077666e+01   4.4186019377e+01    0.1990274    0.1308578 -34.45 0.0002536774    1.497    0.332
