#   1 NUMBER                 Running object number                                     
#   2 MAG_AUTO               Kron-like elliptical aperture magnitude                    [mag]
#   3 X_IMAGE                Object position along x                                    [pixel]
#   4 Y_IMAGE                Object position along y                                    [pixel]
#   5 X_WORLD                Barycenter position along world x axis                     [deg]
#   6 Y_WORLD                Barycenter position along world y axis                     [deg]
#   7 A_WORLD                Profile RMS along major axis (world units)                 [deg]
#   8 B_WORLD                Profile RMS along minor axis (world units)                 [deg]
#   9 THETA_WORLD            Position angle (CCW/world-x)                               [deg]
#  10 FWHM_WORLD             FWHM assuming a gaussian core                              [deg]
#  11 ELONGATION             A_IMAGE/B_IMAGE                                           
#  12 ELLIPTICITY            1 - B_IMAGE/A_IMAGE                                       
         1 -13.8029     68.3026    143.8699   8.1032689864e+01   3.7736405197e+01     3.920496      2.04069  89.72  0.003417936    5.254    0.810
         2 -13.2563    218.1971     52.9069   2.3205742542e+01   2.4028610033e+01     1.194519    0.7310635 -54.47   0.00590267    1.515    0.340
         3 -13.6374    234.3961     42.0716   1.9123221098e+01   2.2034177885e+01     1.329858    0.9866522  50.63  0.008016666    1.765    0.433
         4 -10.9112    108.4749     16.3869   3.1664179202e+01   5.4207700164e+01    0.3423216    0.2520712 -73.29 0.0009061291    1.994    0.499
         5 -10.8592      3.0234      3.1354   6.5202456492e+01   7.2473313614e+01    0.2752417      0.17015 -10.58  0.001995435    1.214    0.176
         6 -13.9111      8.6407    208.4097   1.0407500893e+02   2.8793837810e+01     1.513248     1.124694 -48.25  0.008001135    1.778    0.438
         7 -10.3460    116.7517    248.3731   8.5415215105e+01   5.3744510178e+00    0.3097481    0.2108687 -72.34   0.00115582    1.796    0.443
         8 -10.3588    115.8069    243.4084   8.4969933280e+01   6.4984651046e+00    0.2981333    0.1903607 -66.54  0.001305002    1.852    0.460
         9 -12.6474     41.4613    171.0919   9.2836205191e+01   3.4284539333e+01    0.9083025    0.5749434 -24.49  0.001689688    2.573    0.611
        10 -11.8305     48.9488    165.8236   9.0155933270e+01   3.4721575333e+01    0.3422697    0.2854363 -41.50 0.0005108089    1.348    0.258
        11 -15.1877     16.3627    234.7006   1.0442159186e+02   2.2264065020e+01     6.479619     2.980915  21.01   0.02801088    4.319    0.768
        12 -15.4797     24.8559    180.7592   9.8074919482e+01   3.3687276233e+01     9.089087     3.004299 -85.85   0.02551285    5.733    0.826
        13 -12.1462     75.5981    137.1453   7.7513017097e+01   3.8350237964e+01    0.4650411    0.3464775 -57.78 0.0003837837    1.260    0.206
        14 -12.0661     70.2147    151.6849   8.1958896993e+01   3.5474935784e+01    0.5268179    0.4750642  58.16 0.0006887902    1.159    0.137
        15  -9.1498     70.4681    248.0557   9.4992800356e+01   1.2614569815e+01    0.1784466    0.1175466 -72.00 0.0007081715    1.577    0.366
        16  -9.1298     85.3849    152.7676   7.7852152178e+01   3.2849538432e+01    0.2402793    0.1982355  54.16 0.0005962421    1.269    0.212
        17 -13.0571      6.3296    194.9145   1.0352612321e+02   3.2086469351e+01    0.4363478    0.3709162  68.30 0.0007459599    1.194    0.162
        18 -11.0610     61.8988    157.1374   8.5268882269e+01   3.5257169340e+01    0.2859276    0.2595114 -53.30 0.0003734402    1.116    0.104
        19 -10.8815    249.4006    142.8103   3.7990940247e+01   2.2375876248e+00    0.3367289    0.1530154 -42.71  0.001482714    1.874    0.466
        20 -14.3473     15.3441    188.5441   1.0102675940e+02   3.2748406716e+01     1.739599    0.9287559  69.15  0.005791313    1.917    0.478
        21 -10.3578     88.5019    139.5393   7.4200812844e+01   3.5668174206e+01    0.3692997    0.2794629 -53.56 0.0007947063    1.258    0.205
        22  -9.3989     92.5700    136.5481   7.2341615722e+01   3.5713776387e+01    0.3410263    0.2342853 -20.47   0.00142622    2.017    0.504
        23 -10.5051    104.8893    129.9804   6.7197596551e+01   3.5073117470e+01     0.503267    0.3687398  49.86  0.002000442    1.455    0.313
        24  -8.8219    110.5004    167.0720   7.3794896802e+01   2.4829855709e+01    0.2310416    0.1530271 -57.08 0.0005302192    1.510    0.338
        25 -13.0481    236.8525    155.8528   4.2781313800e+01   2.0399227681e+00    0.9968174    0.4241364 -36.08  0.003997094    2.242    0.554
        26 -10.7272     89.5696    125.1414   7.0587163038e+01   3.9036493893e+01    0.3166573    0.2713545 -12.21 0.0006442823    1.299    0.230
        27 -11.3538     78.3359    205.5732   8.8371620678e+01   2.0824698212e+01    0.3809639    0.2472061 -81.40 0.0008066443    1.649    0.394
        28  -8.1608    134.6212    125.2660   5.7731725090e+01   3.0069320691e+01    0.1647909    0.1270054  77.20 0.0006987614    1.681    0.405
        29  -8.6936    111.4981    124.4588   6.3922189158e+01   3.5105713274e+01    0.1575437    0.1528405 -19.20 5.407814e-05    1.033    0.032
        30 -10.1803     33.0134    120.5201   8.7358359548e+01   4.7756662150e+01    0.2308619    0.1576362 -61.14 0.0007411204    1.256    0.204
        31  -9.5056    102.4071    118.0721   6.4961502729e+01   3.8383360250e+01    0.2312177    0.2081915  13.32 0.0005870904    1.169    0.145
        32 -11.7788    244.9326    114.2029   3.2720560369e+01   8.2311821982e+00    0.3713192    0.2423697 -40.34  0.001944717    1.368    0.269
        33  -9.5017    204.3447    110.9165   3.8577529967e+01   1.7242049006e+01    0.3330455    0.2387591  30.61  0.001542034    1.842    0.457
        34 -13.4034     47.3381    152.4827   8.8567316659e+01   3.8287336564e+01    0.6779979    0.4390248 -23.53  0.002499628    2.241    0.554
        35 -11.7930    243.3158     95.3350   2.9004977233e+01   1.1862540931e+01    0.3471263    0.3231908  37.13  0.002185513    1.383    0.277
        36 -10.4630     53.3844     91.6956   7.4035966710e+01   5.2226105591e+01    0.3704313    0.2274325 -54.86  0.001067656    1.593    0.372
        37  -9.0504     83.5095    198.5372   8.6144279887e+01   2.1702586804e+01    0.2428215    0.1354261 -77.31  0.000914494    2.128    0.530
        38 -10.1575    166.5211     87.0135   3.9974136706e+01   3.0613801914e+01    0.2309936    0.1498898 -40.26 0.0005475733    1.578    0.366
        39  -8.9091     41.8158     81.1787   7.5424804912e+01   5.5839734353e+01    0.1830143    0.1747846 -49.79 0.0005995473    1.247    0.198
        40  -9.7727    184.0997     77.8883   3.4201561811e+01   2.8010117893e+01    0.2332103     0.183638  21.95  0.001136679    1.765    0.434
        41  -8.5861     31.2567     71.6093   7.6829631541e+01   5.8883617591e+01    0.1587991    0.1117356  -0.16 0.0007850404    1.461    0.315
        42 -12.4343    211.9797     57.9609   2.5116726088e+01   2.4680737029e+01     1.034397    0.5286729 -59.77  0.004600714    2.139    0.532
        43 -10.4982     80.8206    244.8766   9.2552955912e+01   1.1741410445e+01    0.4342065    0.2199124 -74.08  0.001909195    2.284    0.562
        44  -9.4741    249.3405    246.6678   5.8064129345e+01  -1.4880982148e+01   0.09968259   0.09729663  27.41 0.0007051483    1.748    0.428
        45 -11.9907    245.7293    164.0020   4.2946140999e+01  -9.8487027088e-01    0.7092921    0.1875911 -38.16   0.00230265    3.543    0.718
        46  -8.6202     78.3228     44.6613   5.0173118412e+01   5.7033624070e+01    0.1214145    0.1088309 -87.55 0.0007050799    1.719    0.418
        47  -8.1862    132.2809     43.7205   3.5050612498e+01   4.5728519485e+01    0.1310661    0.1056434 -83.21 0.0002231728    1.508    0.337
        48  -9.2792     19.0228     38.5048   7.1598469639e+01   6.6041753424e+01     0.147653   0.09045505  42.25 0.0008103998    2.624    0.619
        49 -10.9625     12.9527     59.7732   8.0956680657e+01   6.2711497031e+01    0.2977007    0.2420974  53.78 0.0006899718    1.908    0.476
        50  -9.5112    198.1626     24.0138   1.9212214496e+01   3.2424656822e+01    0.1879094    0.1464053  26.39  0.001082566    1.989    0.497
        51  -8.8151    103.6693    171.6719   7.6506109942e+01   2.4931394414e+01    0.1573974     0.122212 -19.05 0.0007051432    1.712    0.416
        52 -11.5391    230.6773    167.8479   4.6393454193e+01   8.8203927857e-01    0.5368591    0.2374375 -45.69  0.002194981    2.160    0.537
        53  -8.6812    189.4977     15.1152   1.8188345832e+01   3.5431658450e+01    0.1649245    0.1215253 -40.99 0.0007619252    1.514    0.340
