#   1 NUMBER                 Running object number                                     
#   2 MAG_AUTO               Kron-like elliptical aperture magnitude                    [mag]
#   3 X_IMAGE                Object position along x                                    [pixel]
#   4 Y_IMAGE                Object position along y                                    [pixel]
#   5 X_WORLD                Barycenter position along world x axis                     [deg]
#   6 Y_WORLD                Barycenter position along world y axis                     [deg]
#   7 A_WORLD                Profile RMS along major axis (world units)                 [deg]
#   8 B_WORLD                Profile RMS along minor axis (world units)                 [deg]
#   9 THETA_WORLD            Position angle (CCW/world-x)                               [deg]
#  10 FWHM_WORLD             FWHM assuming a gaussian core                              [deg]
#  11 ELONGATION             A_IMAGE/B_IMAGE                                           
#  12 ELLIPTICITY            1 - B_IMAGE/A_IMAGE                                       
         1 -12.0042    129.5719     23.2852   6.6433828276e+01   4.9277388998e+01    0.5567647    0.3195872 -30.57  0.002068263    1.949    0.487
         2 -11.5610     84.5431     20.4024   7.6748529897e+01   5.8276775839e+01    0.4822618    0.2869682  26.48   0.00276009    1.625    0.385
         3 -11.9729     20.9338     18.6877   9.8327522944e+01   6.6748710026e+01    0.3673344    0.3506675  16.96  0.001033284    1.738    0.424
         4 -11.7368      4.8027     18.6033   1.0490846485e+02   6.7989499541e+01    0.3904395    0.2420391  21.78   0.00262218    1.795    0.443
         5 -10.1922     34.8891     16.0499   9.1880785201e+01   6.5726840864e+01    0.3371414    0.1665406 -19.90  0.001948215    2.044    0.511
         6 -11.0405     64.5719     14.2854   8.0692171185e+01   6.2122787457e+01    0.4801089    0.1983712  23.23  0.001993502    3.659    0.727
         7 -11.7737     74.1582      7.0717   7.5067434549e+01   6.1364219798e+01    0.3468386    0.2004201 -27.57 0.0003265879    1.844    0.458
         8 -11.5638     75.7546     15.4791   7.7619227383e+01   6.0264962687e+01    0.4959127    0.2775843 -11.79  0.002782378    2.017    0.504
         9 -11.5957     70.4145     14.5623   7.8931685070e+01   6.1207204116e+01    0.3242753    0.1922412 -13.45  0.001171953    1.754    0.430
        10 -12.1053     81.1944      6.5260   7.2833170638e+01   6.0246926675e+01    0.4341254    0.2501973  25.36  0.002571128    1.656    0.396
        11 -11.6778     60.6480     23.0191   8.5157247075e+01   6.1685439025e+01    0.4014309    0.2791018 -54.25  0.002316137    2.641    0.621
        12 -10.1343    167.6626     14.1967   5.6986500699e+01   4.1779710359e+01    0.3404999    0.1455017  38.78  0.001335267    3.439    0.709
        13  -9.6368     50.9049     11.0744   8.4113622836e+01   6.4383537248e+01    0.2053544    0.1160974  -1.17 0.0008383555    1.949    0.487
        14 -10.2096    158.1125     13.2107   5.8243016091e+01   4.4046566836e+01    0.2423248    0.1472826 -60.02  0.001250272    2.137    0.532
        15 -10.2267    100.0134     13.1126   7.0085553351e+01   5.6255154442e+01     0.239133    0.1628627  -7.89   0.00115662    1.618    0.382
        16 -10.4722     55.1187     13.4330   8.3535638777e+01   6.3560132996e+01    0.1889552    0.1448282 -19.86 0.0003686075    1.300    0.231
        17 -10.4412     26.4351     13.9536   9.4401665122e+01   6.6853413450e+01    0.1846747    0.1159204  -7.42 0.0003419821    1.371    0.270
        18  -9.8614    138.8474     12.5318   6.1430442736e+01   4.8385884381e+01    0.3450168    0.1944854 -82.77  0.001384749    3.806    0.737
        19 -10.7480    115.8917      3.3267   6.3253129740e+01   5.4034688005e+01    0.2690891    0.1629802 -11.06 0.0006722705    2.002    0.501
        20 -10.6279    118.4643     12.0742   6.5420779241e+01   5.2731873949e+01    0.2267395    0.1996448  32.57   0.00142306    1.074    0.069
        21 -10.6827    117.2168      8.0495   6.4441110480e+01   5.3356710890e+01    0.2348441    0.1961623 -27.89 0.0009849416    1.401    0.286
        22  -9.7183      5.2778     11.6960   1.0231659927e+02   6.8903001919e+01    0.1443393   0.08296887 -19.73  0.001037534    1.371    0.271
        23  -9.9653    185.6697     11.0443   5.3649728795e+01   3.7988433450e+01    0.1985536    0.1450754  81.58 0.0004010518    1.212    0.175
        24 -12.2141     24.2895      6.3044   9.2347940939e+01   6.7982602914e+01    0.5363209    0.2961858  -3.94   0.00291853    1.781    0.438
        25 -13.0387     32.0534      2.0612   8.7580907055e+01   6.7638692535e+01    0.2606335    0.1564497  21.36 0.0006112067    1.430    0.301
        26  -9.5938    107.8366      9.8119   6.7104325288e+01   5.5066717519e+01    0.1467086    0.1380822  62.19 0.0007275311    1.258    0.205
        27 -10.4852     59.5370     10.1838   8.0825525551e+01   6.3290425370e+01    0.1983084    0.1398729  35.15 0.0006532411    1.355    0.262
        28  -9.8534      6.3780      7.8726   1.0045381051e+02   6.9322405717e+01        0.145    0.1248818  10.59 0.0006106014    1.585    0.369
        29  -9.8124     10.8375      9.6066   9.9191789858e+01   6.8765879180e+01    0.1661078     0.142046 -24.76 0.0007182328    1.507    0.336
        30 -12.1504     11.6974      2.5199   9.6120492885e+01   6.9565148963e+01    0.3999256    0.2142001   2.32   0.00206527    1.778    0.438
        31 -11.2267     16.8194      2.3080   9.3859557782e+01   6.9146235533e+01     0.425126    0.1285226 -38.71  0.001657109    3.110    0.678
        32 -10.5816    178.0175      9.0229   5.4199142381e+01   3.9943498056e+01    0.1976725    0.1284338  44.90 0.0004679439    1.655    0.396
        33  -9.9874    128.1193      8.8761   6.2436562246e+01   5.1025442030e+01    0.1801164     0.153787  79.53 0.0006309701    1.312    0.238
        34 -10.3433     91.9843      7.1270   7.0120585222e+01   5.8297851792e+01    0.2869766    0.1676491   2.76  0.001514954    2.085    0.520
        35 -10.3501    146.7387      6.4836   5.8326954576e+01   4.7224461327e+01    0.3072259    0.1506876 -48.51  0.001480055    2.677    0.626
        36 -10.4537    228.7530      5.8494   4.7692637058e+01   2.8883562700e+01    0.2237147     0.141574  85.95  0.000547369    1.335    0.251
        37  -9.8746     59.7294      5.6539   7.9053139749e+01   6.3718773051e+01    0.2280332    0.1227847  44.84  0.001371894    1.889    0.471
        38  -9.9667    176.8373      4.1560   5.3186857051e+01   4.0688047741e+01    0.1658873    0.1254678  51.33   0.00033057    1.314    0.239
        39  -9.7647    167.8656      2.1546   5.3927524773e+01   4.2902161578e+01    0.1802399     0.144394 -86.20 0.0004555436    1.249    0.200
        40  -9.0198    139.3190      1.6921   5.8271868192e+01   4.9261958089e+01    0.1168491   0.08806802 -80.49 0.0004299743    1.637    0.389
        41 -10.4698     66.7548    226.8264   1.2622826976e+02   1.8879800882e+01    0.3256865    0.1825661  63.32  0.001113535    1.683    0.406
        42 -10.2216    247.2182    249.8123   9.4400143086e+01  -1.4714249634e+01    0.2649518    0.1705216   2.66  0.001447122    1.668    0.400
        43 -10.5412    250.3793    246.0921   9.3200968400e+01  -1.4657124707e+01    0.4039287    0.1467592 -35.33  0.001852988    2.806    0.644
        44 -12.5288    232.7360    246.9292   9.6557810255e+01  -1.2193810043e+01    0.6462121    0.4766951 -10.84  0.004070674    1.367    0.268
        45 -10.5086      5.7153    235.3934   1.3760395964e+02   2.4400192332e+01    0.3276593    0.1773448  54.98  0.001854003    1.601    0.375
        46 -12.6565     20.1071    248.3793   1.3614555768e+02   2.0366151942e+01    0.8344355    0.2043708  45.33   0.00400165    3.132    0.681
        47 -13.2506      6.8274    244.3996   1.3797413545e+02   2.2545151306e+01     1.031755    0.7739023  23.56  0.006984646    2.383    0.580
        48 -10.7935      9.6812    217.0161   1.3572696364e+02   2.7700706164e+01    0.2762321    0.1577923  68.17  0.001121008    1.499    0.333
        49  -9.6579     38.0166    217.4919   1.3071268164e+02   2.4552219962e+01     0.161244    0.1077755  46.77  0.000548072    1.533    0.348
        50 -11.5664    241.4183    211.7774   8.8700685806e+01  -8.1659542550e+00     0.395727    0.3216647  -8.50  0.002424196    1.164    0.141
        51  -9.5276    136.7901    216.3551   1.1067149306e+02   9.7627864373e+00    0.1994028    0.1245118  34.37 0.0009434177    1.713    0.416
        52 -10.6774     31.1108    215.6742   1.3182157162e+02   2.5732045247e+01     0.277964    0.1760831  38.39  0.001730635    1.828    0.453
        53  -9.5539    201.5414    215.5406   9.7093121212e+01  -1.9797045751e+00    0.1374273    0.1231512  13.26 0.0008066077    1.078    0.072
        54 -11.2250     21.1772    212.2617   1.3333990766e+02   2.7530611877e+01    0.3411069    0.1618803  64.05   0.00185296    2.038    0.509
        55 -10.1797    208.9659    212.0766   9.4979772939e+01  -2.6894059986e+00    0.2043865    0.1877994  12.71 0.0004523881    1.012    0.012
        56  -9.2775     76.3417    212.3124   1.2272060508e+02   2.0624610039e+01    0.1193446    0.1027343 -33.40 0.0007046419    1.700    0.412
        57  -9.9455      2.2978    212.3295   1.3666321710e+02   2.9364811382e+01    0.1520396    0.1375865  31.54 0.0006076653    1.691    0.409
        58 -11.8910      5.0801    208.0046   1.3587562309e+02   3.0005583479e+01    0.5380304    0.2431709  88.63  0.002922511    1.973    0.493
        59 -10.2910     10.7055    208.5449   1.3492289650e+02   2.9363287456e+01    0.1790071     0.149567 -65.91 0.0008458152    1.452    0.311
        60  -9.0506    184.3043    208.3678   9.9309965323e+01   2.5256045344e+00    0.1446247    0.1094823  -3.36 0.0007034859    1.746    0.427
        61 -11.5911     18.6796    202.9839   1.3302778991e+02   2.9761637704e+01     0.357267    0.2436385 -68.61 0.0008983006    1.353    0.261
        62  -9.8961    223.1156    201.2750   9.0170762640e+01  -3.2793919449e+00    0.3319773    0.2223103 -78.83  0.001313696    3.530    0.717
        63 -10.2691    175.2701    202.6862   1.0016897668e+02   5.3567531829e+00    0.2372428    0.2088708  70.46 0.0005283345    1.235    0.191
        64  -9.6291     34.4799    201.0634   1.2984744710e+02   2.8506213887e+01    0.1740263   0.09864347 -72.97 0.0005650083    1.473    0.321
        65  -9.2332    226.9864    197.0255   8.8605652941e+01  -3.2058060467e+00    0.1630271    0.1505609  -1.80 0.0006113565    1.007    0.007
        66  -9.5330     63.1541    243.8707   1.2855519242e+02   1.5905449739e+01    0.1478916    0.1307812 -83.46 0.0004780127    1.325    0.245
        67 -10.1211    215.3973    194.7691   9.0420108900e+01  -7.0244709559e-01     0.189138    0.1275038 -30.24  0.000370016    1.562    0.360
        68  -9.6470    232.3029    191.2983   8.6476054118e+01  -3.1203748201e+00    0.1372925    0.1019897  -1.80 0.0002453049    1.583    0.368
        69  -9.1743      1.6037    188.2059   1.3499627195e+02   3.4500608276e+01    0.1556682    0.0793394 -68.54 0.0005183783    1.559    0.358
        70  -9.8393    218.0000    186.9691   8.8369314487e+01   2.7483460069e-01    0.2337642    0.0779361 -43.02 0.0008042439    2.955    0.662
        71  -9.4772     61.7777    185.0343   1.2238021750e+02   2.8809954701e+01    0.1807955   0.09576622 -67.73 0.0008778628    1.684    0.406
        72 -11.3872     16.0764    182.6335   1.3170975166e+02   3.4446162705e+01    0.3973562     0.200751  86.85  0.002105521    1.958    0.489
        73  -9.9732    167.1994    183.5876   9.8303699160e+01   1.0907820654e+01    0.2094165    0.1405201  33.47 0.0009462287    1.605    0.377
        74  -9.7384      2.0099    180.2843   1.3426649294e+02   3.6173628574e+01    0.1566003    0.1199381  87.29 0.0005628914    1.084    0.078
        75 -10.2743    244.1767    178.5015   8.1742645492e+01  -2.9142563775e+00    0.2784743    0.1638027 -25.96 0.0009375199    1.915    0.478
        76 -10.7759    224.2317    178.3806   8.5429493167e+01   7.3050913561e-01    0.2527544    0.2350668 -55.33  0.000548103    1.166    0.142
        77  -9.6453     70.0576    177.8487   1.1954855212e+02   2.9362872493e+01    0.1918558    0.1535076 -37.63  0.000567237    1.600    0.375
        78  -9.2725     36.4367    178.4612   1.2706304873e+02   3.3352450769e+01     0.125507    0.1003954 -82.34 0.0002098985    1.016    0.016
        79 -10.1985    200.1860    176.7771   8.9888474522e+01   5.7077100369e+00    0.2044332    0.1729258  -1.55 0.0006066392    1.355    0.262
        80  -9.7449     46.2948    177.3955   1.2480192490e+02   3.2493111579e+01     0.213347    0.1284152  28.21  0.001129758    2.147    0.534
        81 -11.3132     18.1217    172.8006   1.3032128648e+02   3.6443916621e+01    0.4018377    0.1854387  72.32  0.001847672    2.825    0.646
        82  -9.5464     75.0800    170.9226   1.1735811081e+02   3.0285670095e+01    0.2123522     0.159509 -34.68  0.001117827    1.745    0.427
        83  -9.6265      4.6844    168.5020   1.3267990333e+02   3.8530593272e+01    0.2137906   0.08168795 -72.23  0.001073631    1.985    0.496
        84 -10.9769     51.1713    164.3465   1.2198341534e+02   3.4950838720e+01    0.4822917    0.2351616 -56.40   0.00233474    1.817    0.450
        85 -11.3305     44.5568    162.7247   1.2329593217e+02   3.6087206155e+01    0.3457407    0.1784638 -68.90  0.001423483    1.660    0.397
        86  -9.9916     47.8315    160.1753   1.2218028852e+02   3.6311888325e+01    0.2848709    0.2421754 -18.81  0.001284083    1.602    0.376
        87 -11.4414     36.1505    163.6977   1.2534944182e+02   3.6764890851e+01    0.5248272    0.2001341 -70.36  0.002294667    2.309    0.567
        88 -11.5094     36.9078    157.7773   1.2440893789e+02   3.8051085596e+01    0.2315048    0.1713957 -73.03 0.0002677054    1.109    0.099
        89  -9.7765     67.1892    165.1708   1.1833665590e+02   3.2736830461e+01    0.1922115     0.145712  80.07  0.001065271    1.351    0.260
        90  -9.4056    200.4661    162.5693   8.6859173507e+01   8.5499823314e+00    0.1462928    0.1436533 -70.62 0.0002014369    1.039    0.037
        91  -9.7454    238.7374    158.7329   7.8681722245e+01   1.7128763583e+00    0.2642666    0.1670753   0.49 0.0009419922    3.114    0.679
        92 -11.3379     22.4496    156.4884   1.2756655314e+02   3.9730388447e+01    0.3976544    0.3397827  53.98  0.002777805    1.342    0.255
        93  -9.0922    147.6665    156.3331   9.7206772603e+01   2.0937648246e+01    0.1617306    0.1205181  84.76 0.0007052239    1.732    0.423
        94 -10.3493     12.1521    153.1979   1.2950171341e+02   4.1335226460e+01    0.2390401    0.1635054   3.74  0.001183127    2.282    0.562
        95 -10.4204    178.1676    151.4687   8.9187081331e+01   1.5601577315e+01    0.2961535    0.2615042 -87.55 0.0009788026    1.238    0.192
        96  -8.9608      5.2510    149.9793   1.3068522444e+02   4.2571821715e+01    0.1442408   0.07775696 -72.52 0.0002474046    1.417    0.294
        97 -10.1968     27.0388    147.4447   1.2536057502e+02   4.1373966116e+01    0.1961656    0.1329634 -68.36 0.0003975294    1.183    0.154
        98 -10.6314     17.7549    146.7537   1.2746025430e+02   4.2329585930e+01    0.3174065    0.1805122 -20.59  0.001164154    3.229    0.690
        99 -10.4571     22.2537    144.4000   1.2609936356e+02   4.2485040420e+01    0.2018818    0.1527071  66.43  0.001306622    1.446    0.309
       100  -9.4209     25.2475    142.3262   1.2510340060e+02   4.2696380588e+01    0.1666129    0.1423152 -54.93 0.0001734524    1.194    0.162
       101 -10.1199     19.6728    140.1298   1.2615742121e+02   4.3662785871e+01    0.2452478    0.1387466 -82.92   0.00133424    1.741    0.425
       102 -10.1563     16.0329    140.0000   1.2701578415e+02   4.3982340717e+01    0.2442186    0.1021417  19.03  0.001153761    3.489    0.713
       103 -11.1976     12.0840    145.4854   1.2862389900e+02   4.3061966352e+01    0.3848303    0.1931025 -85.57 0.0008002138    2.046    0.511
       104  -9.8149    207.0947    146.1631   8.1957134992e+01   1.0533530686e+01    0.2229812    0.2065414   3.54  0.000688442    1.195    0.164
       105  -9.8636     41.3266    146.1757   1.2172256338e+02   4.0275566272e+01    0.1766052    0.1376576 -75.38 0.0003829604    1.110    0.099
       106 -10.1343     49.5535    141.7299   1.1897635635e+02   4.0417178368e+01    0.2405351     0.164915 -37.99 0.0008181671    1.667    0.400
       107  -9.7133    240.1436    140.8187   7.4669390395e+01   4.8292668093e+00    0.1865774    0.1647405  -1.84 0.0004817064    1.314    0.239
       108 -10.2248     56.0406    137.7630   1.1664694086e+02   4.0591743988e+01    0.3560691    0.2043952 -86.48  0.001571913    2.441    0.590
       109 -10.9075      2.7535    136.4568   1.2972968348e+02   4.5719276450e+01    0.3369587    0.1023074 -64.85  0.001496801    2.278    0.561
       110  -8.7021    143.7012    137.3157   9.3965641185e+01   2.6085511481e+01     0.156762    0.1215506  89.40 0.0004362069    1.611    0.379
       111 -10.9097      9.2642    136.7211   1.2822007339e+02   4.5216534068e+01    0.2046774    0.1640225 -52.85 0.0002521257    1.241    0.194
       112 -10.4057     21.4069    135.9319   1.2516621967e+02   4.4464486218e+01    0.2185991    0.1818497  78.68  0.001068397    1.276    0.216
       113  -9.2135    137.6910    135.6633   9.5057710813e+01   2.7697841125e+01    0.1553728     0.123804 -10.60 0.0002783452    1.680    0.405
       114  -9.1909    250.3027    134.3184   7.1602880650e+01   4.0794202876e+00    0.1351416    0.1076186  -7.80 0.0006093681    1.625    0.385
       115 -10.1954    106.9610    133.2553   1.0234189523e+02   3.4126790777e+01      0.25772    0.2120458 -52.05 0.0009094573    1.157    0.135
       116  -9.4652    236.5586    138.4908   7.4794376644e+01   5.9796747059e+00    0.1427107    0.1308476 -42.78 -1.261613e-05    1.026    0.026
       117 -11.6519     37.5655    130.4466   1.2023372781e+02   4.4262870060e+01    0.4247371    0.2466219 -60.94  0.001422116    1.406    0.289
       118 -11.2166     33.1325    125.9086   1.2066003571e+02   4.5705552948e+01    0.2484918    0.2061131  54.99 0.0003642059    1.411    0.291
       119  -9.1641    227.3105    131.7226   7.4960351629e+01   9.1656816930e+00    0.1433333    0.1113612 -79.10 0.0002873307    1.559    0.358
       120 -10.4244     74.0462    129.5193   1.1033198542e+02   4.0193141573e+01    0.2718667    0.2103559 -51.14 0.0007683195    1.176    0.150
       121 -11.4647     10.5042    122.4505   1.2602742792e+02   4.8268021374e+01    0.2519238    0.2152755 -66.90  0.001138602    1.101    0.092
       122 -11.1883      2.4108    123.4790   1.2821035944e+02   4.8566359327e+01    0.5092156    0.1175587 -60.95  0.002118506    2.690    0.628
       123  -9.9213    226.0177    124.2234   7.3541328481e+01   1.0889588271e+01    0.1898143    0.1207037  51.93 0.0008757139    1.669    0.401
       124  -9.5715    219.5655    124.4999   7.4758372654e+01   1.2211632548e+01    0.1477914    0.1367946 -59.30 0.0002262411    1.015    0.014
       125  -9.5918     32.8218    119.1245   1.1961037287e+02   4.7250133833e+01    0.1734833    0.1198743 -46.64 0.0004845435    1.304    0.233
       126 -11.8286     16.9890    115.8262   1.2334688972e+02   4.9257332652e+01    0.3883063    0.2065183 -55.47  0.001687633    1.458    0.314
       127  -9.6458    220.4362    117.0018   7.2921710833e+01   1.3480783617e+01    0.2231327    0.1361114 -45.21 0.0004650247    1.545    0.353
       128 -10.4860     51.0520    116.3893   1.1406489136e+02   4.6042296341e+01     0.311422    0.1566488 -55.72  0.001520057    1.667    0.400
       129  -9.2826    214.1879    115.6012   7.3730242724e+01   1.5119834473e+01    0.1975349     0.138987  41.57 0.0005672092    1.601    0.375
       130  -9.1898    166.4363    115.5319   8.3436338215e+01   2.5906840053e+01    0.1534279    0.1478997 -79.20 9.923138e-05    1.015    0.015
       131  -9.2676     71.9732    115.6912   1.0802356438e+02   4.3626950965e+01    0.2059962    0.1129902   5.29 0.0007042809    4.229    0.764
       132 -10.2849     35.0556    114.3113   1.1814999237e+02   4.8113185927e+01    0.2595125    0.1477505 -60.86  0.001006826    1.457    0.313
       133 -12.0653     35.3614    108.2791   1.1694969287e+02   4.9405297746e+01    0.3954574    0.2661893  87.90  0.001228167    2.043    0.511
       134 -12.3454     15.6210    109.3381   1.2268351720e+02   5.0757129577e+01    0.4353382    0.3436282 -17.07 0.0008745629    1.503    0.335
       135 -11.6157     23.1719    107.2942   1.2023297406e+02   5.0641695205e+01    0.3218365    0.2637759  50.60  0.002203053    1.516    0.340
       136 -10.6672    249.0146    111.9890   6.7119213404e+01   8.4326828853e+00    0.2191491    0.1881955 -57.18 0.0006191776    1.038    0.037
       137  -9.1186    223.3493    111.7333   7.1229740467e+01   1.3856333971e+01    0.1476082    0.1097502 -82.53  0.000698679    1.618    0.382
       138 -10.8527     55.5850    109.1017   1.1129399233e+02   4.7145010709e+01    0.3863296    0.2424486 -33.68  0.002015007    1.715    0.417
       139 -10.0088     91.5033    107.9633   1.0072358904e+02   4.2434982980e+01    0.1944421    0.1877286 -24.81 0.0003348898    1.046    0.044
       140  -9.4159    103.7909    107.4419   9.7167012525e+01   4.0476378730e+01    0.1907144    0.1396713  23.86 0.0005621627    1.578    0.366
       141 -10.0766     62.5319    106.5466   1.0872604292e+02   4.6872611257e+01     0.268206    0.1473584 -33.93 0.0006763431    2.085    0.520
       142 -11.3758      6.3647    105.7822   1.2466165983e+02   5.2114309556e+01    0.3419992    0.1666364 -57.21  0.001882873    1.509    0.337
       143 -10.8153      2.4393    105.6924   1.2571930283e+02   5.2361521968e+01     0.212553    0.1453106 -53.65 0.0006322101    1.154    0.134
       144 -12.7511      2.8537    100.4608   1.2480027592e+02   5.3432324007e+01    0.2565442    0.1910023 -61.17 0.0004155243    1.046    0.044
       145 -11.1550      1.3901     95.7610   1.2446186842e+02   5.4483463078e+01    0.3759018   0.09909478 -57.64 0.0003553156    2.399    0.583
       146 -10.2978    243.4915    104.5204   6.6378158778e+01   1.0912175077e+01    0.1394973    0.1259163 -58.97 0.0001045891    1.038    0.036
       147  -9.8892    223.3399    104.0235   6.9502706087e+01   1.5308876303e+01    0.2084542    0.1706287 -51.69 0.0004138329    1.143    0.125
       148  -9.3018     93.3294    104.2723   9.9304446888e+01   4.2933998226e+01    0.1399732     0.107785 -10.85 0.0004142561    1.587    0.370
       149 -10.9280    247.6544    102.1486   6.5249922927e+01   1.0480790939e+01    0.2377613    0.1853594  80.48 0.0009323545    1.395    0.283
       150 -10.5320     36.2787    101.6310   1.1538954263e+02   5.0753150705e+01    0.2964275      0.20896  42.28  0.001539768    1.739    0.425
       151  -9.4838    119.5086    101.4758   9.1389377405e+01   3.8822530059e+01    0.1478238    0.1388031 -10.32 4.448285e-05    1.098    0.089
       152 -10.5404     91.4953    100.9248   9.8991784893e+01   4.3943486430e+01     0.215005    0.1309509 -48.46  0.001018533    1.547    0.354
       153  -9.5692    145.4983    100.4999   8.4535322800e+01   3.3645782169e+01     0.148733    0.1470345  83.60 -0.0003443984    1.002    0.002
       154 -11.3238     62.3750     98.4501   1.0693025556e+02   4.8628917180e+01    0.2817701    0.2510155 -17.00 0.0004528947    1.142    0.124
       155 -10.5709     66.7277     97.3569   1.0537044963e+02   4.8307250660e+01    0.4003385    0.1600568 -44.48   0.00166939    2.274    0.560
       156  -9.4168     50.5757     99.4488   1.1068632643e+02   4.9789493753e+01    0.1286888    0.1078772 -43.50 4.946151e-05    1.026    0.026
       157 -11.4480     20.3082     96.8331   1.1916400663e+02   5.3073749967e+01    0.3866483    0.1714543 -67.27  0.001895557    2.190    0.543
       158 -10.1260     57.2932     96.0081   1.0788789777e+02   4.9755991473e+01     0.326639    0.1409048 -46.31   0.00147323    2.004    0.501
       159  -9.3331    249.5096     95.4992   6.3583606287e+01   1.1276372550e+01    0.1387622    0.1198174 -64.20 -0.000164692    1.016    0.015
       160 -10.0945     31.4644     93.2901   1.1512794971e+02   5.2932286976e+01    0.3391553    0.1545762 -65.70  0.001549773    2.322    0.569
       161 -11.1200     25.6642     91.4850   1.1651922591e+02   5.3778828165e+01    0.2668423    0.2173338 -20.84  0.001028961    1.282    0.220
       162  -9.6167    162.7872     92.0078   7.8330606359e+01   3.1447605509e+01    0.2376323    0.1773629  -4.47 0.0007021172    1.971    0.493
       163 -10.3742    103.9830     92.0178   9.3138347265e+01   4.3651783467e+01    0.2084525    0.1946774 -15.92 -0.005334738    1.041    0.039
       164  -9.7857    103.7030     88.6924   9.2322523875e+01   4.4362176447e+01    0.1896275    0.1707015 -80.81 0.0003598988    1.340    0.254
       165 -12.5053     44.7036     75.3454   1.0680334170e+02   5.5285731259e+01    0.2559629    0.2460202 -50.64  0.000329107    1.260    0.206
       166 -11.4102     37.7904     70.3199   1.0779349969e+02   5.6917649630e+01    0.4569588    0.3576018 -68.80  0.001475299    1.638    0.390
       167 -11.5194     29.7621     67.0915   1.0966289617e+02   5.8234819046e+01    0.5972019    0.2609451 -29.61  0.002507757    2.630    0.620
       168 -10.5471     48.2063     90.5224   1.0938735946e+02   5.1907845046e+01    0.4152031    0.1859982 -44.02  0.001540908    1.936    0.483
       169 -10.6289     47.4436     84.4449   1.0818522485e+02   5.3219678804e+01    0.3636142    0.3104017  84.63  0.001787107    1.616    0.381
       170 -11.3530     40.4375     81.2213   1.0963375738e+02   5.4566372519e+01    0.4178749    0.2857125  60.78  0.001673742    2.438    0.590
       171 -11.2608     10.4593     90.8690   1.2097866399e+02   5.4965627444e+01    0.2878295     0.217388  23.98  0.001296735    1.651    0.394
       172 -10.7011    158.0085     90.1914   7.8925926596e+01   3.2880503691e+01    0.2703349    0.2201508 -41.59  0.001376326    1.254    0.203
       173 -10.6105     96.1097     90.5298   9.4975682530e+01   4.5318283499e+01    0.3897358    0.2308158  10.51  0.001510078    3.051    0.672
       174 -10.8856     22.9104     86.9961   1.1644495368e+02   5.4906047585e+01    0.2467572    0.1682265 -50.61 0.0003537009    1.159    0.137
       175 -10.2026    171.2327     90.4080   7.6093843385e+01   2.9806853761e+01    0.2183676    0.1411315  64.41 0.0009542904    1.697    0.411
       176  -9.1411    139.2904     87.6828   8.2662050382e+01   3.7501366810e+01    0.1460939    0.1168654 -82.33 0.0007006155    1.597    0.374
       177 -12.6226     17.7457     66.5397   1.1358781579e+02   5.9258038716e+01    0.6439118    0.3523081 -35.64  0.001253038    1.552    0.356
       178 -10.6293      4.2498     86.0936   1.2197029098e+02   5.6292226087e+01    0.3142796    0.1934711 -58.47  0.001807725    1.246    0.198
       179 -12.4057     21.3788     77.8618   1.1497886681e+02   5.6837671242e+01    0.4800762    0.3071478 -55.51 0.0009322496    1.321    0.243
       180 -10.1375     14.8950     83.8143   1.1828066405e+02   5.6109230726e+01    0.3108431    0.1627659 -41.40  0.001401905    1.598    0.374
       181 -12.8599     13.3597     77.6644   1.1750540162e+02   5.7424244961e+01    0.3768259    0.2021224 -41.57  0.000998118    1.511    0.338
       182 -10.9977      3.6518     79.3348   1.2089827003e+02   5.7665142385e+01    0.3184052    0.2208683  40.79  0.001931853    1.959    0.490
       183 -11.6491      7.1918     74.0892   1.1873889935e+02   5.8490133981e+01    0.4811754    0.2928648  -1.82  0.003126839    1.961    0.490
       184 -10.3446    112.1580     85.6078   8.9133444006e+01   4.3405627796e+01    0.3000085    0.2363793  73.69  0.000934264    1.708    0.414
       185 -10.7238     66.6744     85.3623   1.0240401733e+02   5.0768585207e+01    0.3369224    0.2155395 -21.04  0.001169113    1.859    0.462
       186 -10.3339    167.3717     84.1941   7.5315579234e+01   3.1849010654e+01    0.4052677    0.2338272  70.81  0.001582406    2.383    0.580
       187 -10.3946    117.9609     82.8469   8.6800759759e+01   4.2811544681e+01     0.258072    0.2009034 -35.68 0.0009046727    1.287    0.223
       188  -9.7007     88.0019     83.3425   9.5399344722e+01   4.8065371955e+01    0.1786443    0.1689466  -3.47  0.000377284    1.056    0.053
       189  -9.7714     29.9970     81.7093   1.1307917464e+02   5.5406758914e+01    0.1612787    0.1378717 -27.40  0.001134996    1.121    0.108
       190 -10.1776     70.7770     79.1986   9.9500999180e+01   5.1422601179e+01    0.1839965    0.1392655 -17.74 0.0005912785    1.355    0.262
       191 -10.1861    150.7200     77.5841   7.7229244669e+01   3.6837093301e+01    0.2587466    0.1966247 -40.87  0.001308695    1.359    0.264
       192 -10.7104     91.6355     77.0622   9.2577483852e+01   4.8664181632e+01    0.3270214    0.2757336 -74.62  0.001846245    1.596    0.373
       193 -11.9260     58.1284     74.3538   1.0219169397e+02   5.3975737165e+01    0.4199291    0.3338302  76.79 0.0004749697    2.082    0.520
       194 -11.8285     62.7006     71.8480   1.0003566307e+02   5.3875904489e+01    0.3268315    0.2878991 -22.94  0.001161467    1.036    0.034
       195  -9.4438    122.1782     76.3685   8.3870921533e+01   4.3161667313e+01    0.1988788    0.1312467  55.41 0.0008551829    1.664    0.399
       196 -11.3600     76.3917     71.3897   9.5577838022e+01   5.2084324294e+01    0.4792718    0.3791052  35.60  0.002843905    1.353    0.261
       197  -9.7311     33.3236     75.8500   1.1064159201e+02   5.6270423630e+01    0.1684789    0.1236399 -40.51 0.0006277399    1.105    0.095
       198 -10.9222    138.8342     75.0144   7.9309570010e+01   3.9913411135e+01    0.2391187    0.2023416  55.38            0    1.178    0.151
       199 -10.9585    109.0174     74.4481   8.6861957953e+01   4.6067770596e+01    0.3118039    0.2478094 -59.66  0.001676337    1.522    0.343
       200  -9.8106    145.5259     73.9004   7.7420170301e+01   3.8640555359e+01    0.2193683    0.1429406 -38.95  0.001032568    1.593    0.372
       201 -10.1926    102.4347     73.1474   8.8331230120e+01   4.7510002306e+01    0.2699859    0.1764744  56.20  0.001302862    1.915    0.478
       202  -9.9362    128.9196     71.6284   8.0799569654e+01   4.2611611541e+01    0.2034068    0.1845965 -34.56 0.0002519576    1.133    0.117
       203 -10.3146     83.9887     72.3330   9.3515511798e+01   5.0762598717e+01    0.1766963    0.1578696  14.88 0.0003082648    1.107    0.096
       204  -9.6583    161.0231     69.7186   7.2854984930e+01   3.5843312394e+01    0.1975306    0.1769154  51.64 0.0002816622    1.079    0.073
       205 -12.0748     94.4203     68.3729   8.9250488088e+01   4.9757929548e+01    0.3703759    0.2448557 -32.00  0.001939581    1.503    0.335
       206 -11.0980     50.9444     67.9583   1.0279298605e+02   5.5999642216e+01    0.4076136    0.2205528 -24.43     0.001844    2.155    0.536
       207 -10.9330     51.2521     63.5969   1.0147195755e+02   5.6751391029e+01    0.3325964    0.1778164 -32.66  0.001208787    1.774    0.436
       208  -9.7352    145.2606     69.1771   7.6179499552e+01   3.9503732843e+01    0.2409772      0.15338  14.49 0.0009506166    2.754    0.637
       209  -9.9575    123.0452     68.4303   8.1380324047e+01   4.4368702406e+01    0.2116698    0.1782178 -34.23 0.0005539368    1.217    0.178
       210 -10.8744    102.9380     68.0046   8.6690294727e+01   4.8320244785e+01     0.213988    0.1904977   6.03 0.0008161864    1.081    0.075
       211 -10.5398      6.6638     67.7188   1.1756526617e+02   5.9732459691e+01    0.1745713    0.1381405 -30.28 0.0005556351    1.152    0.132
       212 -12.0597      3.8897     64.6929   1.1783162823e+02   6.0449852421e+01     0.260153     0.242769 -50.96 0.0004977221    1.297    0.229
       213  -9.6306    113.6498     67.3416   8.3538948281e+01   4.6421090733e+01    0.1380849    0.1114706 -86.44 0.0007043664    1.801    0.445
       214  -9.5229    128.6681     66.7071   7.9458691969e+01   4.3497013484e+01    0.1434508    0.1065436  16.55 0.0002943582    1.633    0.388
       215 -12.0586     60.7747     60.5413   9.7419145620e+01   5.6139202207e+01    0.6809363    0.4116752  26.42  0.003822335    1.722    0.419
       216 -10.4864     68.7616     68.2566   9.7080527410e+01   5.3729710708e+01    0.4180479    0.1519057 -43.97 0.0009021838    2.523    0.604
       217 -10.7961     77.4113     63.7246   9.3020892838e+01   5.3288281170e+01    0.3342728      0.24893 -35.30  0.001241365    1.265    0.209
       218  -9.6398     41.7483     64.6876   1.0497476955e+02   5.7571197778e+01    0.1469774    0.1318436 -54.06  0.001025225    1.341    0.254
       219 -10.1534    215.6748     64.1557   6.1700642468e+01   2.3980307726e+01    0.2235884    0.1723017  83.13  0.000491164    1.258    0.205
       220 -10.4318     82.4410     50.1772   8.7288581223e+01   5.4709808073e+01    0.3004281     0.103227  39.88  0.001219554    2.861    0.650
       221 -11.3148     84.8902     61.7782   9.0129899926e+01   5.2461094643e+01     0.447701    0.3257339  24.09  0.002562541    1.376    0.273
       222 -10.2232     86.7202     56.6222   8.8000582445e+01   5.3010169061e+01    0.2523408    0.1783756  11.61 0.0007763371    1.554    0.356
       223 -11.2641     87.1934     52.5680   8.6596888057e+01   5.3570695986e+01    0.3405041     0.220005 -42.85 0.0008299855    1.660    0.398
       224 -10.4671     11.0925     62.6559   1.1493167451e+02   6.0411679487e+01    0.1652035    0.1265069 -50.57 0.0003745665    1.176    0.149
       225 -10.9076    201.4289     61.7259   6.3349286531e+01   2.7668782554e+01    0.2430888    0.2227434  88.53  0.000308617    1.034    0.033
       226 -10.6682     45.4261     50.2137   9.9529830934e+01   5.9683147494e+01    0.3533449    0.1852886 -30.89  0.001941518    1.769    0.435
       227 -11.4072     29.5911     60.8752   1.0810965255e+02   5.9383135377e+01    0.5994714     0.214915  16.43  0.002558368    3.956    0.747
       228 -12.7571     37.3404     51.2884   1.0270183527e+02   6.0339666387e+01    0.7079976    0.4684198 -26.50  0.003259046    1.299    0.230
       229 -10.8539      5.4430     58.1856   1.1582935509e+02   6.1555974087e+01    0.3265508    0.1767158 -53.47  0.002094134    1.468    0.319
       230 -11.4306      5.2269     51.8997   1.1438991129e+02   6.2684079296e+01    0.3162368    0.1938106 -29.50 0.0008205444    1.364    0.267
       231 -10.1322     47.8430     58.3269   1.0111060953e+02   5.8055469241e+01    0.2044083    0.1760841 -58.90  0.001379103    1.511    0.338
       232 -10.1534     43.9315     57.0490   1.0208183261e+02   5.8696026121e+01    0.1802618    0.1449482 -23.18 0.0003368471    1.016    0.016
       233  -9.5233    120.2809     65.0051   8.1102138470e+01   4.5500572484e+01    0.1880402     0.175982 -10.63 0.0002497465    1.069    0.065
       234  -9.7698    146.9861     56.9624   7.2392816962e+01   4.1071449097e+01    0.2119293    0.1657006 -77.26 0.0004666902    1.625    0.385
       235 -10.6276    123.0390     56.5907   7.7923335389e+01   4.6280402583e+01     0.232944    0.1942516 -40.74 0.0003853533    1.289    0.224
       236 -12.5077    128.4026     50.4648   7.4793249657e+01   4.6079035939e+01     0.426919    0.3101467   5.25 0.0003354223    1.754    0.430
       237 -11.3119     75.2127     55.9240   9.1345146877e+01   5.4918929754e+01    0.2183444    0.1766171 -10.40 0.0002387378    1.138    0.121
       238 -10.2208    129.6811     55.9964   7.6108415889e+01   4.4988286168e+01    0.1882371    0.1717851 -25.88 0.0004725624    1.151    0.131
       239 -10.9565     99.9076     55.6743   8.3842689532e+01   5.0890885864e+01    0.3506451    0.1752874  45.56  0.001208565    1.986    0.497
       240  -9.8748     61.8085     54.0291   9.5109864088e+01   5.7098102405e+01    0.1751519    0.1653931 -34.58 0.0008306935    1.315    0.240
       241 -10.8888     12.6149     51.6880   1.1168285919e+02   6.2273656102e+01    0.2434799    0.1684663 -55.90  0.001692851    1.468    0.319
       242  -9.7034    143.4989     52.9745   7.2039554879e+01   4.2445505429e+01    0.1966522    0.1377845 -33.81 0.0006493586    1.539    0.350
       243 -11.0830    117.9683     53.6913   7.8349791406e+01   4.7749468357e+01    0.3704308    0.2928351  31.22  0.002112538    1.218    0.179
       244 -11.1058     69.8894     50.3753   9.1315104453e+01   5.6577872079e+01    0.3322702    0.2917458 -78.90  0.002101456    1.829    0.453
       245 -11.2575    103.6670     48.1882   8.0471885211e+01   5.1328763172e+01     0.540807    0.1668599 -35.60  0.002003945    3.388    0.705
       246  -9.6984    220.7434     48.9347   5.7582444357e+01   2.5147431126e+01    0.1814235     0.154016 -71.60 0.0003034262    1.074    0.069
       247 -11.3214    152.4451     47.8582   6.8702589835e+01   4.1173669820e+01    0.7230902    0.2257188  51.17  0.002608276    2.812    0.644
       248  -9.7011    114.1825     48.4157   7.7729406374e+01   4.9278106317e+01    0.1910004    0.1228279  58.72 0.0009532909    1.781    0.439
       249  -9.0545    120.2860     47.3120   7.5839385030e+01   4.8211270376e+01    0.1341712   0.09767392  16.79  0.000699193    1.578    0.366
       250 -10.5217     78.7358     47.2363   8.7497842853e+01   5.5737954511e+01    0.1719354    0.1295339   3.24 0.0009972783    1.311    0.237
       251 -10.6161     60.4355     46.1288   9.3084853779e+01   5.8530167211e+01    0.3413788     0.231913  45.25  0.001773683    1.895    0.472
       252 -11.0983     11.1844     44.3034   1.1022380212e+02   6.3621326963e+01     0.389106    0.1804127 -34.61   0.00149143    1.748    0.428
       253 -10.5712      4.5119     47.0000   1.1340924345e+02   6.3570092944e+01    0.2871835    0.1226199 -30.72  0.001629971    2.117    0.528
       254 -10.3915      6.9944     41.3094   1.1096540602e+02   6.4378912607e+01    0.2575071    0.1044158 -45.50  0.000908879    1.811    0.448
       255  -9.3376    233.3646     45.7658   5.5291617859e+01   2.2778148327e+01    0.1619068    0.1217823 -34.70 0.0006278345    1.571    0.364
       256 -10.1902    142.6205     45.6580   7.0153929438e+01   4.3683358352e+01    0.2679756    0.2143643 -78.93 0.0007861332    1.576    0.365
       257 -11.4722     89.1628     39.1113   8.1696298379e+01   5.5191705449e+01    0.4707026    0.2667816 -12.76  0.002271065    2.331    0.571
       258  -9.1189     18.6123     46.2792   1.0802675719e+02   6.2777434641e+01    0.0933353   0.08543728  56.70 0.0007001624    1.733    0.423
       259  -9.8113     51.1934     44.8468   9.5839564028e+01   5.9881785018e+01    0.2063757    0.1288395 -27.39 0.0003672653    1.438    0.305
       260 -10.9223     52.0915     41.0415   9.4296638885e+01   6.0353610817e+01    0.2185145    0.2103682 -70.21  0.000475177    1.622    0.383
       261 -10.2494    122.1545     42.7671   7.4003662183e+01   4.8456827769e+01    0.3116341    0.2352024 -58.42  0.001712052    1.746    0.427
       262  -9.2987    175.2546     43.6348   6.3268578962e+01   3.6487666221e+01    0.1376668   0.09824731 -69.18 0.0006964354    1.628    0.386
       263 -10.8129     42.3967     39.6186   9.7273276252e+01   6.1679575093e+01    0.5488581    0.2900598 -41.45  0.003201686    1.749    0.428
       264  -9.7333    110.7225     41.9476   7.6632329806e+01   5.0858366736e+01    0.1705525    0.1624891   7.30 0.0004280484    1.106    0.096
       265 -11.3434     97.5352     41.0060   7.9904787261e+01   5.3462608413e+01    0.3155235    0.2396953  42.32 0.0006494239    1.273    0.214
       266 -10.8974     96.9455     37.0014   7.8777839275e+01   5.4103418575e+01      0.25769    0.2371534 -80.24  0.000396707    1.522    0.343
       267 -11.3219     98.0011     31.8036   7.6792308392e+01   5.4571259294e+01    0.2833228    0.2022329  25.54 0.0003791236    1.325    0.245
       268 -10.8873    101.0947     28.7809   7.4969458418e+01   5.4364524222e+01    0.2141444     0.207003 -85.55 0.0004746346    1.358    0.263
       269 -11.8283     27.8274     37.8792   1.0208132338e+02   6.3379169340e+01    0.3492135    0.2173713 -36.69   0.00138816    1.332    0.249
       270 -12.1433     20.5413     37.5425   1.0472812391e+02   6.4042186254e+01    0.3072059    0.2216681 -51.12  0.001610136    1.601    0.375
       271 -12.4812     24.1170     35.1981   1.0263577730e+02   6.4112013647e+01    0.4526422    0.2856445 -14.29 0.0003184671    1.434    0.303
       272  -9.4894    220.4251     41.5212   5.6005193698e+01   2.6279348587e+01    0.1323649    0.1124409 -84.27 9.376788e-05    1.011    0.011
       273 -10.5285    183.8987     41.1376   6.1190650851e+01   3.4802588479e+01    0.2064754    0.1702978 -81.42 0.0004795223    1.216    0.178
       274 -10.1484     80.1223     26.1398   8.0035648490e+01   5.8355763856e+01     0.224839    0.1716226 -60.16 0.0006769537    2.280    0.561
       275  -9.7456     84.9946     35.0000   8.1573302006e+01   5.6442940129e+01    0.2308302    0.1121552  42.71 0.0004612569    1.941    0.485
       276 -12.4583     81.2746     37.5886   8.3559033349e+01   5.6709764051e+01    0.5333993    0.4463641 -67.55  0.002202067    1.943    0.485
       277 -10.1549     78.6164     31.1689   8.2216441896e+01   5.7979469735e+01    0.1979488    0.1439333   3.76 0.0006424501    1.340    0.253
       278  -9.1802     71.9912     41.0190   8.7610007291e+01   5.7672160998e+01    0.1453724    0.1208077  -9.90 0.0003736117    1.071    0.066
       279 -10.7516     69.3260     38.0046   8.7469783902e+01   5.8490147379e+01    0.3351013     0.173199  -9.21  0.001410508    3.327    0.699
       280  -9.8109    226.2111     40.1791   5.4989678313e+01   2.5161812727e+01    0.1819425    0.1318867 -74.41 0.0005765109    1.288    0.224
       281  -9.4991    249.7023     38.3291   5.1938787219e+01   2.0300360565e+01    0.1335651   0.07927652 -69.92 0.0007027843    1.637    0.389
       282  -9.6609     61.9456     37.7520   8.9826890360e+01   5.9565727715e+01    0.1592672    0.1313413  -0.02 0.0002964973    1.020    0.019
       283  -9.2401    199.6246     37.7629   5.7982484685e+01   3.1579822259e+01    0.1320532   0.09211194  46.26 0.0006918373    1.619    0.382
       284 -10.5250    166.1670     36.6766   6.3059441995e+01   3.9525963648e+01    0.2963078    0.1582094  71.92   0.00128761    2.088    0.521
       285 -10.8676    101.8635     36.8302   7.7368276713e+01   5.3223448284e+01    0.2499108    0.1856747  21.02 0.0005245383    1.322    0.243
       286 -10.4550    104.7051     34.2855   7.5790816188e+01   5.3013741551e+01    0.2437634    0.2009467  76.27 0.0003653034    1.683    0.406
       287 -11.2988     10.7905     34.5697   1.0756962789e+02   6.5219082895e+01    0.3798214    0.2028824   7.49  0.001898237    1.992    0.498
       288 -10.7651     10.0567     25.2658   1.0495502437e+02   6.6678182366e+01    0.2374378    0.1391846 -12.34  0.001368548    1.547    0.354
       289 -10.0689      2.8254     37.1553   1.1139627963e+02   6.5298833037e+01    0.1933536    0.1256622 -12.13  0.001066841    1.423    0.297
       290 -11.1341      6.2026     30.8899   1.0825646036e+02   6.6087194220e+01    0.4716974      0.17306 -29.52   0.00193606    2.623    0.619
       291 -10.6495    150.8672     34.3368   6.5273042157e+01   4.3320252803e+01    0.2103626    0.1593312  40.40  0.000719909    1.310    0.236
       292 -11.0829     59.3209     34.2849   8.9543623775e+01   6.0404247558e+01    0.3757478    0.2014304  11.02  0.001625951    2.507    0.601
       293  -9.6448     34.2049     34.2201   9.8512456842e+01   6.3333726329e+01    0.1359476    0.1189194 -18.77 0.0007647472    1.274    0.215
       294 -10.5853    129.7964     32.6652   6.9183117493e+01   4.8150379839e+01    0.2024521    0.1714361  -1.89 0.0007828814    1.301    0.231
       295 -10.7883     18.1623     31.4444   1.0373375437e+02   6.5164280178e+01    0.3068538    0.1883427  30.56  0.002084745    1.979    0.495
       296  -9.4394    145.0307     32.0362   6.5780723836e+01   4.4909154272e+01    0.1559322    0.1384654  52.64 0.0003578581    1.004    0.004
       297 -10.0261     56.1739     31.1062   8.9532303918e+01   6.1253106670e+01    0.2326215    0.1335037 -23.30  0.001225636    1.673    0.402
       298 -10.7423     42.5560     31.8324   9.4625741986e+01   6.2800520481e+01    0.1813053    0.1402864  13.68 0.0004675995    1.226    0.184
       299 -11.0407    177.3466     30.0601   5.9480990358e+01   3.7759174218e+01    0.3348167    0.1902847 -44.38  0.001689309    1.897    0.473
       300  -9.6697     73.6221     31.2944   8.3817723572e+01   5.8747022609e+01     0.154524    0.1018973 -17.78 0.0002507385    1.496    0.332
       301 -10.1839     49.7030     31.3377   9.1880631333e+01   6.2037073101e+01    0.2023659    0.1345907  31.71   0.00101387    1.549    0.354
       302 -10.7839     50.7525     28.0026   9.0348889457e+01   6.2358567696e+01    0.2125508    0.1583549  -1.21 0.0002807211    1.130    0.115
       303 -10.0679    139.7906     29.5890   6.6143932487e+01   4.6357854171e+01    0.3189951    0.1629913 -10.82  0.001278059    3.479    0.713
       304  -9.8895    119.8217     28.3597   7.0155916914e+01   5.0742072324e+01    0.2892571    0.1768805  18.75   0.00099716    2.140    0.533
       305 -10.1289    153.7088     28.9701   6.3254126616e+01   4.3326670475e+01    0.1707618    0.1671161  88.03 0.0003872128    1.121    0.108
       306 -11.2694    214.0795     26.8069   5.3604448062e+01   2.9673150228e+01    0.3750751    0.2164236 -69.72  0.001115262    1.917    0.478
       307  -9.5488     21.4176     28.3474   1.0145550063e+02   6.5359386875e+01    0.1319652   0.08924834 -42.05 0.0009235907    1.476    0.323
       308 -10.2828    247.9578     27.0972   4.9946462597e+01   2.2185832957e+01    0.1868475    0.1455516 -80.13 0.0003314083    1.026    0.026
       309 -10.4348    181.0080    248.5251   1.0667369853e+02  -4.0602506582e+00    0.2911692    0.1294755 -34.25  0.001196237    3.325    0.699
       310 -10.4720    135.1064     22.6335   6.5085080322e+01   4.8162646254e+01    0.2882443    0.1640617  36.73  0.001049601    1.837    0.456
       311 -10.9722     70.0023     25.9936   8.3135613308e+01   5.9963842198e+01    0.3493647    0.2144554  41.83    0.0020924    1.646    0.393
       312 -10.1180     24.8994     26.9788   9.9638509954e+01   6.5255891330e+01    0.1622959    0.1224817 -16.22 0.0004450951    1.018    0.018
       313  -9.8028    146.0362     26.0408   6.3892393411e+01   4.5387305448e+01    0.1885086    0.1660417  58.50  0.001194484    1.028    0.027
       314 -10.5352     87.1338     24.7734   7.7499448721e+01   5.7339759522e+01    0.4154412    0.2357775  64.76  0.001832113    3.511    0.715
       315  -9.6614    156.6434    245.7279   1.1102423473e+02   6.0638147778e-01    0.1274068   0.09739843  16.75 0.0003406647    1.644    0.392
       316  -9.4034     16.5170     26.5487   1.0279114064e+02   6.6015811749e+01    0.1077452   0.07836335 -19.55 6.861137e-05    1.017    0.016
       317 -10.5348    237.3294     25.1281   5.0639201244e+01   2.4716591282e+01      0.17404    0.1364453 -68.21 0.0006974184    1.124    0.110
       318 -10.7499    197.0966     25.0676   5.5390090474e+01   3.3781159708e+01     0.192667    0.1671071  82.22 0.0004580566    1.037    0.036
       319  -9.3137    112.0346     24.9982   7.0964485325e+01   5.2693029094e+01    0.1469847    0.1316312  17.54 0.0004737736    1.085    0.078
       320  -9.9609    173.3403     24.4227   5.8696082434e+01   3.9357816835e+01    0.2419576    0.1056608  58.64 0.0006585232    1.933    0.483
       321  -9.8044     93.6192     23.8196   7.5351420880e+01   5.6307833507e+01    0.1611212    0.1091276 -36.45 0.0009518416    1.695    0.410
       322 -10.2460     54.3113     23.7513   8.7590779391e+01   6.2452455015e+01    0.2160986    0.1313744  21.95 0.0007215745    1.529    0.346
       323  -9.2154     97.4750     23.4871   7.4193998971e+01   5.5644323289e+01    0.1258566    0.1017127  23.59 0.0002958534    1.082    0.076
       324 -12.3028     74.4391    238.5441   1.2599135379e+02   1.5380290746e+01    0.7516905    0.4409021 -69.15  0.004294103    1.668    0.401
       325  -9.8712     15.1650     14.1525   9.9048318410e+01   6.7834682390e+01     0.130613    0.1174558 -24.83 0.0004003524    1.588    0.370
       326  -9.8082    120.4173     21.2776   6.7834151560e+01   5.1406710440e+01    0.1974961    0.1228902 -19.64 0.0004752554    1.860    0.462
       327  -9.2779     36.2907     22.6283   9.3742901837e+01   6.4737997473e+01    0.1425372    0.0876443  14.94 0.0007875688    1.522    0.343
       328  -9.6847     28.7230     21.5214   9.6254096250e+01   6.5654053354e+01    0.2791006    0.1224425 -17.32  0.001310657    3.209    0.688
       329  -9.6325    113.4703     20.4664   6.9185325586e+01   5.2900305532e+01    0.2041584    0.1068949 -40.49 0.0009168332    2.308    0.567
       330 -10.0036     45.7602     20.5865   8.9491750019e+01   6.3923052843e+01    0.1833909    0.1246688  30.45 0.0008334094    1.482    0.325
       331 -11.0664     37.3488    242.7021   1.3292863216e+02   1.9469231337e+01    0.2643543    0.1654189  60.26  0.001738384    1.321    0.243
       332 -10.8715     10.0943     15.4607   1.0162145859e+02   6.8054838838e+01    0.1934392    0.1228724 -12.21 0.0006290956    1.270    0.213
       333 -10.1297    161.9278     20.0989   5.9429029623e+01   4.2462204253e+01    0.1850666    0.1549481  85.73    0.0002711    1.195    0.163
       334 -10.4455    226.7189     18.9690   5.0517560239e+01   2.7807429086e+01    0.2310127    0.1509551  81.03 0.0005904983    1.326    0.246
       335 -11.3233     35.6827    239.6743   1.3297674031e+02   2.0268761745e+01    0.4275177    0.2166678 -47.92  0.002065439    3.668    0.727
       336 -10.2010    217.5389     16.5061   5.1005562053e+01   3.0142910825e+01    0.2976279   0.07958094  59.54  0.001157922    3.125    0.680
       337  -9.6657    108.5412     17.5344   6.9427813253e+01   5.4179017592e+01    0.1230268    0.1038445  34.40 1.975534e-05    1.002    0.002
       338 -10.6385    156.3454    240.8246   1.1036936641e+02   1.5326567654e+00    0.2373655    0.1658164 -74.89  0.001254033    1.909    0.476
       339 -10.1103     88.9814    240.9874   1.2353377481e+02   1.2731342166e+01    0.1729942    0.1565693 -29.54  0.001060899    1.697    0.411
       340  -9.1936     50.3334    240.3010   1.3050182367e+02   1.8322880272e+01    0.1007492   0.09086072 -54.08 0.0004023476    1.654    0.396
       341 -10.4133    195.7972    238.3236   1.0216617540e+02  -4.9036259945e+00    0.2764333    0.2042044  25.44  0.001378205    1.307    0.235
       342 -11.9681     27.8873    247.1767   1.3481968999e+02   1.9715425092e+01    0.4396642     0.241373 -88.98  0.002787071    1.522    0.343
       343  -9.5610    241.9883     16.7645   4.8546467953e+01   2.4760486927e+01    0.1509247   0.08666071  74.47 0.0002021935    1.528    0.346
       344  -9.9042     24.0456    232.3051   1.3439042568e+02   2.3084335674e+01    0.1959893    0.1312663  72.61 0.0008295001    1.170    0.146
       345 -10.5473     31.5075    237.4590   1.3351422876e+02   2.1202786440e+01    0.2487414    0.1515027  83.79  0.001011592    1.338    0.253
       346  -9.8456     49.8555     15.3261   8.6081757588e+01   6.4043578779e+01    0.2044508    0.1245148  34.05  0.001327861    1.583    0.368
       347 -10.4329     29.1838    232.9106   1.3356283343e+02   2.2383949967e+01    0.2663182    0.1574447  64.84  0.001108204    1.415    0.293
       348 -10.2281    159.8980    235.8888   1.0892011522e+02   1.8037351988e+00    0.2032105    0.1761363  20.28 0.0007672273    1.275    0.216
       349  -9.7280     46.9636    241.3537   1.3117786842e+02   1.8544411320e+01    0.1583025    0.1204743  66.96 0.0003780577    1.121    0.108
       350  -9.4930    231.3200    235.3295   9.4837284663e+01  -1.0269636499e+01    0.1310049   0.08863533   2.65 0.0004217174    1.689    0.408
       351  -9.8535    177.8078    234.8674   1.0516700325e+02  -1.1849685249e+00    0.1997206    0.1731559  16.68 0.0007834329    1.207    0.172
       352 -10.4302     30.8478     12.9699   9.2292916554e+01   6.6531008795e+01    0.1669301    0.1220046   2.32 0.0004284047    1.092    0.084
       353 -11.1095    153.5318    233.9602   1.0991068374e+02   3.2899797651e+00    0.2760384    0.2193629 -39.23  0.001047237    1.494    0.331
       354 -10.0007     85.9732    232.9601   1.2321606528e+02   1.4807737725e+01    0.2112233    0.1289579  70.89  0.000640909    1.645    0.392
       355  -9.8520     79.9139    231.4972   1.2421642812e+02   1.6016472478e+01    0.1833808    0.1093346  48.06 0.0004674775    1.521    0.342
       356  -9.7445    194.5321    215.4984   9.8498187738e+01  -7.0483314992e-01     0.136677    0.1267787  25.06 -2.497934e-05    1.003    0.003
       357 -10.9248     65.1318     21.2139   8.3021242569e+01   6.1260249827e+01    0.2367741     0.174089  23.73 0.0006800091    1.180    0.153
       358  -9.9297     72.5829    250.1073   1.2745968616e+02   1.3366583695e+01    0.1731812    0.1696846  21.65  0.001257702    1.591    0.371
       359 -10.0460    190.5486    227.1231   1.0133248879e+02  -2.0770218603e+00    0.3851184    0.1333246 -46.21  0.001463108    3.172    0.685
       360  -9.4843    249.3119    227.2989   9.0101159645e+01  -1.1816330280e+01    0.1267691   0.08577007   1.03 0.0003640797    1.603    0.376
       361 -10.1772    153.3027    227.3524   1.0894582701e+02   4.5847234098e+00    0.1328894    0.1075546  -2.00 0.0007039584    1.703    0.413
       362 -10.0236    129.8769    226.6431   1.1364863974e+02   8.8923109991e+00    0.2973656    0.1487773  55.04  0.001303129    2.053    0.513
       363  -9.9947     87.6152    227.2120   1.2223641273e+02   1.5746066191e+01    0.1736013    0.1120452 -58.26 0.0009505188    1.663    0.399
       364 -10.8778      4.9629    226.1505   1.3714058186e+02   2.6305019706e+01    0.2944215    0.1013567  57.56  0.001503503    2.651    0.623
       365 -10.8904    120.0765    226.4969   1.1563193962e+02   1.0616776579e+01    0.1997425    0.1207142  44.70 0.0004275499    1.508    0.337
       366 -10.0380    109.6390    242.9735   1.1982965299e+02   9.0818223662e+00    0.2867494    0.1592267  64.82  0.001147882    1.960    0.490
       367  -9.3616    156.3054    224.3533   1.0785609797e+02   4.6202406752e+00    0.1349781    0.1083083  -2.09  0.000704142    1.712    0.416
       368 -10.7004    122.8551    221.5295   1.1436089560e+02   1.1158785646e+01    0.3985951    0.2839677  72.85  0.002111445    1.503    0.334
       369  -9.4572    115.5284    244.5319   1.1888599812e+02   7.8189449841e+00     0.128777    0.1090703  61.86 0.0002489787    1.033    0.032
       370  -9.7114     13.3907    221.7816   1.3543367843e+02   2.6352886940e+01    0.1503578   0.08211645 -70.70 0.0005720651    1.578    0.366
       371  -9.3247      6.2980    222.3331   1.3666803124e+02   2.6944275178e+01    0.1010325   0.07222733 -62.10 0.0005295031    1.647    0.393
       372  -9.6711    141.9683    220.7340   1.1026443032e+02   7.9343419949e+00     0.206149    0.1653258  47.45  0.001153483    1.141    0.123
       373  -8.9908     73.2852    221.2770   1.2436965892e+02   1.9129055244e+01    0.1086293   0.09931216 -46.94  0.000183878    1.511    0.338
       374  -9.4762    250.5018    219.4508   8.8462327347e+01  -1.0804549936e+01    0.1265165     0.107125  -1.62 5.589531e-05    1.022    0.022
       375 -10.1104    174.5484    219.1749   1.0323264755e+02   2.2727486336e+00    0.2938156    0.1789436  26.82  0.001344082    1.943    0.485
