#   1 NUMBER                 Running object number                                     
#   2 MAG_AUTO               Kron-like elliptical aperture magnitude                    [mag]
#   3 X_IMAGE                Object position along x                                    [pixel]
#   4 Y_IMAGE                Object position along y                                    [pixel]
#   5 X_WORLD                Barycenter position along world x axis                     [deg]
#   6 Y_WORLD                Barycenter position along world y axis                     [deg]
#   7 A_WORLD                Profile RMS along major axis (world units)                 [deg]
#   8 B_WORLD                Profile RMS along minor axis (world units)                 [deg]
#   9 THETA_WORLD            Position angle (CCW/world-x)                               [deg]
#  10 FWHM_WORLD             FWHM assuming a gaussian core                              [deg]
#  11 ELONGATION             A_IMAGE/B_IMAGE                                           
#  12 ELLIPTICITY            1 - B_IMAGE/A_IMAGE                                       
         1 -14.7956      8.7369    204.9110   1.4513545471e+02   3.1972568966e+01     4.961519    0.9470703 -81.23   0.01156887    4.961    0.798
         2 -14.9437     15.3640    164.8456   1.4217276686e+02   3.8419344069e+01     5.222695     1.440162  89.13   0.02083513    4.737    0.789
         3 -13.1501    192.4971     29.7599   6.9703733109e+01   3.3100469939e+01     1.410642     1.292996  12.73  0.007659473    1.045    0.043
         4 -13.6526    205.6230     11.1086   6.1981805576e+01   3.1567744713e+01     1.700373     1.076897  29.48  0.007840048    1.749    0.428
         5 -13.2309      2.4517     12.0402   1.2627617182e+02   7.1617523827e+01     1.577222    0.5834045 -61.98  0.008038389    2.026    0.506
         6 -10.1786     82.5870    243.2519   1.3524148912e+02   1.8764628029e+01    0.1063914   0.08853406 -70.37  0.000594473    1.574    0.365
         7 -11.0062    248.8696    248.5206   1.0931748939e+02  -4.2135624073e+00    0.2794244    0.1944605   4.34  0.002280995    1.332    0.249
         8 -11.0599    139.9410    249.7662   1.2660134784e+02   1.0681395944e+01    0.2976875    0.1199714  37.80  0.001761889    1.885    0.469
         9 -11.2856    124.7122    249.8793   1.2904603037e+02   1.2685208455e+01    0.4206495    0.1092022  36.48  0.001844311    3.650    0.726
        10 -11.1286     97.8794    248.9010   1.3322074571e+02   1.6196009325e+01     0.283444    0.1891963  43.40  0.001529413    1.166    0.143
        11 -10.7220    101.4666    246.4713   1.3247534513e+02   1.6066965448e+01    0.2066119    0.1397281  87.35   0.00137185    1.824    0.452
        12 -11.8915     33.8600    246.9716   1.4285535196e+02   2.3435397012e+01    0.4697958    0.4336187  60.71  0.004872803    1.547    0.354
        13 -11.5002      5.5089    227.7326   1.4636868457e+02   2.8709023474e+01    0.3697339    0.3372161  59.64  0.003855692    1.537    0.349
        14 -11.4718      3.3425    248.7986   1.4723181775e+02   2.5901125142e+01    0.4132327    0.2258231  49.22  0.003611221    1.305    0.234
        15 -10.8528      1.9448    240.0999   1.4721349219e+02   2.7218312601e+01     0.342512    0.1250889 -85.86  0.002077856    2.538    0.606
        16 -11.6194     11.1880    239.6461   1.4588723138e+02   2.6510031466e+01    0.3159769    0.1339348  65.83  0.001415001    1.755    0.430
        17  -9.7787    185.8115    238.8076   1.1796962369e+02   5.4541495262e+00    0.1421587    0.1049641  45.76 0.0004985317    1.348    0.258
        18  -9.9927    233.9791    237.9427   1.1013893616e+02  -1.3587280821e+00    0.1432464    0.1178931  41.45  0.001021891    1.674    0.403
        19  -9.0546     24.8054    238.0621   1.4384873164e+02   2.5529123157e+01    0.1411858   0.07796607  61.68 0.0005189247    1.278    0.218
        20 -10.9616    107.2280    248.2217   1.3169326468e+02   1.5126672084e+01    0.2864966    0.1387522  61.57  0.001701769    2.335    0.572
        21 -10.7209     81.6990    249.0933   1.3575811537e+02   1.8092587010e+01    0.2349232    0.1227036  34.05  0.001630135    1.893    0.472
        22  -8.7833     69.5500    234.4492   1.3675175300e+02   2.1480449762e+01     0.096848   0.07111417  55.54 2.719429e-06    1.035    0.033
        23  -9.0383     94.4346    216.5507   1.3123775845e+02   2.1112228580e+01    0.2131993    0.1024515  58.78  0.000807632    2.096    0.523
        24  -8.7295    152.6009    212.8031   1.2045853575e+02   1.3460677643e+01    0.1234531     0.109271 -82.41 0.0003138016    1.519    0.342
        25 -11.3198     65.4214    197.6734   1.3489022322e+02   2.7642868052e+01    0.2690829    0.2013651 -46.54  0.001271537    1.923    0.480
        26  -8.9258     51.2752    197.0296   1.3742250896e+02   2.9308441572e+01    0.1404566    0.1038429  69.01 0.0003316854    1.084    0.077
        27  -9.7059    192.0150    193.1886   1.1051333683e+02   9.7115639165e+00    0.2778049    0.1677992 -63.58  0.001100725    5.297    0.811
        28 -11.5329     70.9724    189.9543   1.3321350921e+02   2.8309959098e+01    0.2090845    0.1949878 -78.18 0.0004630656    1.311    0.237
        29 -13.8540     46.2035    223.9677   1.3990887965e+02   2.5529028809e+01    0.8377998    0.4995853  56.83  0.004173555    1.232    0.189
        30  -8.9297    101.9522    178.1632   1.2586789903e+02   2.6346834714e+01     0.181453    0.1304249  63.16  0.000631427    1.357    0.263
        31 -10.7282     80.3852    177.2911   1.3015364091e+02   2.9392946300e+01    0.2011216     0.183077  89.42 0.0004896704    1.166    0.143
        32 -12.9699     67.4382    175.3748   1.3258196925e+02   3.1322614565e+01    0.3761031    0.2376392 -46.14  0.001517709    2.169    0.539
        33 -11.6081     87.4991    168.0479   1.2765317490e+02   3.0161724858e+01    0.5502042    0.4312319  52.56  0.003723445    1.127    0.113
        34  -9.9590    228.5710    228.0965   1.0959847631e+02   2.6601663160e-01    0.2110033     0.187941 -53.54  0.001251938    2.206    0.547
        35 -12.3721     67.3767    144.2862   1.2923075535e+02   3.7355148488e+01    0.7572398    0.4606852  76.62  0.004177527    1.891    0.471
        36 -11.8588     88.3905    151.2346   1.2531328282e+02   3.3258600526e+01    0.2376939    0.2229923 -32.06 0.0007085086    1.303    0.232
        37  -9.8059     99.7880    151.7726   1.2280833243e+02   3.1533747018e+01     0.256017     0.215583  45.27 0.0007688022    1.129    0.114
        38  -9.0326    102.7062    147.5613   1.2150684998e+02   3.1919448170e+01    0.2360757    0.1807013 -28.25  0.001353882    1.743    0.426
        39  -8.4976    134.5005    148.9860   1.1454834615e+02   2.6479172603e+01    0.1782939    0.1176889 -79.00 0.0008034181    2.543    0.607
        40 -12.4986     40.0604    231.9336   1.4127872532e+02   2.4962545044e+01    0.2315698    0.2014552 -89.32 0.0007833497    1.435    0.303
        41 -10.1272    173.7347    222.1514   1.1792318914e+02   9.0826232329e+00      0.22903    0.1038617  48.59  0.001046397    2.085    0.520
        42  -9.4945    110.5718    137.1235   1.1793835295e+02   3.2753300287e+01    0.3037034    0.2081311 -21.31  0.001223533    2.257    0.557
        43 -11.2430     58.7788    134.6060   1.3006492112e+02   4.0352629874e+01    0.4670934    0.2148571 -82.71  0.002098634    2.759    0.638
        44 -10.2348     98.0512    134.2961   1.2046052671e+02   3.5270358216e+01    0.2289199    0.2006756 -21.76 0.0006168575    1.390    0.281
        45  -9.5070    107.5056    123.9221   1.1624449784e+02   3.5916937501e+01    0.1826756    0.1726039  50.12 0.0003285038    1.044    0.042
        46 -11.1732     54.2590    121.1276   1.2943631658e+02   4.3720200638e+01     0.420725    0.1829508 -79.59  0.001808618    2.828    0.646
        47 -10.5811    168.0292    113.0860   9.9346018158e+01   2.6444184542e+01    0.3201163    0.2985917 -80.42 0.0006971739    1.350    0.259
        48  -8.9534    203.4668    111.5218   9.1639798643e+01   1.9029357242e+01    0.1519367    0.1279896  12.19 7.807081e-05    1.073    0.068
        49 -14.3718     55.4074    212.2513   1.3769657732e+02   2.6376820441e+01     7.152281          nan  43.67   0.02282037    7.199    0.861
        50  -8.6634    156.6802     76.3150   9.1831048209e+01   3.5422187936e+01    0.1517294    0.1252043 -72.59 0.0006997946    1.655    0.396
        51 -11.1021      2.0918     61.6256   1.3680096443e+02   6.0891490102e+01    0.5982434  0.007832146 -72.26  0.001385683    9.447    0.894
        52  -9.8372     88.2734    249.3642   1.3475551447e+02   1.7289032672e+01    0.1447316   0.06073161  46.62 0.0008059295    1.660    0.398
        53  -9.8072    198.7725    246.5791   1.1682171158e+02   2.8351024581e+00    0.1506857   0.07483966  44.20 0.0009468713    1.658    0.397
