#   1 NUMBER                 Running object number                                     
#   2 MAG_AUTO               Kron-like elliptical aperture magnitude                    [mag]
#   3 X_IMAGE                Object position along x                                    [pixel]
#   4 Y_IMAGE                Object position along y                                    [pixel]
#   5 X_WORLD                Barycenter position along world x axis                     [deg]
#   6 Y_WORLD                Barycenter position along world y axis                     [deg]
#   7 A_WORLD                Profile RMS along major axis (world units)                 [deg]
#   8 B_WORLD                Profile RMS along minor axis (world units)                 [deg]
#   9 THETA_WORLD            Position angle (CCW/world-x)                               [deg]
#  10 FWHM_WORLD             FWHM assuming a gaussian core                              [deg]
#  11 ELONGATION             A_IMAGE/B_IMAGE                                           
#  12 ELLIPTICITY            1 - B_IMAGE/A_IMAGE                                       
         1 -10.7981    209.0228     39.2664   3.8795386767e+01   2.8968395701e+01    0.7531574    0.4488405 -52.23  0.004189632    1.498    0.332
         2 -10.9449    225.1905     26.6088   3.4538291806e+01   2.7167200239e+01    0.6317322    0.5045604 -59.13  0.003123199    1.038    0.037
         3  -8.5062    119.8169      9.1249   4.1979562910e+01   5.3064384866e+01    0.2821799    0.2208058  71.74  0.001686711    1.138    0.122
         4 -10.3351    247.6581      4.8953   2.8741769978e+01   2.5219695871e+01    0.5546116    0.3379785 -55.68  0.003850071    1.246    0.198
         5  -8.3978    165.6980      6.2640   3.4995230652e+01   4.2315560541e+01    0.2071776    0.1733397  57.01 0.0005709854    1.286    0.222
         6  -9.0360    244.8329    238.3243   7.3596842964e+01  -6.7515001161e+00    0.2019223   0.08517136  35.23  0.001094837    2.670    0.625
         7  -9.7753    246.5731    249.7166   7.5066326448e+01  -8.3088563259e+00    0.3316397    0.1832239  19.60  0.002226538    1.573    0.364
         8  -9.4503    116.2216    244.9603   9.9685346261e+01   8.2788311491e+00     0.504424    0.2210075 -68.73  0.002008551    4.293    0.767
         9 -10.0795     78.9458    249.0033   1.0818111360e+02   1.2330609346e+01     0.529067    0.2414823  30.09  0.002654029    1.878    0.468
        10 -12.5650     24.8963    223.2858   1.1807789392e+02   2.3513588278e+01     1.815248     1.741699  38.04   0.01333373    1.249    0.200
        11 -12.5206     95.4576    229.0668   1.0248391796e+02   1.4020377734e+01     4.566969     1.331977  27.06   0.01533653    3.790    0.736
        12 -13.6831     19.4711    248.5359   1.2056515028e+02   1.8962951217e+01     4.697789     1.281353  21.44   0.01553073    6.151    0.837
        13  -8.6816    180.7504    229.5592   8.3911431656e+01   2.1249419625e+00    0.2233291    0.1772179  23.32 0.0007803731    1.187    0.158
        14  -8.2725     47.4108    227.8532   1.1335831939e+02   2.0203799335e+01    0.1796387     0.132423  52.81 0.0006091176    1.163    0.140
        15 -10.2925    212.8823    229.6059   7.7749135282e+01  -1.9935089595e+00    0.2134056    0.1668801 -15.12 0.0003634073    1.151    0.131
        16  -8.6737    182.0287    225.0407   8.2943866767e+01   2.6704089540e+00    0.1857007    0.1507932   3.83  0.001190495    1.015    0.014
        17  -9.9922     43.3502    221.0945   1.1376033344e+02   2.2075599305e+01    0.2806514    0.2521055 -51.85  0.001888752    1.342    0.255
        18 -10.4756     48.7928    218.0447   1.1225196729e+02   2.2127739145e+01      0.37639    0.3171448 -38.86  0.002385224    1.484    0.326
        19  -8.6642    182.9974    220.1930   8.1969324322e+01   3.3196191426e+00    0.2045802    0.1615345 -20.75 0.0003764157    1.201    0.167
        20 -12.0185      3.4923    232.7705   1.2310504252e+02   2.3506844574e+01     1.105333    0.6242926  61.34   0.00644926    1.450    0.310
        21  -7.8534    209.8512    217.8494   7.6379981570e+01   1.0389857443e-01    0.1478888    0.1311341 -12.71 0.0002618923    1.283    0.221
        22 -12.0072     10.4385    208.4595   1.2047664103e+02   2.8047963960e+01    0.8238532    0.6928535  47.79   0.00345006    1.149    0.130
        23  -9.0627     25.2327    204.4610   1.1677903737e+02   2.7601928197e+01    0.6180844    0.2214987  59.60  0.002434016    3.151    0.683
        24 -10.1238    149.6427    214.2426   8.8087569418e+01   9.1394056286e+00     0.239046     0.216467 -10.32 0.0003745657    1.110    0.099
        25  -9.8905     57.7173    211.6750   1.0955606010e+02   2.2485723884e+01    0.3970481    0.3639731 -11.83  0.002548264    1.321    0.243
        26  -9.4861     51.1271    210.1668   1.1100841105e+02   2.3589662452e+01     0.253952     0.216213  75.72 0.0006567557    1.120    0.107
        27 -10.4626     53.1185    206.1458   1.1014785099e+02   2.4260357194e+01    0.4556134    0.3020474  75.53  0.002447945    1.612    0.380
        28  -8.5322    101.5918    209.5498   9.8616681429e+01   1.7157811952e+01    0.2300934    0.1972425  28.17  0.000480195    1.078    0.073
        29  -9.3611     40.2793    208.6011   1.1348836487e+02   2.5142295464e+01    0.4752174    0.2010134 -54.31   0.00212126    2.641    0.621
        30 -11.0022     11.6486    158.7435   1.1684371066e+02   3.9742398089e+01     1.008465    0.3515928  70.79  0.003174619    4.644    0.785
        31  -9.7644     33.9728    196.9720   1.1407525219e+02   2.8457545385e+01    0.2734182    0.2295797  84.44 0.0003624011    1.108    0.097
        32  -8.5733    172.3851    199.9560   8.0747998456e+01   8.3301259719e+00    0.2215596    0.1716017  16.46 0.0002901352    1.189    0.159
        33  -7.8472    157.9807    197.4528   8.3446618047e+01   1.1021368242e+01    0.2414967    0.1414283 -51.98   0.00113626    1.974    0.493
        34  -8.6982     21.6346    195.8412   1.1704450012e+02   2.9914790948e+01     0.326333    0.1711268  18.11  0.001096067    2.243    0.554
        35  -9.2002      4.2789    191.1038   1.2097386061e+02   3.2478609809e+01    0.4491394    0.1680371  63.72   0.00191433    2.756    0.637
        36 -10.5174      5.8586    185.4486   1.2026319290e+02   3.3677347207e+01    0.6027688    0.2652371  52.26   0.00191838    2.083    0.520
        37  -7.1713     70.2779    189.3289   1.0391183306e+02   2.6026890575e+01    0.1361192    0.1043955 -30.73 0.0003471711    1.597    0.374
        38  -8.3734    248.9755    186.1784   6.4143675443e+01  -1.6154076270e-01    0.1968981    0.1172294   1.57  0.001090967    1.994    0.498
        39  -7.5136     99.8066    186.3858   9.5726437164e+01   2.2521895900e+01    0.1829517    0.1325713  20.10 0.0001215628    1.454    0.312
        40  -7.2999     19.1798    186.2444   1.1696527221e+02   3.2391611492e+01    0.1791863    0.1242973  64.15 0.0005008924    1.322    0.244
        41  -9.4960     36.4301    181.0813   1.1201584469e+02   3.1992157529e+01    0.3226393    0.2238441   5.90 0.0002659974    1.846    0.458
        42  -8.8747      8.0064    178.8355   1.1930851240e+02   3.5084262230e+01    0.2293929     0.104688  52.59  0.001089248    2.065    0.516
        43  -9.1598    104.0420    177.0672   9.3107154257e+01   2.4014448835e+01    0.3186005    0.2134363 -59.79 0.0007771658    1.592    0.372
        44 -10.4559     32.0672    201.4389   1.1490526451e+02   2.7619087435e+01    0.3327877    0.2885478  22.03 0.0006616394    1.299    0.230
        45  -9.3951     60.4010    175.3959   1.0481079404e+02   3.0658159122e+01    0.3920822    0.2683629 -25.50   0.00131755    1.976    0.494
        46  -9.3969     65.6600    170.2790   1.0264150676e+02   3.1250997216e+01    0.3015369    0.2341887 -34.72 0.0007113917    1.486    0.327
        47  -8.5122     12.0444    175.4309   1.1802458568e+02   3.5590956937e+01    0.2109855    0.1381642  49.10  0.000680703    1.437    0.304
        48  -9.2724      7.7102    171.9940   1.1892695617e+02   3.6760333748e+01    0.3727962   0.08757228  34.85  0.001428251    3.321    0.699
        49  -7.3552     34.2807    173.6533   1.1186760887e+02   3.4035470564e+01    0.1431721   0.09007009  65.32  0.000701216    1.640    0.390
        50  -7.4803    131.9853    168.9906   8.4385736891e+01   2.1196796637e+01    0.1742302    0.1572253  24.49            0    1.068    0.064
        51  -8.9036      8.6640    166.7589   1.1829901681e+02   3.7971790604e+01    0.1675989     0.153467 -80.42 0.0005956387    1.113    0.102
        52  -9.9179     75.7547    160.9135   9.8314402286e+01   3.2207038033e+01    0.5752417    0.3891628  22.00 0.0005099534    1.606    0.377
        53  -9.3667     82.0977    155.5510   9.5545963983e+01   3.2618221014e+01    0.4585389    0.2981152 -42.91  0.000604124    1.642    0.391
        54  -8.3902     85.4986    152.4906   9.3991955139e+01   3.2862901287e+01    0.2869352    0.1809001  41.33  0.001284529    1.576    0.366
        55 -12.1379     42.6801    191.4979   1.1137608158e+02   2.8826981488e+01     1.182054     1.027258 -86.88  0.005669843    1.113    0.102
        56 -10.8971     62.8701    156.7143   1.0146316165e+02   3.5027879055e+01    0.4870909     0.308443 -42.46  0.001815039    1.739    0.425
        57 -11.6035     24.8668    179.1068   1.1492097833e+02   3.3598619441e+01     0.970088    0.4846643  60.79  0.004487556    2.094    0.523
        58 -11.4861     68.0826    144.7015   9.7890373728e+01   3.7394556347e+01    0.8505036    0.5904305  63.73  0.003010816    1.715    0.417
        59 -11.0638     18.5106    171.1499   1.1596238682e+02   3.6109605408e+01    0.7316048    0.3639607  64.63  0.002272854    2.148    0.534
        60  -8.1130     13.3444    145.2993   1.1514076360e+02   4.3021205074e+01    0.1373554   0.08948992 -42.43 0.0002269786    1.676    0.403
        61  -7.9239    184.6634    144.0643   6.7122239224e+01   1.6784643213e+01     0.204075    0.1671052 -31.67 0.0003410006    1.131    0.115
        62  -8.7710    122.8463    144.0486   8.1644112807e+01   2.8487134031e+01    0.2338831    0.2130897  32.60 0.0002454157    1.091    0.084
        63  -9.9507     85.5847    139.8468   9.1534550375e+01   3.6009197414e+01    0.3049136    0.2601369 -47.59 0.0004253467    1.163    0.140
        64  -8.0261    100.3871    138.7901   8.6847941669e+01   3.3794217224e+01    0.2250266    0.1362669 -42.31 0.0004578099    1.715    0.417
        65  -9.5243    179.2838    147.0823   6.8875619320e+01   1.7193839103e+01    0.2341712    0.2222932  -3.10 0.0002461665    1.061    0.057
        66  -8.3433    109.1115    130.3616   8.2404690181e+01   3.4247798994e+01    0.2745704    0.2082776 -37.85 0.0008560404    1.354    0.262
        67  -7.6328     96.1896    126.8133   8.5448195222e+01   3.7444107204e+01    0.2220355    0.1804607 -19.98  0.001066058    1.394    0.282
        68 -10.6985      2.2879    129.9273   1.1715735950e+02   4.7656943188e+01    0.7432359    0.2428098 -82.20  0.002760312    2.995    0.666
        69  -7.6816    106.2137    119.5953   8.0680390533e+01   3.7330415779e+01    0.2051686    0.1489046  25.36  0.000350787    1.506    0.336
        70  -7.5884    128.5049    118.5233   7.4104636551e+01   3.3166384172e+01    0.1537577    0.1497173 -10.67 0.0001359849    1.011    0.010
        71  -9.4292      2.4688    114.0183   1.1548852778e+02   5.1699830726e+01    0.3208486   0.08693965 -66.93  0.001206575    2.709    0.631
        72  -8.4635     71.2509    112.9784   9.0387318663e+01   4.4986047990e+01    0.2329215    0.2108156  29.93  0.000373605    1.135    0.119
        73  -7.8429    105.2164    102.5570   7.6543280828e+01   4.1432081039e+01    0.3202789    0.2123896  -4.86  0.001209144    2.526    0.604
        74  -8.8339    185.2693    100.4486   5.6889064967e+01   2.4759637319e+01    0.3597767     0.224704 -30.51 0.0009076332    1.665    0.399
        75  -8.2760     85.9481    134.9650   9.0418453253e+01   3.7170809092e+01    0.2252489    0.2176509 -41.97 -0.001877172    1.023    0.023
        76 -10.2985     89.5831     94.7262   7.9346504593e+01   4.6207943223e+01    0.2664514    0.2545007  17.15 0.0002557224    1.038    0.037
        77  -7.5137    161.4856     88.4256   5.8360883100e+01   3.2070200899e+01    0.1426512    0.1412333 -32.83 0.0002168604    1.042    0.040
        78  -8.8667      2.8026     83.8570   1.1135397203e+02   5.9238900515e+01    0.3811194   0.05048149 -56.40  0.001263803    3.570    0.720
        79  -7.5691    137.8590     73.4326   5.9250518550e+01   4.0140864933e+01    0.1944325    0.1345091  39.65 0.0001727714    1.541    0.351
        80  -8.0783    200.3345     57.7334   4.4140337929e+01   2.8362637801e+01     0.134275   0.09070075 -69.62 0.0002301868    1.587    0.370
        81  -6.9911    121.6155     50.5134   5.5860538109e+01   4.7691446806e+01    0.1386794    0.1351083  56.68 8.632016e-05    1.028    0.028
        82  -8.3804    226.7435     34.9480   3.6189679438e+01   2.5875755469e+01     0.201934    0.1536244 -85.52 0.0004301181    1.254    0.202
        83 -11.2654    202.2935     45.5287   4.0983916075e+01   2.9600945308e+01    0.6899508    0.4364249  48.17  0.003701224    1.918    0.479
        84  -8.8181    232.3210    248.3524   7.7239023655e+01  -6.6882381852e+00    0.2190165    0.1779762  50.19  0.001202336    2.636    0.621
        85 -10.3691    218.3676     32.6409   3.6415339182e+01   2.7837797802e+01    0.4893092    0.3259709  33.67  0.001132014    2.509    0.601
        86  -8.9540    192.8086    235.6241   8.2474253323e+01  -3.7158591983e-01    0.2200147    0.2112924  36.11 0.0009499167    1.582    0.368
        87  -8.4270    153.0254     45.0961   4.7759944601e+01   4.0952095680e+01    0.1998079    0.1856804  81.82 0.0003086434    1.012    0.012
        88  -7.5004    160.5034     47.0077   4.7059880938e+01   3.8909172735e+01    0.1705397    0.1211226   9.69 0.0004577217    2.174    0.540
        89  -8.5215    121.7166     38.1305   5.1660852065e+01   4.9414744840e+01    0.2292298    0.2004266  51.37 0.0003570048    1.073    0.068
        90  -7.4548    238.8250     30.2229   3.4246892031e+01   2.4100498901e+01    0.1326034     0.124964 -60.26 0.0002187465    1.279    0.218
        91  -8.5416      5.7656     13.0310   8.9097761165e+01   7.4201812380e+01    0.1512528   0.08695544 -44.66 0.0008808514    1.633    0.387
        92 -10.6486    123.4209    231.4510   9.6431777361e+01   9.7332651118e+00    0.4983355    0.2518378  28.72  0.002355674    1.756    0.430
        93  -8.1561     25.8393    239.0222   1.1878052942e+02   2.0194681068e+01    0.2052731    0.1431453  38.47  0.001141001    1.255    0.203
