#   1 NUMBER                 Running object number                                     
#   2 MAG_AUTO               Kron-like elliptical aperture magnitude                    [mag]
#   3 X_IMAGE                Object position along x                                    [pixel]
#   4 Y_IMAGE                Object position along y                                    [pixel]
#   5 X_WORLD                Barycenter position along world x axis                     [deg]
#   6 Y_WORLD                Barycenter position along world y axis                     [deg]
#   7 A_WORLD                Profile RMS along major axis (world units)                 [deg]
#   8 B_WORLD                Profile RMS along minor axis (world units)                 [deg]
#   9 THETA_WORLD            Position angle (CCW/world-x)                               [deg]
#  10 FWHM_WORLD             FWHM assuming a gaussian core                              [deg]
#  11 ELONGATION             A_IMAGE/B_IMAGE                                           
#  12 ELLIPTICITY            1 - B_IMAGE/A_IMAGE                                       
         1 -15.0754      9.9890    152.8551   1.4610682695e+02   4.2332600759e+01     5.710879       1.8568 -86.84   0.02385351    3.250    0.692
         2 -11.9095      2.2062     43.9914   1.3360855393e+02   6.6602937081e+01     1.846169   0.06288594 -64.78  0.003181992   18.645    0.946
         3 -12.2646      2.1647     12.5263   1.2387420041e+02   7.2546393307e+01     1.553337    0.1742239 -56.42  0.003928046    9.975    0.900
         4 -12.3279      2.3726      3.4580   1.1987210843e+02   7.4049650833e+01    0.7882767    0.4052192  14.32  0.005050076    2.072    0.517
         5 -13.2055    192.4713     29.7024   6.9695064706e+01   3.2986972504e+01     1.328376     1.208293  89.99  0.007587738    1.035    0.034
         6 -13.6348    206.1346     11.1277   6.2895864272e+01   3.1489316099e+01     1.580544     1.083318  36.26  0.008094373    1.824    0.452
         7 -10.9056     11.3854    239.6386   1.5078430033e+02   2.5233168190e+01    0.2964393    0.1338434  68.77  0.001132156    1.701    0.412
         8 -10.5644    249.3061    249.1562   1.0963600250e+02  -1.0504498726e+01    0.3494447    0.1461946 -23.36  0.001892962    2.737    0.635
         9 -11.3879    139.4646    249.5863   1.2918804425e+02   6.5262866339e+00    0.4943109    0.1314327  41.79  0.002021352    2.822    0.646
        10 -11.3667    125.3437    249.8800   1.3179470447e+02   8.7049984431e+00    0.4591811    0.1565836  37.18  0.002007343    2.703    0.630
        11 -10.7388     97.8847    248.4489   1.3661380514e+02   1.3072802209e+01    0.2432919    0.2315269  68.57  0.001308291    1.373    0.271
        12 -10.8571    101.3779    246.1955   1.3577898506e+02   1.2919679551e+01    0.3115838    0.1890907 -73.90  0.001357792    2.009    0.502
        13 -10.3756     30.6974    250.4402   1.4819361241e+02   2.1394533269e+01    0.3148631   0.09571142  42.19   0.00132946    2.433    0.589
        14 -11.0950     35.2268    244.6897   1.4716324969e+02   2.1848728935e+01    0.3987793    0.3285797 -56.62  0.003177585    1.918    0.479
        15 -11.2784      1.8323    240.0148   1.5229982802e+02   2.6088911252e+01    0.6401455    0.1437321 -81.14  0.003071094    4.019    0.751
        16 -10.3367      1.9981    249.0481   1.5259118907e+02   2.4569761009e+01     0.333922    0.1599819  88.79  0.002320907    1.737    0.424
        17 -10.5191      5.9648    248.5131   1.5197209028e+02   2.4277146355e+01    0.2590768    0.1213357  59.62  0.001383299    1.461    0.315
        18 -10.4664    234.4734    238.9165   1.1054081494e+02  -7.3046714605e+00    0.2793602    0.1640727 -52.53  0.001308998    4.382    0.772
        19  -9.8631    185.8410    238.8575   1.1924472129e+02   4.3415894847e-01    0.1644785    0.1278206  49.09 0.0003363136    1.333    0.250
        20 -10.5524    120.4768    238.4973   1.3147282983e+02   1.1232139750e+01    0.2097549     0.120109 -59.63 0.0009277213    2.175    0.540
        21  -9.0851     24.5395    237.9981   1.4857904449e+02   2.4165092130e+01    0.1409206   0.08205465 -88.84 0.0003745837    1.512    0.339
        22 -12.3253     56.9205    225.6127   1.4216005480e+02   2.2610086907e+01     1.694236     1.190414 -41.86  0.008315668    2.530    0.605
        23 -14.4425      9.3422    205.6674   1.4957074025e+02   3.1570910286e+01     9.799616          nan  40.70   0.03630739    5.526    0.819
        24 -11.0791      7.8075    226.3663   1.5080414533e+02   2.7895077398e+01    0.2680964    0.2042997  77.72  0.001366861    1.172    0.147
        25 -10.5936    107.0533    248.1766   1.3493976387e+02   1.1760863520e+01     0.336133    0.1677025  67.75  0.001674513    2.671    0.626
        26  -9.4332     92.6551    222.3061   1.3508172533e+02   1.8286554063e+01    0.1304704   0.07494272  63.70 0.0002972284    1.693    0.409
        27 -10.0410    228.5805    228.0861   1.0982223639e+02  -5.1732924957e+00    0.2978888    0.2279361 -60.74  0.001488742    2.695    0.629
        28 -11.0807    146.7628    229.5772   1.2537184298e+02   8.3448930464e+00     0.446158     0.105807  39.47  0.001519075    3.663    0.727
        29 -11.2919      4.5091    228.4985   1.5143449678e+02   2.7827768805e+01    0.3119857    0.1756056  63.07  0.002316995    1.265    0.209
        30  -8.5442    152.5407    212.9631   1.2190689802e+02   1.0026709702e+01    0.1590627    0.1330584 -52.17 0.0003272491    1.448    0.309
        31 -11.3220     65.0619    197.6022   1.3813859130e+02   2.6941980252e+01    0.3251657    0.2356597 -46.81  0.001443276    1.916    0.478
        32 -10.0021    194.3468    197.0551   1.1087490951e+02   4.9276527619e+00    0.4286236    0.2590426 -67.55  0.001548605    4.692    0.787
        33  -8.4662     51.1922    197.0819   1.4094299354e+02   2.8811994280e+01     0.163008    0.1084646  68.69 0.0003872367    1.277    0.217
        34 -11.2399     12.4277    196.2672   1.4849726857e+02   3.3108925403e+01    0.2920703    0.1966577  63.90   0.00120046    1.179    0.152
        35 -11.5464     70.6576    189.8912   1.3615006660e+02   2.7764101277e+01    0.2564314    0.2282959 -65.31 0.0007425745    1.332    0.249
        36  -8.6149    101.6000    177.8554   1.2768779145e+02   2.5605843927e+01    0.1749796    0.1230879 -81.80 0.0003922269    1.583    0.368
        37 -10.6482     80.0954    177.3265   1.3255275250e+02   2.9075514669e+01    0.2313775    0.2141291  86.57  0.000358267    1.142    0.124
        38 -12.9849     67.1194    175.3386   1.3526946996e+02   3.1330453948e+01    0.4467055    0.2688322 -46.25  0.001495291    2.181    0.541
        39 -11.6093     87.2624    168.0836   1.2960864798e+02   3.0003223620e+01    0.6198669     0.514792  54.94   0.00370122    1.121    0.108
        40 -12.3901     39.5381    231.9207   1.4570191177e+02   2.3570563072e+01    0.2690957    0.2115883 -82.03  0.000755023    1.388    0.279
        41  -9.3902     74.3039    156.6485   1.3108830824e+02   3.4475035447e+01    0.1423491   0.09279866  73.89 0.0005428047    1.704    0.413
        42  -9.6580     99.6209    151.6919   1.2392950698e+02   3.1645806195e+01    0.2709493    0.2624308  67.57 0.0008309177    1.097    0.088
        43  -8.9139    102.1757    147.8739   1.2258887680e+02   3.2066329876e+01    0.2145986    0.1745123 -19.58 0.0003862831    1.668    0.401
        44 -11.8591     88.1863    151.1626   1.2673905383e+02   3.3636778901e+01    0.2757493    0.2507683 -41.93 0.0006180806    1.281    0.219
        45 -12.3049     67.1817    143.9013   1.3098726814e+02   3.8373472297e+01    0.7153628    0.4746703  70.83  0.003048936    1.668    0.401
        46  -8.3131    192.2340    144.0044   1.0048487906e+02   1.4342202615e+01    0.1845675    0.1253377 -36.33 0.0003999317    1.525    0.344
        47  -9.4491    110.4872    136.9794   1.1829733244e+02   3.3033595748e+01     0.352384    0.2438546 -26.22  0.001223964    2.057    0.514
        48 -14.0696     45.5525    223.4880   1.4408503805e+02   2.4391866749e+01     1.548738     1.433377  55.19   0.00771398    1.449    0.310
        49 -10.2320     97.8956    134.2787   1.2109452570e+02   3.5894878554e+01    0.2551282    0.2284535 -20.02 0.0006363372    1.339    0.253
        50 -11.1514     57.9791    133.6498   1.3184387295e+02   4.1937000347e+01    0.4354757    0.2376845 -88.29  0.001916623    2.391    0.582
        51  -9.4954    107.3194    123.8647   1.1631028795e+02   3.6585398209e+01    0.2175593    0.1937047  60.69 0.0003334707    1.133    0.117
        52 -11.3149     54.3200    121.3755   1.3085957883e+02   4.5241691234e+01    0.5815995    0.2294505 -76.93  0.001907396    4.125    0.758
        53 -10.3837    168.0166    113.0771   9.8194428068e+01   2.5752993293e+01    0.3530979    0.3011256  88.80 0.0007399403    1.416    0.294
        54  -9.0593    203.4852    111.5195   9.0366077227e+01   1.7593047340e+01    0.1529372    0.1443887  10.26 0.0001024379    1.048    0.046
        55  -9.2237     69.4341    235.0429   1.4060608880e+02   1.9300982734e+01    0.2220467    0.1287045 -70.06  0.001124172    1.881    0.468
        56  -8.8884     29.7631     61.3610   1.2650903097e+02   6.1249900614e+01    0.1484442    0.1116874  -2.76 0.0003846853    1.503    0.335
        57 -10.6128     81.5916    249.1421   1.3955946282e+02   1.5274326855e+01    0.2481008    0.1492061  36.81  0.001564972    1.677    0.404
        58  -9.3689     46.6608    248.7470   1.4550083470e+02   1.9840384708e+01    0.2440745    0.1106355  69.03  0.001445389    2.025    0.506
        59  -9.8264     23.4612    246.0937   1.4914248663e+02   2.2901940081e+01     0.224569   0.07659521  50.93  0.001328431    2.009    0.502
        60  -9.9340     82.5823    243.2169   1.3890152657e+02   1.6110709522e+01    0.1334375    0.1029339 -64.42 0.0009483439    1.633    0.388
