#   1 NUMBER                 Running object number                                     
#   2 MAG_AUTO               Kron-like elliptical aperture magnitude                    [mag]
#   3 X_IMAGE                Object position along x                                    [pixel]
#   4 Y_IMAGE                Object position along y                                    [pixel]
#   5 X_WORLD                Barycenter position along world x axis                     [deg]
#   6 Y_WORLD                Barycenter position along world y axis                     [deg]
#   7 A_WORLD                Profile RMS along major axis (world units)                 [deg]
#   8 B_WORLD                Profile RMS along minor axis (world units)                 [deg]
#   9 THETA_WORLD            Position angle (CCW/world-x)                               [deg]
#  10 FWHM_WORLD             FWHM assuming a gaussian core                              [deg]
#  11 ELONGATION             A_IMAGE/B_IMAGE                                           
#  12 ELLIPTICITY            1 - B_IMAGE/A_IMAGE                                       
         1 -13.9067    215.2198      9.2458   3.8382063646e+01   3.0286051634e+01     1.869915     1.203676  42.29  0.009617475    1.999    0.500
         2 -13.1184    175.3851     53.9100   5.5877203574e+01   3.4465585015e+01     1.675443     1.084287  24.55  0.005036162    2.207    0.547
         3 -12.7911    195.3003     34.4283   4.7169561770e+01   3.2189918501e+01    0.6184226    0.5807484 -42.89   0.00130338    1.114    0.102
         4 -13.5124    190.4058     40.0942   4.9434247533e+01   3.2665433082e+01      1.10376     1.003823 -21.65  0.003916983    1.203    0.169
         5 -10.4158    189.3916     14.7977   4.2516129048e+01   3.5948928324e+01    0.2373089    0.2169885 -11.97 0.0007468503    1.280    0.219
         6  99.0000     49.1704    218.3390   1.2023042501e+02   2.3005613004e+01    0.3107837    0.1612996  86.25  0.001684457    1.993    0.498
         7 -10.9444    239.3811    247.6502   8.7568546032e+01  -9.9740208781e+00    0.3072757    0.1714694 -10.43  0.001803456    1.945    0.486
         8 -12.4756    247.5086    245.9952   8.5920872187e+01  -1.0865774754e+01    0.8404441    0.4834601 -25.01  0.005387295    1.726    0.421
         9 -12.4491    248.6948    228.7296   8.2852704154e+01  -9.0321456134e+00    0.7951671    0.3059944 -32.82  0.003949841    2.589    0.614
        10  -9.3256     74.9514    250.5782   1.1804912062e+02   1.3740771283e+01    0.1197615   0.09508614 -86.15 7.862507e-05    1.318    0.241
        11  99.0000     43.1145    209.3639   1.2068864158e+02   2.5534850258e+01    0.4078289    0.1593068  68.41  0.001689927    3.328    0.700
        12 -10.2060     43.7900    205.2280   1.2021648817e+02   2.6313826996e+01    0.1758431    0.1302774 -77.72   0.00115844    1.274    0.215
        13  -9.4293    160.4901    205.4985   9.5655921673e+01   8.5339714529e+00    0.1355842    0.1208243  31.56 0.0003433877    1.007    0.007
        14  -9.0130     93.7903    205.4092   1.0985139761e+02   1.9613231686e+01      0.20427    0.1662712 -19.20 0.0008926518    1.856    0.461
        15 -10.4348     96.4858    202.0342   1.0884920021e+02   1.9901611306e+01    0.3265072    0.1881957 -61.22  0.001579537    1.812    0.448
        16 -10.1129     66.7497    204.4204   1.1544693968e+02   2.3642253816e+01    0.3101424    0.1886072 -45.43 0.0009914722    2.299    0.565
        17  -8.6000     70.7608    200.3335   1.1417064499e+02   2.3969044892e+01    0.1734598    0.1344251  54.72 0.0005090315    1.162    0.139
        18 -10.9172    193.1103    195.1933   8.7134828148e+01   4.5583958820e+00     1.191047    0.7930498 -77.00  0.004519335    4.175    0.761
        19 -10.5485     56.9414    201.2992   1.1717853401e+02   2.5561242872e+01    0.2840483    0.2000755 -35.60  0.001582787    2.304    0.566
        20 -11.7349     59.1901    195.2402   1.1609980930e+02   2.6577362735e+01    0.4164124    0.2649184 -51.30  0.001420775    1.887    0.470
        21 -10.1199     55.2292    222.8413   1.1943466418e+02   2.1378653240e+01    0.1632946    0.1174502  66.04 0.0004601422    1.126    0.112
        22  -9.8821     82.0458    194.9435   1.1110590064e+02   2.3547393349e+01    0.2097877    0.1709446  55.04  0.000460382    1.124    0.110
        23 -11.6102    149.5777    188.2409   9.5041800956e+01   1.3743022495e+01    0.4363145    0.3438667  76.16  0.001424513    1.620    0.383
        24 -10.7575     95.4015    188.7572   1.0731390902e+02   2.2891644315e+01    0.4474127    0.2980986  83.62  0.001569458    1.786    0.440
        25 -11.4501     98.9535    182.1519   1.0554638309e+02   2.3784591870e+01    0.5803173    0.3359189 -56.79   0.00153496    1.752    0.429
        26 -11.6021    143.7478    178.0501   9.4505352927e+01   1.6880286840e+01    0.4762465    0.3037787 -55.06  0.001456755    1.711    0.415
        27 -10.9430    139.8224    171.6696   9.4214152215e+01   1.8953172761e+01    0.4389247    0.2990289  53.08  0.001593541    1.528    0.346
        28 -11.2677    128.3962    180.1881   9.8404201554e+01   1.9229648512e+01    0.3772373    0.1735171  51.64  0.001460856    2.418    0.586
        29 -11.3263    132.1183    172.2588   9.6122028666e+01   2.0257146884e+01    0.4430192    0.2279974  28.48  0.001709443    2.500    0.600
        30 -10.4155    149.8015    177.7461   9.3078388566e+01   1.5811485490e+01     0.302192    0.2243517 -63.63  0.001011492    1.591    0.372
        31 -10.2485    188.5042    176.5874   8.4459625359e+01   8.6775240036e+00    0.3991659    0.3519032 -50.58  0.001961809    1.307    0.235
        32  -9.5404     61.4274    219.8903   1.1798941716e+02   2.1180510151e+01    0.1424892   0.09948516 -56.73 0.0006409722    1.725    0.420
        33 -10.4830     56.2974    217.8268   1.1880980157e+02   2.2237567940e+01    0.3009794    0.1431324  78.27  0.001427735    2.571    0.611
        34  -9.6341    184.6798    212.9815   9.1983586196e+01   3.0800735395e+00    0.1798562    0.1665011  -1.69  0.001157419    1.131    0.116
        35 -10.9188    238.6151    174.7615   7.4467085187e+01  -5.4587499077e-02    0.2451181    0.1637222 -37.84  0.001322412    1.505    0.336
        36  -9.3820    240.3063    169.3085   7.3045993144e+01   5.0795111047e-01    0.1379121   0.09385263   0.68 0.0002506516    1.611    0.379
        37  -8.9049    194.4832    172.0047   8.2292162750e+01   8.3763233451e+00    0.2104605    0.1374781 -36.68 0.0006990049    1.536    0.349
        38  -9.2372    187.7643    162.8818   8.1759824160e+01   1.1374880056e+01    0.2762381    0.2027026 -57.47  0.001148349    1.694    0.410
        39 -10.9869     90.4422    157.7058   1.0371821659e+02   3.0739810653e+01    0.2726851    0.2585242 -40.44 0.0005699648    1.194    0.162
        40 -11.6929     96.2409    151.2281   1.0108551133e+02   3.1346024774e+01    0.6033051    0.4633077 -26.44  0.002535575    1.696    0.410
        41 -10.0790    187.8664    152.1251   7.9378526996e+01   1.3415224599e+01    0.2758272    0.2573061  82.56  0.001502524    1.293    0.227
        42 -10.8274    133.8700    145.4129   9.0299792073e+01   2.5871437289e+01     1.271647    0.3196788 -54.45   0.00295379    5.945    0.832
        43  -9.3727    113.0812    150.8537   9.6682954021e+01   2.8542914783e+01    0.2395792    0.1977712  81.14 0.0008622981    1.350    0.259
        44  -8.2140    139.3025    150.6967   9.0107243071e+01   2.3618191786e+01     0.150955    0.1200425  82.43  0.000306515    1.593    0.372
        45  -9.2985    174.6247    149.2314   8.1576900944e+01   1.6717369857e+01    0.2783047    0.1901103  55.97  0.001064758    1.685    0.407
        46  -9.3320    108.8518    147.1050   9.7023212891e+01   3.0172959764e+01    0.2287573    0.1931274  78.71 0.0004950672    1.284    0.221
        47  -9.2805     93.3120    146.2952   1.0093358758e+02   3.2998800305e+01    0.1414552    0.1132678 -23.66 0.0002035124    1.596    0.373
        48  -9.7167    143.3323    144.8577   8.7848459852e+01   2.4103244392e+01    0.3156511    0.1399863 -54.67   0.00108916    2.627    0.619
        49 -11.2053    108.0023    137.8508   9.5335293822e+01   3.2507533328e+01    0.6882453    0.4326775 -42.76  0.003069525    1.659    0.397
        50 -10.8775    105.6121    130.9994   9.4491663673e+01   3.4559069421e+01    0.4638221    0.3944408 -21.80  0.002386122    1.364    0.267
        51 -11.6874     96.0593    137.1669   9.8408535271e+01   3.4736672132e+01    0.3258431    0.2783743 -76.62  0.000387278    1.177    0.150
        52  -8.6823    117.6415    133.7192   9.1865809051e+01   3.1701156419e+01    0.1531457    0.1214689  -5.29 0.0007014726    1.667    0.400
        53 -10.3713    114.9145    128.9256   9.1498071398e+01   3.3336879280e+01    0.3342234    0.2795316 -16.40 0.0007798773    1.422    0.297
        54  -9.5029    160.6788    127.9934   7.9714491284e+01   2.4098750440e+01    0.3460385    0.1956564 -49.45  0.001380437    1.845    0.458
        55 -10.5105    102.4854    124.5380   9.3898012988e+01   3.6650050612e+01    0.2875437    0.2423663 -22.86 0.0002027684    1.358    0.264
        56 -10.4278    134.8907    121.6440   8.4459125891e+01   3.1020967853e+01    0.5986218   0.09584586 -47.54  0.001249263    6.497    0.846
        57 -10.3634    120.1174    123.0383   8.8698649298e+01   3.3702486608e+01    0.3978625    0.2258073 -28.99  0.001454859    2.533    0.605
        58  -9.4923    110.0705    118.0848   9.0242246622e+01   3.6783034179e+01     0.221554    0.2153106 -60.26  0.000310943    1.021    0.021
        59 -10.0694    231.2255    113.7128   6.2166884465e+01   1.1447646502e+01    0.2683065    0.2646188   9.40 0.0007362747    1.118    0.106
        60  -9.3455    167.4776    112.3074   7.4134491694e+01   2.5837859483e+01    0.3371564     0.245612 -73.50  0.001259181    1.935    0.483
        61 -10.0862    134.5540    105.3061   8.0250854282e+01   3.4693083959e+01    0.5222296    0.1527699 -43.93  0.001513676    3.338    0.700
        62 -11.3109    118.5077    110.8047   8.6046874271e+01   3.6821061279e+01     0.641288    0.4281348  63.33  0.002697611    1.982    0.496
        63  -9.5066    205.6458    110.1395   6.5742409337e+01   1.7571615779e+01    0.2721519     0.220646  43.56 0.0006189745    1.302    0.232
        64 -10.7813     37.5174    211.9119   1.2197500930e+02   2.5648246779e+01    0.1652588    0.1166537  74.86 -2.152226e-05    1.143    0.125
        65  -8.6917    154.4775     82.4493   6.8737292148e+01   3.4776459173e+01    0.1543327    0.1512793  -1.02 9.146178e-05    1.017    0.017
        66  -8.9658     69.1388     71.8934   9.0352977694e+01   5.4127095423e+01    0.1936919    0.1838485 -67.84 0.0004003975    1.241    0.194
        67 -10.1358     71.8659    245.0656   1.1815764828e+02   1.5107454548e+01    0.1928475    0.1429842 -63.02  0.001105112    1.624    0.384
        68 -19.5252     21.7479    146.3867   1.1961347948e+02   4.1781248446e+01     19.25854     4.816157 -75.12   0.06667706    3.801    0.737
        69 -10.0174     58.6480    229.1073   1.1929730701e+02   1.9741556607e+01    0.1488848    0.1156698  83.51 0.0003993729    1.152    0.132
        70 -11.4374     50.4271    224.7348   1.2049400597e+02   2.1595841785e+01    0.2134016    0.1344531  73.70 0.0007142386    1.394    0.282
