#   1 NUMBER                 Running object number                                     
#   2 MAG_AUTO               Kron-like elliptical aperture magnitude                    [mag]
#   3 X_IMAGE                Object position along x                                    [pixel]
#   4 Y_IMAGE                Object position along y                                    [pixel]
#   5 X_WORLD                Barycenter position along world x axis                     [deg]
#   6 Y_WORLD                Barycenter position along world y axis                     [deg]
#   7 A_WORLD                Profile RMS along major axis (world units)                 [deg]
#   8 B_WORLD                Profile RMS along minor axis (world units)                 [deg]
#   9 THETA_WORLD            Position angle (CCW/world-x)                               [deg]
#  10 FWHM_WORLD             FWHM assuming a gaussian core                              [deg]
#  11 ELONGATION             A_IMAGE/B_IMAGE                                           
#  12 ELLIPTICITY            1 - B_IMAGE/A_IMAGE                                       
         1 -14.9046    229.0670    101.4421   5.1336804651e+01   1.4803879948e+01     6.720009     2.772218 -45.81   0.01021584    2.165    0.538
         2 -10.6528    232.1839     16.6330   3.2906244444e+01   2.6418459563e+01    0.5321054    0.1925345 -30.85  0.002122403    3.190    0.686
         3 -14.4719    154.2525     67.1081   5.5620836933e+01   3.7413567522e+01     7.161779     3.036991 -52.40   0.02492648    3.067    0.674
         4 -12.6224    247.9785     57.9371   3.9861176089e+01   1.7876871463e+01     1.349535    0.3417314 -41.25 0.0006911359    3.054    0.673
         5 -13.0357    250.2219     37.6465   3.5622250374e+01   2.0202179745e+01     1.955936    0.1981452 -37.77   0.00594314    5.777    0.827
         6  99.0000    229.5549     30.4311   3.5960693604e+01   2.5310092482e+01     2.959555     1.422457  82.83  0.009499286    2.198    0.545
         7 -14.6945    237.1796     49.5160   3.9212789207e+01   2.1211133649e+01      5.01826    0.6371636  56.77   0.01429441    7.063    0.858
         8 -14.2270    233.7522     65.2304   4.2895639467e+01   1.9650734693e+01     2.532285      1.12523 -57.69  0.008759461    2.487    0.598
         9 -10.1728    189.2421     16.8983   3.6902173281e+01   3.5856362136e+01    0.2847384    0.2198711 -14.24 0.0007940768    1.779    0.438
        10 -10.9187    134.9890     14.6170   4.3637702839e+01   4.8979902704e+01    0.3828532    0.1896768 -26.44  0.001422287    2.326    0.570
        11 -14.0314    179.1243     76.6294   5.3446982426e+01   2.9924884135e+01     5.243391     1.149947 -43.16   0.00540321    4.261    0.765
        12  -8.4349    167.0611     16.3050   3.9369079536e+01   4.1142852438e+01    0.1757871    0.1390225  80.51  0.000321886    1.093    0.085
        13  -8.6093    241.0112     12.3270   3.1403529772e+01   2.5106944877e+01    0.1474812    0.1126144 -84.54  0.000351782    1.130    0.115
        14  -7.8457    235.2411     10.0848   3.1373159784e+01   2.6527963492e+01    0.2345078    0.1132112 -53.50  0.001309081    1.730    0.422
        15  -9.4237    139.8245      8.8479   4.1090155816e+01   4.8376836613e+01    0.1818482    0.1394117 -80.61 0.0007877341    1.360    0.265
        16  -9.4216    250.6605     13.5899   3.0985714184e+01   2.3056135115e+01    0.2425697   0.09445469 -35.51 0.0005492066    2.483    0.597
        17  -8.8829    235.3931      4.1678   3.0205167489e+01   2.7139821287e+01    0.2566086     0.230911 -86.74  0.001951847    1.303    0.233
        18  -9.2003    118.9728      2.9834   4.2679631029e+01   5.3777262476e+01    0.1518715    0.1334046  58.90 0.0005037916    1.048    0.046
        19  -7.8472    166.6919      2.6987   3.5824342273e+01   4.2556633670e+01    0.1229788   0.08452982  48.07  0.000701213    1.600    0.375
        20 -10.8284    181.9122    143.7583   6.9190720647e+01   1.6458485154e+01     0.434139    0.3634353 -15.40 0.0006567122    1.320    0.242
        21  -9.7969    249.2446    248.9016   7.6281334974e+01  -1.1755219542e+01     0.334556    0.1686316 -13.51  0.001828103    2.221    0.550
        22  -9.8551    235.6404    179.7225   6.6475576076e+01   1.3141354824e-01    0.2262368    0.2052632 -19.08 0.0005859545    1.121    0.108
        23  -7.9817    178.6202    180.3086   7.7572310248e+01   9.7095724682e+00    0.1440435    0.1151402  77.17 0.0007025704    1.791    0.442
        24  -8.4031     39.9393    179.2801   1.1147129266e+02   3.2589188647e+01    0.1685952    0.1525864  86.82 0.0002126774    1.077    0.071
        25 -11.3749      2.2399    172.3763   1.2009837869e+02   3.7798674982e+01    0.7087927    0.2407391 -77.19  0.002811339    2.448    0.591
        26  -8.5592    172.9070    174.6271   7.7679326893e+01   1.1905872627e+01    0.2013241    0.1776873  41.11 0.0007034443    1.151    0.131
        27  -8.9812    197.1681    249.1979   8.5726047574e+01  -5.1472601351e+00    0.1775329    0.1367682  10.08 0.0003641873    1.112    0.101
        28  -9.1822    222.6703    145.0625   6.1732184009e+01   8.3253874067e+00    0.2030097    0.1895564  74.06 0.0003244297    1.274    0.215
        29 -10.0236    192.2100    143.8241   6.7103703543e+01   1.4371687889e+01    0.3471121    0.2176252 -37.37 0.0009347908    1.554    0.356
        30 -10.9809    188.6029    139.6021   6.6886944863e+01   1.5934973303e+01    0.4717451    0.3499431  30.25   0.00155578    1.523    0.343
        31  -9.1235    158.4852    143.1953   7.4231505925e+01   2.1399263896e+01    0.2959129     0.217023  43.84   0.00126436    1.378    0.274
        32  -8.4671    125.9018    141.1015   8.1835115454e+01   2.8524566352e+01    0.2146219    0.1985841  86.88  0.001108775    1.140    0.123
        33 -10.6304    156.1603    137.2572   7.3413038947e+01   2.3173035613e+01    0.6031222    0.3521224  43.19  0.002532907    1.736    0.424
        34 -10.7840    201.9054    131.4581   6.2485087989e+01   1.4829528408e+01    0.3713149    0.2724525  56.48  0.001878892    1.522    0.343
        35  -9.2885    236.0138    244.4744   7.7850747244e+01  -9.6139877718e+00     0.166364   0.09715135  27.15 0.0003823764    1.541    0.351
        36 -10.7536    209.6061    127.8149   6.0278818312e+01   1.3974665611e+01    0.5058938    0.2820133 -58.91    0.0020829    2.350    0.575
        37  -9.8651    160.9136    128.4635   7.0243733387e+01   2.4049869338e+01    0.3790087    0.2837766 -44.51  0.001801097    1.314    0.239
        38  -8.0787     92.5374    129.4580   8.8561177702e+01   3.7564250345e+01     0.149775    0.1455234 -57.92 8.572667e-05    1.015    0.014
        39 -10.0939    197.2244    126.6889   6.2281771798e+01   1.6697769730e+01     0.312045    0.2159985 -64.42  0.001440258    1.778    0.438
        40 -10.6668    214.5262    121.9497   5.8127124496e+01   1.4077391633e+01    0.4540808    0.2069209 -51.07  0.001305829    2.358    0.576
        41  -8.0355    200.7593    182.3297   7.3416209555e+01   5.3860599439e+00    0.1265288    0.1083608 -67.66 0.0002048126    1.535    0.349
        42 -10.7412    190.9158    153.0499   6.9375447418e+01   1.2802858054e+01    0.6645014    0.3596686 -54.66  0.002630993    2.213    0.548
        43  -9.9449    134.2037    146.3796   8.0860094473e+01   2.5647682328e+01    0.9140016    0.2711623 -54.55  0.002452923    4.286    0.767
        44 -10.2825    162.5155    120.0074   6.7835286662e+01   2.5478034768e+01    0.3704588    0.2601391  79.89  0.001560966    2.057    0.514
        45  -9.7549    135.3615    121.5917   7.4754704020e+01   3.1035826921e+01    0.5842962    0.1856572 -50.83  0.001702254    3.485    0.713
        46  -8.9143    196.3991    231.8343   8.3147755238e+01  -2.4145452921e+00    0.2350264    0.2072615 -75.13  0.001226562    1.780    0.438
        47 -10.0868    205.1752    114.8104   5.8122552230e+01   1.7290094626e+01    0.3058338    0.2119002  35.98 0.0009637876    1.739    0.425
        48 -10.2568    201.4844    115.5089   5.8934114914e+01   1.7931101683e+01    0.2735817    0.2277711 -67.61  0.001466647    1.280    0.219
        49 -11.8200    205.2054    110.4403   5.7113635660e+01   1.8087388334e+01    0.7481552    0.4184361  38.65   0.00273351    2.259    0.557
        50  -9.7708    135.0698    110.1895   7.1930988229e+01   3.3591466000e+01    0.7711204    0.3910224 -40.81  0.002968755    2.034    0.508
        51  -8.1298    134.6172    103.1727   7.0194132815e+01   3.5179536799e+01    0.3514423    0.1525594 -38.67  0.001223674    2.500    0.600
        52  -8.8094     27.8320    111.6367   1.0568865253e+02   5.0536366610e+01    0.2535086    0.1693872 -75.00 0.0008061813    1.450    0.311
        53  -8.2924     73.9657    110.6859   9.0006880146e+01   4.5151665729e+01    0.1858053    0.1855132  46.57 0.0003392479    1.055    0.052
        54 -10.0371    167.7033    113.9614   6.5204319821e+01   2.5571215382e+01    0.4539927    0.2940606 -39.59  0.002027776    1.541    0.351
        55  -9.2374    135.9190     98.6679   6.8648224491e+01   3.5823872670e+01    0.3174166      0.27524 -89.73 0.0009180779    1.306    0.234
        56 -10.1739      5.1678    106.7985   1.1255533002e+02   5.3357979569e+01      0.35043    0.1936908  60.37  0.001747557    2.361    0.577
        57 -10.1081    125.9135    104.1083   7.2721539697e+01   3.6877206568e+01    0.5404146    0.3792484 -89.51  0.002199191    2.261    0.558
        58  -9.6140    150.1552    102.6403   6.6254397286e+01   3.1810605441e+01    0.2970754    0.2718078  36.76 0.0006778231    1.142    0.124
        59 -10.7295    161.8449     97.7473   6.2346707847e+01   3.0110462256e+01    0.6532668    0.3904204  47.64  0.002832968    1.696    0.411
        60  -9.3820    198.0789     97.8387   5.5385349732e+01   2.1904434398e+01    0.2303855    0.1919957 -77.57  0.001237499    1.271    0.213
        61 -10.3244    144.2155     92.9461   6.5053917222e+01   3.5095547779e+01    0.3315893    0.2997339 -74.98  0.001486303    1.164    0.141
        62 -10.3767     91.9941     92.1328   7.9317475879e+01   4.6302118420e+01    0.2348537    0.2217201 -37.15  0.001301788    1.044    0.042
        63  -9.5150      3.1908     93.3934   1.1124610316e+02   5.6613074058e+01    0.1591932    0.1100116  32.31 0.0009589184    1.721    0.419
        64 -10.7912    174.2417    147.9563   7.1759431375e+01   1.7153229059e+01    0.5766066    0.2719112 -40.09  0.002220987    2.139    0.533
        65 -11.5059    160.1899     88.3829   6.0227863180e+01   3.2271139880e+01    0.3857987    0.3252653  -9.78 0.0006306869    1.463    0.316
        66 -10.2829    216.3993    225.8387   7.8327999691e+01  -4.3845966859e+00     0.214421    0.1866412   4.74  0.000337108    1.117    0.105
        67 -11.0877    135.5813     73.5667   6.1618832690e+01   4.0712518072e+01    0.7882856    0.2075677  43.20  0.002053055    4.870    0.795
        68 -10.9267    140.3487     70.4467   5.9587595680e+01   4.0145565064e+01    0.3799794    0.2389708 -56.95  0.001089611    1.897    0.473
        69  -8.5929    126.2958     70.3037   6.2931456768e+01   4.3422135350e+01    0.1463642    0.1149611  15.29            0    1.580    0.367
        70  -8.6630    184.3091    225.9413   8.4590303137e+01   3.7280357592e-01     0.172683    0.1519914  -5.73 0.0003437483    1.098    0.089
        71 -11.0091      3.5524     60.9085   1.0487434497e+02   6.3785553955e+01    0.4225861    0.1636647 -46.10  0.002100934    1.970    0.492
        72 -11.1328      3.8139     51.3582   1.0239756427e+02   6.5728403715e+01    0.3573093    0.2442965  18.76  0.001415894    1.645    0.392
        73 -10.2416    124.8717     56.9610   5.9160245492e+01   4.5975635526e+01    0.2722794    0.2465267 -36.28 0.0004209396    1.168    0.144
        74 -10.1496    180.3930     51.2076   4.6662979501e+01   3.3609798990e+01    0.4327183    0.1954136 -45.01  0.001802523    2.174    0.540
        75 -13.6424    219.0178     71.3310   4.6044677092e+01   2.1802040061e+01     1.520721     1.271078 -79.99  0.009172633    1.139    0.122
        76 -10.3412     24.9630    172.4970   1.1453133526e+02   3.5802628402e+01     0.547586     0.339091   3.98  0.002726792    2.547    0.607
        77 -11.2895     15.2267    167.5601   1.1651416073e+02   3.7888930570e+01    0.5088998    0.2641202 -85.87  0.002554048    1.772    0.436
        78  -8.8455    247.8385    221.6267   7.2013369448e+01  -7.9877712637e+00    0.2086833    0.1440823  55.32  0.001137915    2.890    0.654
        79  -9.4972    185.9184    221.3857   8.3510220663e+01   8.8967061305e-01    0.2217737    0.1755137 -19.56 0.0003165039    1.276    0.216
        80  -8.1881    120.6401     59.3230   6.0964204560e+01   4.6564610933e+01    0.1487157    0.1133779 -83.42 0.0007043293    1.776    0.437
        81  -9.5480    204.4131     40.4936   4.0787893169e+01   2.9507184144e+01    0.2753663    0.1836067 -63.20 3.312469e-05    1.428    0.300
        82 -10.4591    190.9043     38.4029   4.1951225194e+01   3.2889389717e+01    0.4280256    0.2406942 -45.65  0.001473913    1.710    0.415
        83  -8.4666    157.6636     36.3298   4.6260788503e+01   4.1085746318e+01    0.1450934   0.09768421 -72.76 0.0007052048    1.731    0.422
        84  -8.0982    201.4890     32.4135   3.9236366787e+01   3.1215124783e+01    0.1304604    0.1088108 -81.10 0.0001130142    1.023    0.023
        85 -12.6232    200.0144     79.8441   5.0758220518e+01   2.4594491965e+01     1.846793    0.6808891  41.34  0.005305908    5.356    0.813
        86  -9.9471    179.4332     24.0471   3.9813823272e+01   3.7351792429e+01    0.4696725    0.3301956  89.71  0.002423963    1.336    0.251
        87 -11.2679     67.6823    144.1740   9.8897055319e+01   3.7826127804e+01     1.573998    0.7739508  37.36   0.00469608    2.061    0.515
        88 -13.1784     33.5163    156.3181   1.1049435336e+02   3.8922261991e+01     1.544938    0.8437799  21.83   0.00188457    2.220    0.549
        89 -10.2844    125.4975     24.0260   4.8398169430e+01   5.0244837408e+01    0.2742188    0.1582194  48.51   0.00125112    1.581    0.368
        90  -8.0799    159.6097     22.7314   4.2142244593e+01   4.2234159365e+01    0.1772147    0.1142022 -46.51 0.0003988291    1.624    0.384
        91  -9.1529      1.6105     22.3897   9.4373393918e+01   7.1221133557e+01    0.1948703    0.1037342 -66.81 0.0009579605    3.326    0.699
        92 -10.3580    213.8024     20.3416   3.5243612514e+01   2.9915887643e+01    0.2426925    0.1821469 -40.98  0.000801529    1.394    0.283
        93 -12.9794     44.0126    151.6341   1.0694486927e+02   3.8960319901e+01     1.061601    0.9607385 -22.74  0.002614991    1.321    0.243
        94  -9.1219    186.6651    217.0047   8.2618418564e+01   1.5209852080e+00    0.1800728    0.1591577 -11.65 0.0004150224    1.102    0.092
        95 -10.5189     38.2148    212.7305   1.1508288928e+02   2.5006420969e+01    0.3809355    0.2734938 -41.82  0.002200626    1.957    0.489
        96  -9.8759    248.2462    210.2457   6.9962455123e+01  -6.4158273562e+00    0.3588138     0.228666  49.46  0.001782468    2.436    0.590
        97  -8.3986    221.8491    205.8201   7.3812247915e+01  -2.0479713671e+00    0.1570532    0.1467867  28.51  0.000444463    1.320    0.243
        98  -7.8786    105.4571    206.5963   9.8933715897e+01   1.7021761524e+01    0.1374143    0.1260895  46.20 0.0001169361    1.052    0.050
        99 -10.0687    153.3403    210.8297   8.8640580105e+01   8.1492483789e+00    0.2383639    0.2353327 -56.55 0.0004162749    1.141    0.124
       100  -8.3962    208.3735     11.4855   3.3790146506e+01   3.2105255320e+01    0.1216522   0.09789519 -74.92 0.0001879636    1.036    0.034
       101  -9.6993    247.2638    202.7846   6.8796133948e+01  -5.1833307959e+00     0.234961     0.199047 -12.73  0.001515621    1.098    0.089
       102 -10.2063    191.7366    193.1563   7.7305760750e+01   4.9415482089e+00     1.002688    0.5221555 -64.33  0.002965412    5.894    0.830
       103  -9.0427    236.9992    197.5049   6.9585208209e+01  -2.9423941227e+00     0.154621    0.1117015  61.48 0.0007969245    2.506    0.601
       104  -9.2590    144.0139     17.7064   4.3085441029e+01   4.6516919538e+01    0.1816856     0.155369  71.15 0.0004551568    1.015    0.014
       105  -8.7992    176.0178    196.3183   8.1172401118e+01   7.0551751226e+00    0.1900211     0.164263  28.32 0.0002625281    1.100    0.091
       106  -8.9603     37.8605    195.0212   1.1358007036e+02   2.9080402402e+01    0.1846458     0.160157  84.68   0.00029047    1.061    0.057
