#   1 NUMBER                 Running object number                                     
#   2 MAG_AUTO               Kron-like elliptical aperture magnitude                    [mag]
#   3 X_IMAGE                Object position along x                                    [pixel]
#   4 Y_IMAGE                Object position along y                                    [pixel]
#   5 X_WORLD                Barycenter position along world x axis                     [deg]
#   6 Y_WORLD                Barycenter position along world y axis                     [deg]
#   7 A_WORLD                Profile RMS along major axis (world units)                 [deg]
#   8 B_WORLD                Profile RMS along minor axis (world units)                 [deg]
#   9 THETA_WORLD            Position angle (CCW/world-x)                               [deg]
#  10 FWHM_WORLD             FWHM assuming a gaussian core                              [deg]
#  11 ELONGATION             A_IMAGE/B_IMAGE                                           
#  12 ELLIPTICITY            1 - B_IMAGE/A_IMAGE                                       
         1 -12.3519    124.1032     26.9987   7.5583069244e+01   5.0209755475e+01     0.825193    0.7050409 -16.82  0.003406644    1.324    0.245
         2 -13.7325    118.2513     40.8238   8.1428018997e+01   4.9865639551e+01      1.67705    0.7543518  49.75   0.00729201    1.946    0.486
         3 -12.5809     60.3326     45.0430   1.0072257185e+02   6.0096801081e+01    0.8748826    0.4633625 -37.60  0.004553133    1.835    0.455
         4 -11.7879    106.0008     19.9648   7.7455340090e+01   5.4923473473e+01    0.4030979    0.2376756 -15.79 0.0004712548    2.002    0.500
         5 -11.8284    110.3929      2.1811   7.0377677426e+01   5.5545074530e+01     1.468529    0.2629194  61.62  0.004541048    4.792    0.791
         6 -10.5929    133.2581     23.9042   7.2685609037e+01   4.8441761182e+01     0.380403    0.2758946 -86.87  0.001936065    1.748    0.428
         7 -12.6276    130.6566     14.1011   7.0170682262e+01   5.0016137360e+01     1.594332    0.6453564  73.09  0.005892658    3.389    0.705
         8 -11.3265    121.0461      7.7750   7.0048496154e+01   5.2754755424e+01    0.3166867    0.2583757  60.03  0.001123406    1.088    0.081
         9 -10.0104      4.9976      8.4298   1.1021763706e+02   7.1404142744e+01    0.4630764    0.2739254 -35.20  0.002894455    1.478    0.323
        10 -11.8139     26.3085     27.6488   1.0794993290e+02   6.6866864774e+01    0.4578076    0.3616725  13.62   0.00285696    1.298    0.230
        11 -11.7838     22.9929     10.9978   1.0262728518e+02   6.9435930379e+01    0.4979662    0.2692094   5.04   0.00234186    1.893    0.472
        12 -12.3912     19.0013     22.6696   1.0929829922e+02   6.8279988302e+01     0.499212    0.3619464 -17.96  0.001907417    1.056    0.053
        13 -12.7924     15.4766     14.1279   1.0748617788e+02   6.9773401206e+01    0.7518404    0.4071167 -25.22  0.002300455    1.529    0.346
        14 -11.4590    182.3693     25.2153   6.4884043807e+01   3.6510940619e+01     0.681121    0.3132711  45.91  0.002907072    2.577    0.612
        15 -11.3584    177.9909     21.7215   6.4609693998e+01   3.7965078155e+01    0.6472677     0.420922   6.00  0.003095454    2.746    0.636
        16  -8.2688     87.4330      7.3881   7.7692570013e+01   5.9875886720e+01    0.5519412    0.2753616  45.29  0.002528942    1.605    0.377
        17 -11.7245     90.4738     20.1225   8.1597530315e+01   5.8082073236e+01    0.4952197    0.4298144   8.67  0.002140964    1.135    0.119
        18 -11.3921     86.0253     14.0505   8.0591469641e+01   5.9550037299e+01    0.5134479    0.3089542  11.42  0.002482178    1.929    0.482
        19 -10.8129    222.9163     21.2977   5.9245541223e+01   2.7427500280e+01    0.4822112    0.2299263 -73.66  0.002159348    2.490    0.598
        20 -10.8243     42.3485      3.4528   9.0921920381e+01   6.7877397839e+01    0.5641683     0.249532  -5.86  0.002496044    3.627    0.724
        21 -10.6286     36.4289      9.4834   9.6032058684e+01   6.8045488272e+01    0.3387994    0.1605651  45.99  0.001743822    3.014    0.668
        22 -11.1259     46.9509     18.8409   9.5735414540e+01   6.5570029479e+01    0.3054902    0.2303488   1.58  0.001177137    1.071    0.066
        23 -12.5895     47.4843     12.9114   9.3034512498e+01   6.6173488715e+01    0.9067255    0.2959211  39.58  0.004231117    2.769    0.639
        24 -11.7281     35.4971     19.0026   1.0050118072e+02   6.7031347218e+01    0.4533845    0.2489858 -20.40  0.002261517    1.709    0.415
        25 -12.4410     69.4668     18.3026   8.7331067856e+01   6.2139186000e+01    0.6419554    0.3836204  43.67  0.003736039    1.539    0.350
        26 -12.6142    236.6679     16.3796   5.6970608752e+01   2.4965415642e+01    0.6439054    0.5759011 -32.14  0.004497166    1.546    0.353
        27 -11.7075    244.6719     15.8267   5.6188666297e+01   2.3313943793e+01    0.3868202    0.3083307  80.58  0.002661949    1.241    0.194
        28 -12.4437    245.5165      6.6506   5.4399567108e+01   2.4201521869e+01    0.8007246    0.3668657  89.42  0.004133358    2.085    0.520
        29 -10.4431    206.8141     18.1115   6.0227578226e+01   3.1502288768e+01    0.3504574    0.1881798 -52.83  0.001817368    1.838    0.456
        30 -11.2255    165.3870     17.1687   6.5226329504e+01   4.1495001746e+01    0.3565235       0.2224  44.57 0.0008906563    1.704    0.413
        31 -10.7465    223.0416     11.9281   5.7292274835e+01   2.8487688868e+01    0.3839107    0.1935766  73.22  0.001285875    1.701    0.412
        32 -11.7692    186.4664      9.2699   6.0483171323e+01   3.7245363164e+01    0.5955741    0.2868413 -74.42  0.002550065    2.793    0.642
        33 -11.7790    192.7157      7.2738   5.9312583001e+01   3.5968920981e+01    0.6297573    0.4097673  42.87  0.003515319    1.950    0.487
        34 -12.2015    104.8702     12.7100   7.5212717518e+01   5.5855055253e+01    0.4410324    0.3428323 -10.29  0.001845773    1.440    0.306
        35 -11.1193     65.9363     10.4856   8.5356935615e+01   6.3535879858e+01     0.414873    0.1724362  43.26  0.002107583    2.023    0.506
        36 -10.6134     62.8994      6.1758   8.4589624959e+01   6.4450716369e+01    0.2762673    0.1710158   4.28 0.0009951488    1.646    0.392
        37 -11.6716    211.5585     10.2294   5.8022389469e+01   3.1279393898e+01    0.3647204    0.3087693   3.39  0.001476912    1.850    0.459
        38 -10.1089    157.4615     10.7189   6.4668082593e+01   4.4028891482e+01    0.3021795    0.1030397 -34.81   0.00127267    3.111    0.679
        39 -10.2362     31.9395     12.0187   9.9064878582e+01   6.8309924015e+01    0.1643748    0.1286646   1.13 0.0004511355    1.107    0.097
        40 -10.1027    168.7950     10.0870   6.2898838507e+01   4.1380359178e+01    0.2964178    0.1241072  52.98  0.001341577    2.153    0.535
        41  -9.8679    152.5408      7.1760   6.4433556105e+01   4.5520844202e+01    0.3340308    0.1085637  51.85  0.001365575    2.588    0.614
        42 -11.1505     76.9691      5.4733   7.9891549833e+01   6.2030151560e+01    0.4150735    0.3763784  19.49  0.003044136    1.209    0.173
        43  -9.7267    202.4301      6.2157   5.8057065031e+01   3.3806710033e+01    0.1719407    0.1494559 -84.50 0.0007521409    1.132    0.116
        44 -11.2758    204.5163      2.2948   5.6998782639e+01   3.3719574646e+01    0.4418757    0.2140518  81.36  0.001199105    1.816    0.449
        45  -9.8222    163.0009      5.6325   6.2526836261e+01   4.3175723664e+01    0.1945826    0.1603671  44.98 0.0006605635    1.317    0.241
        46 -10.1159      1.2693      7.1834   1.1158801008e+02   7.1846517741e+01    0.1270775    0.0743172 -38.99 0.0003040899    1.588    0.370
        47 -11.1670    218.8521      2.6949   5.5779715635e+01   3.0423893401e+01    0.3023186    0.2244001 -85.55  0.001440072    1.058    0.055
        48 -11.9244    224.2637      1.6042   5.5103343595e+01   2.9333498843e+01    0.7402463    0.2999008 -83.52  0.003140253    2.999    0.667
        49 -10.1335    174.9787      4.5315   6.0705774418e+01   4.0428606019e+01    0.2257677    0.1663091  60.15 0.0008867788    1.243    0.195
        50  -9.2964    171.0192      4.0000   6.1062940276e+01   4.1417120883e+01    0.2675993     0.115455  74.84 0.0009415613    2.080    0.519
        51 -10.6234    141.9099      3.9360   6.5164843978e+01   4.8295630321e+01    0.3136593     0.228579  75.02  0.001900712    1.240    0.194
        52 -10.2410     29.9597      3.5402   9.6147181087e+01   6.9495051039e+01    0.2375113      0.15994 -46.43  0.001461531    2.773    0.639
        53 -11.1577    157.7255      2.6392   6.2458408718e+01   4.4687672414e+01    0.3053171    0.2330767  81.79 0.0009961999    1.169    0.145
        54 -12.0104    133.9353      2.5837   6.6077857380e+01   5.0250628018e+01    0.3385043    0.2177404  64.41 0.0004609539    1.279    0.218
        55 -11.5924      3.0054      1.8085   1.0833548960e+02   7.2403304695e+01     0.371015    0.1453208  16.58  0.002108895    2.592    0.614
        56  -9.8952    182.9084      1.9085   5.9145013925e+01   3.8794220272e+01     0.204168    0.1250888 -71.60    0.0011177    1.705    0.413
        57  -9.8150     14.3266      1.7008   1.0256275168e+02   7.1415367088e+01     0.231169    0.1018104  10.35  0.001196189    2.818    0.645
        58 -10.5203     72.4173      2.7662   8.0162718146e+01   6.3086788098e+01    0.3735311    0.1786792  25.30  0.001896628    2.234    0.552
        59 -10.8864     10.4573    127.4298   1.3766991298e+02   4.8167911419e+01    0.4592254    0.1320045 -57.02  0.001760415    2.480    0.597
        60 -11.1993    242.7955    127.8160   7.9732426536e+01   6.1996488818e+00    0.3302064    0.2376148  77.26  0.001432736    1.847    0.459
        61 -11.8185    240.9440    122.5191   7.8881747317e+01   7.5308870718e+00    0.6266707    0.4468001 -43.59  0.001862222    1.256    0.204
        62 -10.1628     92.6448    129.0098   1.1419774252e+02   3.8016648268e+01    0.2646919     0.206856  54.24  0.001314281    1.390    0.280
        63  -9.4730     78.6267    128.7761   1.1821327614e+02   4.0357664232e+01    0.2049835    0.1328489 -65.10 0.0006808637    1.589    0.371
        64 -10.3793    187.7727    128.3966   8.9978408451e+01   1.7909981743e+01    0.2271772    0.1459326  39.54 0.0009596423    1.699    0.411
        65 -10.6939    223.9115    125.8196   8.2443540911e+01   1.0424415423e+01    0.4072801     0.180487 -53.45  0.001460327    2.690    0.628
        66  -9.8152      2.0165    125.7634   1.3975585353e+02   4.9098023013e+01    0.2304318    0.1281111 -84.47  0.001270837    1.722    0.419
        67 -11.1090     55.2421    123.1897   1.2398039579e+02   4.4925388581e+01    0.5616654    0.3459973  18.88  0.002465793    2.042    0.510
        68 -11.8053    104.6893    121.4156   1.0894139123e+02   3.7635056578e+01    0.5066088    0.4677204 -61.23  0.001569861    1.081    0.075
        69  -9.9694      4.3191    121.2293   1.3853618442e+02   4.9989306083e+01    0.2576716    0.1404759  63.59  0.001330258    2.475    0.596
        70 -10.4385     18.5461    124.6385   1.3501153632e+02   4.8221344615e+01    0.2923781    0.1461042 -54.52 0.0006488186    1.630    0.386
        71 -10.6077     45.6760    120.4135   1.2631295009e+02   4.6691520331e+01    0.2710597    0.2166533  69.69  0.001449177    1.486    0.327
        72 -10.0417    148.4103    119.7201   9.6805101189e+01   2.8825423233e+01    0.2750183    0.2002962  24.51 0.0007963575    1.718    0.418
        73  -9.7054     72.8552    119.8492   1.1796030707e+02   4.3347649358e+01    0.2179775    0.1818734 -26.81 0.0005500628    1.286    0.222
        74 -10.8708     34.3399    118.9799   1.2945995352e+02   4.8185258160e+01    0.2311739    0.1631202 -32.24 0.0008685231    1.548    0.354
        75  -9.7923    113.9088    115.9066   1.0494396721e+02   3.7105646543e+01    0.2297628    0.2071289  -8.46 0.0003610306    1.219    0.180
        76 -12.8535     33.9952     93.8696   1.2454216609e+02   5.3903847867e+01     1.572447     1.201316 -34.34  0.009719734    1.207    0.172
        77 -12.4425     10.0914     96.7750   1.3302366417e+02   5.5103195790e+01    0.9371746    0.6421876 -83.07  0.005692486    1.617    0.382
        78 -12.2491      7.2029     88.6361   1.3248644483e+02   5.7032926576e+01    0.4611202    0.3938863 -45.42  0.001283004    1.105    0.095
        79 -12.2186     18.8101    106.1441   1.3192319499e+02   5.2435024745e+01    0.3739593    0.2080471 -48.20 0.0002605551    1.506    0.336
        80 -12.7436     24.6211    109.1471   1.3065280554e+02   5.1305992801e+01     1.267791    0.4637853 -40.66  0.005181168    2.960    0.662
        81 -11.5684     28.3675    113.1204   1.3021588723e+02   5.0083748095e+01    0.4065986    0.2666268  11.49  0.002271796    1.916    0.478
        82 -12.4349     18.3830     90.2661   1.2904508228e+02   5.5963267981e+01    0.4003668    0.2505527 -51.55 0.0004378008    1.263    0.208
        83 -11.7741     18.9450     95.9684   1.2999341944e+02   5.4684687706e+01    0.2796554    0.2392839 -61.14 0.0004464889    1.116    0.104
        84 -11.3443     23.2686     94.6526   1.2830204088e+02   5.4646884894e+01    0.2523153     0.211383  16.60 0.0009507296    1.400    0.286
        85  -9.6198     88.0667    114.5488   1.1212366662e+02   4.2188273565e+01    0.2168876    0.1203139  58.39 0.0003253448    2.728    0.633
        86 -10.7632     67.1035    112.1611   1.1797134820e+02   4.5961675639e+01    0.4587134    0.2581172 -60.05  0.002082437    1.766    0.434
        87 -11.6397      2.4682    112.1579   1.3781192216e+02   5.2145817316e+01    0.3398536    0.2652559  87.95 0.0007767297    1.345    0.257
        88 -12.1567      4.1691    105.5432   1.3632699837e+02   5.3523405958e+01    0.4412366    0.3607913 -74.62  0.002292544    1.159    0.137
        89 -10.7758    107.7715    112.2404   1.0574091314e+02   3.9140101063e+01    0.3595492    0.2488963 -73.56  0.001529442    2.011    0.503
        90 -11.5552    170.6615    110.0613   8.9114756529e+01   2.5679568698e+01    0.6076276    0.4365485  38.60  0.002128574    1.513    0.339
        91 -10.0507     94.0283    111.4410   1.0956178944e+02   4.1869748677e+01    0.2659544    0.2059944 -73.97   0.00128672    1.571    0.364
        92 -10.0217     48.8882    112.1472   1.2366123623e+02   4.8262735106e+01    0.2019524    0.1799155 -89.72   0.00120854    1.257    0.204
        93 -10.9524    103.3910    109.7960   1.0637319074e+02   4.0526146426e+01     0.534845    0.2847006 -30.28  0.001948235    2.635    0.620
        94 -11.1223     78.5280    108.1718   1.1345959909e+02   4.5189752855e+01    0.4724023    0.3416591  19.60  0.001774297    1.596    0.373
        95 -11.2862    249.6358    108.8857   7.4644901415e+01   8.2354797815e+00    0.3573618    0.2121074 -57.09  0.001716511    1.725    0.420
        96 -11.0191    157.3670    106.3070   9.1162199490e+01   2.9591685428e+01    0.4433413    0.3344013  -9.68  0.001526376    1.845    0.458
        97 -10.9493    181.4770    103.1455   8.5048946643e+01   2.4482438882e+01    0.6474939    0.4036491 -69.34  0.002514954    2.308    0.567
        98 -11.5063    143.5254    105.6700   9.4345032799e+01   3.2942006386e+01    0.6421092    0.4469486  10.51  0.002552401    2.298    0.565
        99 -11.5749    145.4864    100.5285   9.2471135107e+01   3.3548890155e+01    0.4497345    0.3593709  -3.60  0.002085079    1.627    0.385
       100 -11.1604     86.0982    104.4741   1.1017594662e+02   4.4796039569e+01    0.2993486    0.2823617  37.87 0.0009595866    1.125    0.111
       101 -10.7662     48.0105    103.1030   1.2197420423e+02   5.0424583706e+01    0.2237605    0.1908118 -29.21 0.0003714381    1.149    0.130
       102 -10.6131     52.0930     98.1926   1.1949742253e+02   5.1048874468e+01    0.6002168    0.1526625 -47.33  0.002038703    3.315    0.698
       103 -10.0855     57.5771    102.3338   1.1869089497e+02   4.9458452366e+01    0.2612599    0.1261111 -59.11  0.001011529    2.055    0.513
       104 -10.3855    194.7876    101.6695   8.2053761396e+01   2.1600454469e+01    0.2959644    0.2510098 -56.12    0.0012036    1.149    0.130
       105  -9.8019    120.2906    109.3305   1.0144736765e+02   3.7262337095e+01    0.1561102    0.1228113  -7.14  0.000498382    1.625    0.385
       106 -10.4792     67.6104     99.7681   1.1480896704e+02   4.8689054820e+01    0.3007363      0.26737  82.05  0.001048804    1.388    0.280
       107 -11.1835     68.3966     95.7765   1.1352642832e+02   4.9449666077e+01    0.4467298    0.3121614  -4.92   0.00220569    1.829    0.453
       108  -9.9210     61.3136    101.6254   1.1730913286e+02   4.9135524033e+01    0.1378688    0.1073532  83.69 0.0007031274    1.790    0.441
       109 -10.2961    236.5113     99.9657   7.4633342554e+01   1.2497843614e+01     0.223218    0.1273882 -41.85    0.0010374    1.604    0.376
       110  -9.2418     96.0116    100.0173   1.0595918667e+02   4.4040516683e+01    0.1724338    0.1616829  24.03 0.0003296268    1.082    0.076
       111 -10.2724    210.0817     97.6432   7.8320975848e+01   1.8777023295e+01    0.2869995    0.2529935 -25.75  0.001172112    1.296    0.228
       112 -10.4217     57.3430     97.7206   1.1765011990e+02   5.0511451307e+01    0.2285898    0.2079227 -75.74 0.0008032746    1.258    0.205
       113  -9.7732    190.5822     96.7557   8.1634967823e+01   2.3528202622e+01    0.2163458    0.1373492 -51.74 0.0009429037    1.604    0.377
       114  -9.5750     77.9769     96.9840   1.1075048653e+02   4.7752471142e+01    0.1984661    0.1924206 -68.13 0.0003824216    1.149    0.130
       115 -11.3522     81.4520     92.6811   1.0847089442e+02   4.8115238869e+01    0.6320912    0.4753834  53.95  0.003245287    1.615    0.381
       116 -11.3322     79.5498     83.0205   1.0633867483e+02   5.0409074140e+01    0.6206252    0.5070042 -67.44  0.002955249    1.556    0.357
       117 -11.1780     66.7104     81.8176   1.1026965134e+02   5.2612511143e+01    0.4343232    0.2957413  24.53   0.00229419    1.555    0.357
       118 -11.5275     73.2304     77.7785   1.0688452165e+02   5.2444637010e+01    0.5965723    0.4175111 -14.69  0.003055894    1.630    0.386
       119  -9.3859    183.8437     96.1898   8.2804204397e+01   2.5250910619e+01    0.2022762    0.1850771  17.79 0.0006121785    1.289    0.224
       120  -9.5466    140.4896     96.4886   9.2607857790e+01   3.5516383495e+01    0.2336649    0.1520363 -29.63 0.0009820522    1.790    0.441
       121 -10.2070    138.2601     93.3254   9.2290910834e+01   3.6656532755e+01    0.3894581    0.2426598  31.78 0.0009103087    1.937    0.484
       122 -12.6459     39.4922     85.7882   1.2075905598e+02   5.5107213159e+01     1.708104    0.3980873  23.42  0.002248775    6.120    0.837
       123 -11.1355    117.2588     93.1203   9.7829418674e+01   4.1314587063e+01    0.7655762     0.420291  31.45  0.002998956    2.208    0.547
       124 -10.9978    126.3218     93.1504   9.5353606056e+01   3.9365806786e+01    0.4009141    0.3354956  29.09   0.00111701    1.247    0.198
       125 -11.1606    122.3385     93.6901   9.6585735352e+01   4.0121101489e+01    0.2705135    0.2200288 -60.03 0.0008808248    1.376    0.273
       126 -11.2321    102.4105     90.2830   1.0130815516e+02   4.4879932446e+01    0.5422152    0.4419502 -16.30  0.001683605    1.332    0.249
       127 -11.2713    236.4929     92.1752   7.2924816913e+01   1.3860943737e+01    0.4493069    0.3079291 -83.73   0.00222985    1.749    0.428
       128 -10.7854    235.8129     87.2885   7.1949561170e+01   1.4844226294e+01    0.2742959    0.1897291 -89.96 0.0008789472    1.669    0.401
       129  -9.7640    160.5256     93.5187   8.7029465598e+01   3.1382767550e+01    0.2799887    0.1485619  63.16  0.001030937    2.268    0.559
       130 -10.8629    152.8743     91.8908   8.8339255471e+01   3.3523411898e+01    0.4612224    0.3291074  37.86  0.002105552    1.501    0.334
       131 -11.4021     89.3849     90.1202   1.0524283368e+02   4.7308789159e+01    0.4768658    0.3070913 -34.41  0.001140989    1.585    0.369
       132 -10.8415    184.1198     86.4985   8.0274809578e+01   2.6974710607e+01    0.6533929    0.2864077 -46.26  0.002435719    2.319    0.569
       133 -10.0594    212.1508     87.3534   7.5540248193e+01   2.0142775803e+01    0.2664087    0.2040407  -9.91   0.00126053    1.922    0.480
       134 -11.3250    113.3879     84.8309   9.6521741136e+01   4.3763602398e+01    0.6119787    0.3079344 -36.83  0.001830734    2.099    0.524
       135 -11.3247    108.8226     80.8549   9.6649922555e+01   4.5461809888e+01    0.3518801    0.3226172 -18.43  0.001162616    1.085    0.079
       136  -9.4082     67.5025     87.9987   1.1173676458e+02   5.1231069615e+01    0.2040223    0.1014253 -31.18 0.0008099776    2.487    0.598
       137 -10.8017    165.5527     83.2560   8.3162095988e+01   3.2081317414e+01    0.4178186    0.3368351 -58.81  0.001633562    1.307    0.235
       138 -11.4557    143.2397     83.9066   8.8402088796e+01   3.7307472401e+01    0.3945642     0.346138 -13.69  0.002042688    1.283    0.221
       139 -11.2180    119.9644     85.0078   9.4736222953e+01   4.2341724418e+01    0.4253331    0.1934353  42.41  0.001614421    2.185    0.542
       140 -10.1440     59.2885     83.8441   1.1337596555e+02   5.3217678475e+01    0.2557468    0.2001343 -10.77 0.0006379792    1.326    0.246
       141 -10.6948    127.5565     83.2613   9.2180876908e+01   4.1014457799e+01    0.3264647    0.1726434  36.87  0.001280218    2.092    0.522
       142 -11.7023     52.8654     76.6542   1.1360936244e+02   5.5488443685e+01    0.7172843    0.3218123 -51.33  0.003233309    2.112    0.526
       143 -10.9629     58.6325     78.2776   1.1203988933e+02   5.4431679210e+01    0.2741252    0.2360564  26.06 0.0007919333    1.254    0.202
       144  -9.6021    239.6537     82.6782   7.0418119698e+01   1.4793896940e+01    0.1291725    0.1099114  16.12 0.0007049647    1.736    0.424
       145 -12.2724    241.7144     76.9948   6.8926612300e+01   1.5288684254e+01    0.7825775    0.3353333  67.65  0.003216279    2.713    0.631
       146 -12.0680      2.0167     71.4130   1.3087008912e+02   6.0881994975e+01    0.6682777    0.1427777 -60.91  0.002656055    3.368    0.703
       147 -11.1112     14.3364     66.9240   1.2524719001e+02   6.1053564856e+01    0.3059194    0.2150254 -54.64  0.000925624    1.272    0.214
       148 -12.1915      5.7056     62.4024   1.2744816880e+02   6.2464243661e+01    0.5874038    0.2640916 -38.59  0.003273379    1.799    0.444
       149 -11.7365     12.3669     62.1937   1.2481414839e+02   6.2102458339e+01    0.3094046     0.225886   0.89 0.0008315319    1.455    0.313
       150 -10.2205    104.3505     76.6809   9.6695079226e+01   4.7141498853e+01    0.3712803    0.2224362 -31.32  0.001663669    1.804    0.446
       151 -11.1485     94.1905     76.2679   9.9643663773e+01   4.9169591412e+01     0.576381    0.3921662  32.34  0.001917268    1.481    0.325
       152 -12.4574     75.0012     50.5087   9.7466717291e+01   5.6963830726e+01    0.9511811    0.7427145 -34.20  0.005681645    1.321    0.243
       153 -11.7998     85.7275     73.9007   1.0158789296e+02   5.1132549693e+01    0.6204061    0.4724311  46.57  0.003334528    1.446    0.308
       154 -11.7184     78.8027     67.3355   1.0179219584e+02   5.3509805379e+01    0.6047757     0.451609 -65.24   0.00304626    1.985    0.496
       155  -9.4187    134.4736     77.4599   8.8703103631e+01   4.0516729238e+01    0.1487646    0.1426987  61.55 6.078676e-05    1.053    0.050
       156 -11.9593     13.8448     74.4798   1.2722858406e+02   5.9577000245e+01    0.4532503    0.3324192 -43.43  0.002199732    1.069    0.064
       157  -9.5192    197.4108     74.7362   7.4925247495e+01   2.5801067458e+01    0.1935461    0.1425247 -27.98 0.0008485521    1.610    0.379
       158 -10.3802    184.1638     60.8820   7.3675172240e+01   3.1260822947e+01    0.2839282    0.2306552  50.70  0.000978236    1.273    0.214
       159 -12.7283    186.0326     69.6613   7.5604527112e+01   2.9406406779e+01    0.9463744    0.6418723 -58.96  0.003628943    1.579    0.367
       160 -10.8988    192.5839     65.8290   7.3515410207e+01   2.8426326306e+01    0.4420161     0.282618 -84.93  0.001820863    1.990    0.498
       161 -10.3792     67.0839     72.1656   1.0728719370e+02   5.4447779960e+01    0.4639684    0.2323763 -36.99  0.002120845    1.937    0.484
       162 -10.4921    230.4742     73.4753   6.9644724951e+01   1.8313185120e+01    0.3051962    0.1995006 -80.24  0.001028435    1.740    0.425
       163 -11.4911     33.7674     71.5733   1.1914453202e+02   5.8570933536e+01    0.5307173    0.2618221  22.75  0.002722226    2.240    0.554
       164 -10.1701     38.4587     73.4946   1.1793503968e+02   5.7730875637e+01    0.2373558    0.2016426 -21.37 0.0006056601    1.070    0.065
       165 -11.2753     41.4180     70.7242   1.1607464573e+02   5.7968903827e+01    0.4339898    0.2828328 -54.86  0.002445242    1.566    0.361
       166  -9.5562     60.8337     72.8299   1.0967154414e+02   5.5204354537e+01    0.1645575    0.1558294  43.97 0.0004871129    1.313    0.239
       167 -11.3997    162.2413     70.6384   8.0408853009e+01   3.5081223085e+01    0.4772219    0.3615321  84.23  0.001987597    1.515    0.340
       168 -12.0680    122.5347     68.5856   8.9117610034e+01   4.4754570272e+01    0.5962374    0.4223501  49.74  0.001854786    1.357    0.263
       169 -10.7716    129.4817     65.6598   8.6436520812e+01   4.3685436039e+01    0.5582321    0.2958215 -56.56  0.002094843    2.895    0.655
       170 -10.6654     20.9283     71.6752   1.2394808993e+02   5.9642198669e+01    0.2076345    0.1561942 -35.60 0.0003605707    1.090    0.082
       171 -10.6916    200.0180     69.7675   7.3276456003e+01   2.5993442997e+01    0.3085923    0.1895729  76.86  0.001386281    1.811    0.448
       172  -9.9988    240.3012     69.6324   6.7535722311e+01   1.6773896358e+01    0.1466019    0.0887047 -66.94 0.0007033454    1.738    0.424
       173 -10.9846    209.0380     67.8575   7.1414667665e+01   2.4149761283e+01    0.5186982    0.2194553  46.74  0.001932974    2.928    0.658
       174 -12.3506    219.3097     66.2870   6.9563331631e+01   2.1998325849e+01    0.8163168    0.3505671  60.69  0.002607356    2.274    0.560
       175 -10.9728    172.0144     67.7805   7.7686341248e+01   3.3154987591e+01    0.4131126    0.3219532 -50.16  0.001552484    1.325    0.245
       176  -9.2185     69.7092     66.7220   1.0468353402e+02   5.5066273388e+01    0.1329273   0.09537214  -7.19 0.0001903943    1.523    0.343
       177  -9.6634     25.8950     65.3060   1.2041045042e+02   6.0496657060e+01    0.1613981    0.1278786 -30.52 0.0004166624    1.031    0.030
       178  -9.5182     21.2054     64.7972   1.2207404162e+02   6.0972832061e+01    0.1684827    0.1093217 -29.33 0.0006973489    1.354    0.262
       179 -10.2494    204.7075     63.5987   7.1052512829e+01   2.5853889198e+01    0.2468285    0.2146225  24.97 0.0009011959    1.536    0.349
       180 -10.1328    198.3859     63.3737   7.1971628742e+01   2.7407628104e+01    0.3034497    0.1975303 -58.09  0.001462238    1.588    0.370
       181 -10.4558     98.1627     62.7205   9.4150655703e+01   5.0815241107e+01    0.3491924    0.2478579   3.66  0.001723812    1.732    0.422
       182 -11.1758     91.4150     62.4172   9.6124793620e+01   5.2148032850e+01    0.3483943    0.3281396  49.50  0.001243069    1.236    0.191
       183 -11.1007     91.2321     57.9376   9.4706798782e+01   5.2921397924e+01    0.3615965    0.2816507  43.30  0.001102767    1.299    0.230
       184 -10.7427     87.5683     57.1797   9.5608374828e+01   5.3718793579e+01    0.4332459     0.201184 -38.40  0.001343099    2.187    0.543
       185 -10.7573     58.3723     62.1128   1.0723099112e+02   5.7529761875e+01    0.3748775     0.295267 -68.99  0.002044006    1.951    0.488
       186 -11.4350    159.2158     61.6592   7.8532326757e+01   3.7269648954e+01    0.7957789    0.5432732   8.98  0.003410266    2.430    0.588
       187 -10.6657    157.4918     56.5276   7.7437947914e+01   3.8474694135e+01    0.3322138     0.222114  45.50  0.001036724    1.484    0.326
       188 -11.5656    155.5941     51.7339   7.6459433502e+01   3.9639857729e+01    0.5892543    0.4922512 -68.92  0.002704325    1.315    0.240
       189 -10.8616    105.0442     61.4518   9.1708333163e+01   4.9655638750e+01    0.3894443    0.3038737 -37.83  0.002110912    1.350    0.259
       190  -9.9776     84.4149     62.6415   9.8429243883e+01   5.3373927602e+01    0.2566291    0.1274259 -43.92  0.001132426    2.114    0.527
       191 -10.4636    142.9532    249.5126   1.2329885924e+02   2.0778092405e+00    0.2132571    0.1112777  41.04  0.001038315    1.607    0.378
       192 -10.8005    113.5024     61.1122   8.9217003121e+01   4.7948943229e+01    0.4681867    0.2373704 -36.60  0.002022749    2.069    0.517
       193 -11.9700    120.7593     58.0395   8.6307367842e+01   4.6858319771e+01    0.9677301    0.5348264  68.47  0.003714087    2.857    0.650
       194 -11.4942     93.7035     41.2169   8.8241429282e+01   5.4934318041e+01    0.6801144    0.2458751  47.71  0.002719734    2.554    0.609
       195 -11.1879    113.4963     49.7666   8.5565385826e+01   4.9679011368e+01    0.5370846    0.2751212  35.84  0.001888978    2.092    0.522
       196  -9.8499    199.2349    244.4209   1.1114622880e+02  -6.6110482301e+00    0.1850175    0.1085007  44.21 0.0009537573    1.664    0.399
       197 -11.5337     50.9356     61.2518   1.0969186117e+02   5.8652114791e+01    0.3952158    0.3459556 -31.62  0.001232783    1.165    0.141
       198 -11.4551     46.1713     58.3558   1.1056477008e+02   5.9748354069e+01    0.4716796    0.2926217 -23.67  0.001949945    1.584    0.369
       199 -10.1825     25.5644     59.9056   1.1902761224e+02   6.1549572879e+01    0.8226549    0.4745557  52.42  0.003897014    3.586    0.721
       200 -10.9400     25.5758     55.2175   1.1764965962e+02   6.2412363844e+01    0.3440104    0.2200007 -20.50  0.001560862    1.462    0.316
       201 -10.7761     29.4335     52.4757   1.1525997218e+02   6.2557824758e+01    0.3390445    0.1835115  30.61  0.001373408    2.058    0.514
       202  -9.8995    248.9924     59.5816   6.4418432475e+01   1.6473799763e+01    0.2499777    0.1411802 -60.03  0.001272578    1.663    0.399
       203  -9.8771    147.4644     60.6259   8.0715178904e+01   4.0277175214e+01    0.3677155    0.1379596  59.57  0.001256646    2.804    0.643
       204 -11.6031    219.3306     57.1808   6.7492768904e+01   2.3398609726e+01    0.4759087     0.277953  82.35  0.001824552    1.882    0.469
       205 -10.4245    145.3326     52.3302   7.8748930355e+01   4.2031900519e+01    0.3669249    0.2418032  38.67  0.001761653    1.602    0.376
       206 -11.6514    146.0553     46.1943   7.6790375963e+01   4.2720027609e+01    0.6011308    0.3644893 -21.49  0.002225834    2.081    0.519
       207 -10.3681     66.9995     55.0275   1.0179535166e+02   5.7509696373e+01    0.2374368    0.1749456 -34.41 0.0007379222    1.314    0.239
       208  -9.1992     34.6419     56.7570   1.1452108060e+02   6.1289867312e+01    0.1232923   0.07862539 -14.84 0.0003997348    1.594    0.372
       209  -9.5799      1.5349     56.4659   1.2763341910e+02   6.3820647435e+01    0.1144905   0.08411481 -39.52 7.180918e-05    1.017    0.017
       210  -9.5457    187.4559     55.3255   7.1709304297e+01   3.1295524685e+01    0.2524809    0.1225836  62.25  0.001064114    1.917    0.478
       211 -11.5601     40.1718     56.0353   1.1213307270e+02   6.0841408318e+01     0.476764    0.3988115  38.76   0.00221392    1.553    0.356
       212 -11.2557    127.8792    242.9445   1.2549378588e+02   5.8539942308e+00    0.3306145    0.1782284 -72.41  0.001456238    2.795    0.642
       213 -10.9959     60.8659     36.5650   9.7423520486e+01   6.1263730266e+01    0.2939147    0.1942937 -30.92 0.0009275711    1.480    0.324
       214 -11.2106    240.0877     50.9619   6.3631746411e+01   1.9655050436e+01    0.4400241    0.3140219 -35.59  0.002515762    1.579    0.367
       215 -10.7706    249.0452     52.5408   6.2984855114e+01   1.7507015973e+01    0.3267392    0.1722597 -64.48  0.001465786    1.937    0.484
       216 -10.5257    244.8249     50.8457   6.3090963660e+01   1.8649830309e+01    0.3300265    0.2035272 -83.44  0.001437012    1.674    0.403
       217 -10.8744    207.7256     53.1078   6.8126653950e+01   2.6726410601e+01    0.5079249    0.2159531  65.34  0.002095617    2.256    0.557
       218 -11.1466    202.4280     47.2528   6.7479789445e+01   2.8833319412e+01    0.4687743    0.3113568 -32.01  0.002412702    1.739    0.425
       219 -10.7516    194.6398     46.4833   6.8402136821e+01   3.0818515912e+01    0.6357831    0.2830407  83.02  0.002088119    3.849    0.740
       220  -9.2411     13.6931     54.2978   1.2217517022e+02   6.3499651369e+01   0.09656902   0.09006325  83.55  0.000280692    1.591    0.371
       221 -11.2768    136.4612     55.5930   8.1699085867e+01   4.3652790479e+01    0.7439633    0.5976527 -21.18  0.003995949    1.402    0.287
       222  -8.8637    220.3241     50.2921   6.5818120746e+01   2.4185625890e+01    0.1255953    0.1032647  40.45 0.0004555171    1.615    0.381
       223 -11.7907    173.9222     47.6691   7.1969697014e+01   3.5721403351e+01    0.7584888    0.3704388  66.46  0.003211725    1.985    0.496
       224 -10.6983    176.9855     43.4801   7.0358059157e+01   3.5542756304e+01    0.3479746    0.2617459  77.41  0.001586792    1.247    0.198
       225 -10.0998     51.9532     47.9928   1.0490084784e+02   6.0792559347e+01    0.2512401    0.1472008 -26.77  0.001007204    1.638    0.390
       226 -10.6961     21.1428     47.5049   1.1709502624e+02   6.4156367026e+01    0.3141328    0.2536004 -14.15  0.001350826    1.107    0.096
       227 -10.3948     26.0832     48.0899   1.1523490045e+02   6.3631021637e+01     0.200013    0.1266822 -32.12  0.000411041    1.293    0.227
       228  -9.7344     29.2924     46.3470   1.1334553411e+02   6.3632368234e+01     0.193566    0.1343804 -22.78 0.0007463838    1.205    0.170
       229 -10.1275      2.3399     48.6142   1.2527269786e+02   6.5230348551e+01    0.1795223    0.1261871   9.53  0.001176603    1.568    0.362
       230 -10.0030      4.4771     43.2953   1.2287017759e+02   6.6058123221e+01    0.4810097    0.1697572 -33.77  0.001406129    2.486    0.598
       231 -11.4448      4.2533     35.9538   1.2073378739e+02   6.7327391439e+01    0.2276412    0.1815332 -15.43 0.0004082833    1.161    0.139
       232 -10.2766      6.7923     30.7623   1.1788046494e+02   6.8014812393e+01    0.2873932    0.1421246  -6.05  0.001646916    2.219    0.549
       233  -9.5186     91.1706     48.4392   9.1513264933e+01   5.4400591655e+01    0.1814283    0.1242588  54.39 0.0009357416    1.679    0.405
       234  -9.6511     14.4001     45.7667   1.1938328109e+02   6.4979284725e+01    0.1683288   0.07920088 -41.20 0.0009480556    1.650    0.394
       235 -11.9192     46.0750     48.9917   1.0750863836e+02   6.1371266744e+01    0.5266914    0.3564526 -27.87  0.001886494    1.300    0.231
       236 -10.3324    162.3314     43.7287   7.2935860231e+01   3.9104432666e+01    0.3421936    0.1820552  63.84  0.001532531    1.736    0.424
       237 -11.7709    155.9641     41.9217   7.3603054891e+01   4.0896982114e+01    0.4002912    0.3494339  87.88 0.0009972051    1.159    0.137
       238 -10.8088    153.1676     35.9994   7.2439746806e+01   4.2328398846e+01    0.2604074    0.2245745  74.05 0.0003494883    1.088    0.081
       239 -10.1693    139.4872     43.7204   7.7436482315e+01   4.4616609655e+01    0.3086786    0.1341145  47.89  0.001257997    2.098    0.523
       240 -11.4564     33.9126     42.4024   1.1010391751e+02   6.3824035374e+01    0.4633779    0.3330866 -18.04  0.002465486    1.164    0.141
       241  -9.7289     26.2557     43.5841   1.1368854297e+02   6.4381071028e+01    0.1502736   0.09692126   1.64 0.0002788769    1.535    0.349
       242 -10.1876    189.0035     41.9443   6.8108342663e+01   3.2809669211e+01    0.2234084    0.1879607 -53.50 0.0006156694    1.227    0.185
       243 -10.7375     69.7069     32.6335   9.2801649774e+01   6.0398152953e+01    0.4982697    0.2420888  41.25   0.00113372    1.923    0.480
       244 -11.2240     81.2979     39.4754   9.1464915569e+01   5.7490455332e+01    0.5253735    0.3403504  48.70  0.002142748    1.640    0.390
       245 -11.1083     77.7721     34.3331   9.0731272850e+01   5.8800373862e+01    0.4131316     0.215884  37.84  0.001043425    1.736    0.424
       246 -11.2718     82.2970     31.3726   8.8188073384e+01   5.8361765270e+01    0.4171079    0.3083577  53.70  0.002435185    1.554    0.356
       247 -10.0821     18.2538     41.8409   1.1650182245e+02   6.5359275895e+01    0.2618797    0.1286107   0.26  0.001358436    2.514    0.602
       248 -10.2257    231.3924     39.2797   6.2141788576e+01   2.3216427422e+01     0.280026    0.1799339 -45.70  0.001428273    1.490    0.329
       249 -10.6397    226.1326     36.8838   6.2206945550e+01   2.4722108244e+01    0.4042385    0.2164668  79.40  0.001635953    1.830    0.453
       250 -11.1611     22.1284     36.5522   1.1304405787e+02   6.5901471221e+01    0.3536707    0.2586845  41.79  0.001983833    2.074    0.518
       251 -10.1509    218.1655     39.0991   6.3594640927e+01   2.6248293071e+01    0.2315634    0.1728791  77.76 0.0008229333    1.202    0.168
       252 -11.1246    176.6088     37.2917   6.8805456258e+01   3.6446996238e+01    0.3492419    0.2862572  21.75  0.001247475    1.612    0.380
       253 -10.5730    133.3638     37.2856   7.6793923276e+01   4.6879918399e+01    0.4035504     0.297528 -79.38  0.002073899    1.833    0.454
       254 -11.2626    205.5997     37.2333   6.4708110718e+01   2.9442259303e+01     0.459006    0.2583672  74.47  0.001856545    1.661    0.398
       255 -10.9457    198.8063     35.2498   6.5119248643e+01   3.1320771197e+01    0.4181088    0.3155279  67.24  0.001813394    1.214    0.177
       256 -11.3699    198.1615     28.7005   6.3656456142e+01   3.2296544046e+01    0.3954305    0.3040653  57.14  0.001689959    1.344    0.256
       257 -10.1978    199.3394     24.6986   6.2577121278e+01   3.2497392822e+01    0.2590358     0.173294  81.77  0.000688855    1.326    0.246
       258 -11.9737     41.7432     45.4860   1.0800512751e+02   6.2460396666e+01    0.3300748    0.2469328  24.38 0.0008921423    1.386    0.278
       259  -9.8521    248.5692     33.2248   5.9200123478e+01   2.0297533722e+01    0.2347935   0.09704716 -44.33    0.0011328    2.115    0.527
       260 -11.3956    171.2193     33.5826   6.8681250739e+01   3.8229257046e+01    0.4553447    0.1867028  54.03   0.00190076    2.168    0.539
       261 -11.4201    159.7924     30.0107   6.9585528877e+01   4.1440974232e+01    0.5881547    0.3779329 -44.99  0.002258972    1.717    0.418
       262 -11.0938    164.1043     27.5653   6.8206809215e+01   4.0676492124e+01    0.3902422    0.2396761 -34.57 0.0005702729    1.824    0.452
       263 -11.9081    105.9369     32.7021   8.1859966588e+01   5.3536170551e+01    0.9749916    0.4906865  13.04  0.003229116    4.768    0.790
       264 -10.4363    150.4906    237.4995   1.2001601034e+02   2.9315481018e+00    0.1366538    0.1183069  41.13 -1.84766e-05    1.017    0.017
       265 -11.7315    115.4091     24.6820   7.6799423360e+01   5.2401874319e+01    0.4752338    0.2106086  45.52  0.001385143    1.954    0.488
       266 -11.5213    110.1683     23.3848   7.7610085705e+01   5.3680531718e+01    0.4113708    0.2432793  56.61  0.001524578    1.535    0.349
       267 -10.5177    239.8865     32.5344   5.9885031031e+01   2.2247376107e+01    0.3615736    0.1772206  66.74  0.001851241    1.919    0.479
       268 -10.3170    211.3435     31.1307   6.2621261268e+01   2.8877298934e+01    0.3720631    0.1716763 -44.02  0.001756003    2.094    0.522
       269  -9.6502     15.1880    233.8363   1.4656442134e+02   2.3836562688e+01    0.1459336    0.1173139 -78.82  0.001069859    1.353    0.261
       270 -10.9400    140.6790     31.9379   7.3645397051e+01   4.5806493228e+01    0.5033326    0.3742357 -37.71   0.00281828    1.513    0.339
       271 -10.4472    242.9988    232.0068   1.0060862688e+02  -1.1550682837e+01    0.1706833    0.1614553  70.04  0.001144822    1.706    0.414
       272 -11.4799    139.9371     20.5173   7.0371803093e+01   4.7232137472e+01    0.6349894    0.2250268  52.08  0.002225458    2.301    0.565
       273 -10.7793    197.9612    231.8500   1.0928137273e+02  -4.3885071516e+00    0.2324464    0.1419397  14.98  0.001093414    2.041    0.510
       274  -9.4363    247.3132    231.3285   9.9700047693e+01  -1.2075201162e+01    0.1292712   0.08208943  -0.47 0.0005264581    1.671    0.401
       275  -9.6665    221.6388     30.7567   6.1384585024e+01   2.6545344627e+01    0.3206946    0.1051558 -38.30   0.00131618    2.907    0.656
       276  -9.3333    216.6446     32.1207   6.2232786344e+01   2.7518293618e+01    0.1594053    0.1245291 -24.89 0.0004224016    1.698    0.411
       277 -10.6020    188.5061     30.5359   6.5360256060e+01   3.4393649369e+01    0.3540677     0.255969 -84.15  0.001638192    1.354    0.262
       278 -10.1599    189.3751     27.3223   6.4458970965e+01   3.4571493686e+01    0.2495391    0.1642084  47.11  0.001136215    1.707    0.414
       279 -10.3131    182.3678     32.0982   6.6610330184e+01   3.5691614230e+01    0.2615092    0.1770256  75.05 0.0005577462    1.332    0.249
       280 -11.1392     56.1161     30.8918   9.7026794327e+01   6.2744383368e+01     0.311322    0.1909493  25.95 0.0002906419    1.500    0.334
       281 -12.1827     48.4283     30.4865   9.9824742150e+01   6.3875931134e+01    0.6533954    0.2727859  31.26  0.002608188    2.327    0.570
       282 -11.1551    143.3285     24.6833   7.0978541204e+01   4.5993929162e+01    0.4474993    0.2837921  66.87  0.001994453    1.437    0.304
       283  -9.6089     23.4854    231.5435   1.4492425764e+02   2.3397601592e+01     0.118545   0.08750687  76.75 0.0007958624    1.007    0.007
       284  -9.8672      6.6212     17.0633   1.1294434171e+02   7.0099030443e+01    0.2158748    0.1352486 -12.50  0.000955985    1.293    0.227
       285  -9.3818      9.3170    227.3073   1.4718726975e+02   2.5783839421e+01     0.100306   0.07909991 -61.55 0.0002530634    1.632    0.387
       286 -10.0361    234.5071    222.5319   1.0046766970e+02  -8.8656593891e+00    0.1290031    0.1092199   2.90 4.543794e-05    1.015    0.015
       287 -10.0840      4.5382    204.8145   1.4657657188e+02   3.0999195552e+01    0.2228791   0.08478369 -71.65  0.001135767    2.103    0.524
       288 -10.6551    245.7838    200.8395   9.4288047367e+01  -7.1986587274e+00     0.164606    0.1581616 -39.34 0.0007788502    1.339    0.253
       289 -10.3476    233.8770    197.3269   9.5793705828e+01  -4.6783258220e+00    0.2667736     0.185191 -29.18  0.001020926    1.360    0.265
       290  -9.4530     17.1510    192.1901   1.4307551787e+02   3.2599801793e+01    0.1667508    0.1129202  77.69 0.0004297167    1.264    0.209
       291 -10.2058    181.1464     16.2147   6.2814833310e+01   3.7800550274e+01    0.2006584    0.1720396 -72.20 0.0004443729    1.167    0.143
       292  -9.7199     99.7755     30.4129   8.2717330074e+01   5.5084741827e+01    0.2060333    0.1162735  49.49  0.001040177    1.580    0.367
       293  -9.9731     97.8322     26.8071   8.1975120158e+01   5.5893544039e+01    0.2237762    0.1521816 -34.30  0.001261246    1.672    0.402
       294 -10.7813    229.6975     27.2971   5.9819369411e+01   2.5165306589e+01      0.31765    0.1983064 -52.31  0.001106147    1.468    0.319
       295  -9.3472    158.3238     20.3036   6.7151747945e+01   4.2871067995e+01    0.2149964    0.1469907  65.11  0.000965515    1.238    0.192
       296 -11.2745    153.9543     25.2754   6.9256331047e+01   4.3389123842e+01    0.5046999    0.3503865  48.33   0.00277852    1.364    0.267
       297  -9.8982    154.6310     19.8016   6.7608304249e+01   4.3810949759e+01     0.222567    0.2078391 -89.09 0.0009376007    1.132    0.116
       298 -10.2172    250.3344     25.3573   5.7527564952e+01   2.0946923674e+01    0.2171207    0.1459759 -45.61 0.0009889646    1.452    0.311
       299 -11.4354    214.2817     24.0497   6.0727402054e+01   2.9070519805e+01    0.3396725    0.3166916  74.78  0.001400396    1.280    0.218
       300 -10.0068     59.9904     24.4893   9.3086616009e+01   6.2978131551e+01    0.1994489    0.1519367 -33.38 0.0005357121    1.523    0.343
       301  -9.3507     94.4905     12.4581   7.7703059728e+01   5.8026293931e+01    0.1761915    0.1096747  61.75 0.0007940342    1.702    0.412
       302  -9.9195    169.1868    191.6374   1.0801645242e+02   8.4648856633e+00    0.2107682    0.1350199  32.65 0.0005465779    1.610    0.379
       303 -10.0266     80.2896     19.2491   8.4252593969e+01   6.0113322129e+01    0.2953439    0.1292483  47.96   0.00111023    2.017    0.504
       304 -12.2931      4.8124    184.5346   1.4500257114e+02   3.5449504319e+01    0.5862655    0.3941627  73.90  0.003817216    1.300    0.231
       305  -9.6894    239.6958    184.6957   9.2204396324e+01  -3.4939749284e+00    0.1374434   0.09839929  -3.64 0.0002967778    1.598    0.374
       306  -9.8662    249.8640    180.5670   8.9563686126e+01  -4.4887230072e+00    0.2314999    0.1467806 -40.20  0.001213557    1.462    0.316
       307  -9.2878    169.4884     23.4792   6.6283325271e+01   3.9829677478e+01    0.1346651    0.1142874  70.98 0.0001020793    1.028    0.028
       308  -9.2452     57.3872    175.1934   1.3206176009e+02   3.2026067216e+01    0.1845176    0.1171423 -79.82 0.0004592885    1.522    0.343
       309 -10.0847    247.9748    173.6942   8.8503923765e+01  -2.9928552768e+00    0.3452056     0.161837  23.28  0.001138582    4.517    0.779
       310  -9.9881     51.6774    173.3097   1.3319702077e+02   3.3211285652e+01     0.141211   0.09171563  72.30  0.000332316    1.649    0.394
       311 -10.1991     39.6008    173.2381   1.3609799228e+02   3.4661645690e+01    0.1891973    0.1025118 -61.04 0.0009492857    1.637    0.389
       312 -10.4701     35.5790    170.2399   1.3669445484e+02   3.5820159144e+01    0.2618688    0.1123586 -74.00  0.001149205    2.142    0.533
       313 -10.1979    245.9158     22.1288   5.7288996380e+01   2.2282794627e+01    0.1969672    0.1319151 -71.81 0.0008722268    1.242    0.195
       314 -12.0534      9.7135    166.0137   1.4229053957e+02   3.9264125815e+01    0.5646894     0.348011 -59.56  0.002831673    1.485    0.327
       315 -11.3029     13.6778    157.4810   1.4048279386e+02   4.0921316706e+01    0.3891392    0.2118829 -81.87  0.001107209    1.604    0.377
       316 -10.2874      9.2696    155.9883   1.4137876834e+02   4.1623288661e+01    0.1946239    0.1600057 -80.99 0.0009929141    1.054    0.052
       317  -9.4748    198.1680    167.8312   9.6786371192e+01   7.4983867093e+00    0.2065645    0.1742262  -7.81 0.0006429495    1.308    0.236
       318 -10.2374     18.7110    165.2494   1.4012714817e+02   3.8668037435e+01    0.2221693    0.1956704 -79.11   0.00115001    1.141    0.124
       319 -10.4061     38.5394     22.0273   1.0046468918e+02   6.6274116456e+01    0.2928616    0.1663245 -19.79 0.0009813742    1.656    0.396
       320 -10.0328    188.9211    164.0684   9.7930316150e+01   1.0189783262e+01    0.2452632    0.1886268  -1.28  0.001126004    1.679    0.404
       321 -10.1592    191.6920     16.3882   6.1550362438e+01   3.5260288053e+01    0.2351423      0.20286  24.27  0.001478115    1.597    0.374
       322  -9.8388    115.6967     17.0250   7.4191936876e+01   5.3113818369e+01    0.1784913    0.1594045  31.14 0.0009665523    1.107    0.096
       323  -9.8602    225.5076     15.9821   5.7894926711e+01   2.7472445845e+01    0.2120719    0.1657326 -19.95  0.001311374    1.877    0.467
       324 -10.5900     27.9679    163.3138   1.3769776482e+02   3.8253881700e+01    0.2442833    0.1549463  83.77  0.001226958    1.576    0.366
       325 -10.5944    186.4625     15.0749   6.1869603438e+01   3.6648088728e+01    0.2526678    0.1757191  61.29  0.000724634    1.313    0.238
       326 -10.0568    205.0335    163.0945   9.4345724248e+01   7.0474915767e+00    0.2251454    0.2155258  -3.13 0.0006111704    1.029    0.029
       327  -9.6981    223.9809    156.9921   8.9324475417e+01   4.4426080931e+00    0.1778434    0.1662443 -26.89 0.0007133391    1.005    0.005
       328 -10.8428    104.9065    154.0233   1.1619045628e+02   2.9787990832e+01    0.3383444    0.2293097 -64.23  0.001532504    1.520    0.342
       329 -10.4342     31.4394    154.1745   1.3569060214e+02   4.0092448253e+01     0.347057    0.2375498  59.68    0.0016689    1.570    0.363
       330 -10.9400     30.7202    149.3707   1.3523257944e+02   4.1313510396e+01    0.3144225    0.2253709 -89.12 0.0007495147    1.336    0.252
       331 -11.3019     47.2052    146.3058   1.3040647392e+02   4.0306289871e+01    0.4849254    0.2870291 -74.11  0.002306029    1.626    0.385
       332 -10.1111     48.1556    151.6848   1.3099113808e+02   3.8887895749e+01     0.224775     0.211655 -45.67 0.0008089259    1.206    0.171
       333 -10.6430     43.5392    150.2142   1.3199071774e+02   3.9773026727e+01      0.47433    0.2639454  65.62  0.001778527    2.355    0.575
       334 -12.4295     14.5727    141.0569   1.3834211678e+02   4.4695557307e+01    0.9166124    0.4213181  76.01   0.00368392    3.525    0.716
       335 -12.2552     23.3085    148.9740   1.3709084213e+02   4.2098849018e+01    0.5588765    0.3175133 -27.63  0.002182568    2.811    0.644
       336 -10.7995     16.0902    148.0362   1.3880949508e+02   4.2937221358e+01    0.3567809    0.2036619  42.89  0.001632419    1.952    0.488
       337 -11.7439      3.9468    136.5458   1.4054840417e+02   4.6507195961e+01    0.2497057    0.1836459 -66.35   0.00037819    1.094    0.086
       338 -12.3975      5.2435    146.9428   1.4138978071e+02   4.4019890512e+01     0.665323    0.3324975 -56.10  0.003656907    1.728    0.421
       339 -11.5136      3.1761    141.8175   1.4134272824e+02   4.5345217787e+01    0.3486232    0.3229969   3.86  0.002598204    1.429    0.300
       340 -11.1057     62.0983    149.9104   1.2696598254e+02   3.7576831726e+01    0.4470032    0.3641712 -89.48  0.002036839    1.226    0.185
       341 -10.2160    214.5309    151.5311   8.9925222340e+01   7.3958961006e+00     0.146892    0.1395367 -43.32 8.468072e-05    1.042    0.040
       342 -11.5195    249.7619    143.6500   8.1982103048e+01   2.0128125200e+00    0.6849894    0.2357068 -41.58  0.002584662    2.551    0.608
       343 -10.0456    239.9675    146.6929   8.4251743121e+01   3.2863359785e+00    0.1864721     0.183681  25.40 0.0007476811    1.121    0.108
       344  -9.2914    108.6350    146.1840   1.1354992708e+02   3.1002562662e+01     0.203174    0.1389908 -44.81            0    1.494    0.330
       345 -10.8749     33.1812    144.3129   1.3387554786e+02   4.2284597753e+01    0.2691529    0.2288939 -88.01 0.0008093329    1.113    0.102
       346 -10.1854    145.5311     16.3501   6.8150672925e+01   4.6327881744e+01    0.2809669    0.1933829  85.81  0.001526642    1.584    0.369
       347  -9.9257    133.8112    140.0353   1.0549749375e+02   2.7433512847e+01    0.3144847    0.2258908 -29.36  0.001360964    1.682    0.405
       348 -12.4372     22.9693    135.4641   1.3536002779e+02   4.5327274927e+01    0.7825623    0.3873574  43.68  0.003933836    2.318    0.569
       349 -10.5515     82.0664    134.8805   1.1852193408e+02   3.8349301013e+01    0.4152487    0.2499475   9.61  0.001579275    2.982    0.665
       350 -10.6309     47.3597    134.9265   1.2847446993e+02   4.3043520358e+01    0.3527235    0.1534469 -50.80  0.001078387    2.060    0.515
       351 -11.2210     69.0923    134.5547   1.2217956647e+02   4.0369054309e+01    0.4261693     0.180533  32.94   0.00168056    2.591    0.614
       352 -12.0651     29.8482    132.9096   1.3308327733e+02   4.5322979111e+01    0.4547801    0.2985837 -77.77 0.0004018519    1.434    0.303
