#   1 NUMBER                 Running object number                                     
#   2 MAG_AUTO               Kron-like elliptical aperture magnitude                    [mag]
#   3 X_IMAGE                Object position along x                                    [pixel]
#   4 Y_IMAGE                Object position along y                                    [pixel]
#   5 X_WORLD                Barycenter position along world x axis                     [deg]
#   6 Y_WORLD                Barycenter position along world y axis                     [deg]
#   7 A_WORLD                Profile RMS along major axis (world units)                 [deg]
#   8 B_WORLD                Profile RMS along minor axis (world units)                 [deg]
#   9 THETA_WORLD            Position angle (CCW/world-x)                               [deg]
#  10 FWHM_WORLD             FWHM assuming a gaussian core                              [deg]
#  11 ELONGATION             A_IMAGE/B_IMAGE                                           
#  12 ELLIPTICITY            1 - B_IMAGE/A_IMAGE                                       
         1 -13.7126      5.6556     11.9841   1.1959506191e+02   7.2823427967e+01     2.186414    0.6055638 -45.12   0.01059198    2.512    0.602
         2 -13.4167    205.5457      9.6797   6.2097526814e+01   3.2462667868e+01     1.102968     0.683903  39.21  0.001468914    2.095    0.523
         3 -14.2528    200.5954     16.3354   6.4417978166e+01   3.3007571850e+01     2.638653     1.612301  31.13   0.01073703    2.383    0.580
         4 -10.6674    144.2010    243.1306   1.2665025623e+02   6.2026067121e+00     0.173955    0.1429463  36.30 0.0004180556    1.174    0.149
         5 -11.1134    139.4821    249.7011   1.2827298701e+02   5.9739309798e+00    0.2343146    0.1740524  60.95  0.001577509    1.302    0.232
         6 -12.2503    127.5509    246.0281   1.3002487292e+02   8.4068089793e+00    0.4931044    0.3092808 -49.69  0.003045858    2.085    0.520
         7 -12.8968    106.0230    246.6370   1.3398022098e+02   1.1612441489e+01     0.569136    0.4027963  33.99  0.003428986    1.554    0.357
         8 -12.2681     98.8589    248.8048   1.3546128579e+02   1.2321306401e+01    0.5085419    0.2353157  51.55  0.002843575    1.686    0.407
         9 -12.0217    100.9735    245.5438   1.3478333929e+02   1.2542496373e+01    0.3401197    0.2220233  67.00  0.002191752    1.417    0.294
        10 -11.4818     75.8862    242.7476   1.3901471745e+02   1.6595150819e+01    0.2884625     0.169708  87.66  0.001238739    1.791    0.442
        11 -12.3484     80.8697    248.0841   1.3856677852e+02   1.5004364659e+01    0.5294896    0.2002736  52.22  0.002752365    2.065    0.516
        12 -11.8437     82.2098    243.8092   1.3798122480e+02   1.5537656198e+01    0.2834381    0.1820697  53.79   0.00188332    1.179    0.152
        13 -15.3621     21.2839    174.4465   1.4415405336e+02   3.6652979562e+01      5.83394     1.909925  84.42   0.01999929    4.877    0.795
        14 -15.5959     52.1276    217.4796   1.4134930761e+02   2.4341176840e+01     5.800419     3.282113  39.05   0.02274151    1.769    0.435
        15 -11.2465    120.2426    238.8354   1.3058190143e+02   1.0700421559e+01    0.2478245    0.1421465 -69.06  0.001323593    2.226    0.551
        16 -11.6338     69.2082    235.0566   1.3959221371e+02   1.8850367260e+01     0.321009    0.2228094  75.25  0.001750365    1.230    0.187
        17 -11.1020     41.4802    206.5524   1.4253537513e+02   2.7779559888e+01    0.2228823    0.1674192  78.65  0.001561692    1.053    0.050
        18 -10.4695    193.5883    195.9664   1.1012961302e+02   5.0101960297e+00    0.7342491    0.3539069 -61.11  0.001971167    7.956    0.874
        19 -11.5210     68.4586    195.3868   1.3611207493e+02   2.6641235924e+01    0.3558981    0.2441799 -48.41  0.001990389    1.971    0.493
        20  -9.2566    113.9586    193.1712   1.2613867269e+02   2.0075144126e+01    0.2064433    0.1533273  17.36 0.0009100415    1.971    0.493
        21 -11.6335     73.4804    188.2515   1.3426231506e+02   2.7445482522e+01    0.2647493     0.225558 -70.82 0.0005438234    1.277    0.217
        22 -11.3153    150.8948    229.2560   1.2364134850e+02   7.2461323501e+00    0.3073754    0.1525085  40.93  0.001565382    1.660    0.398
        23 -10.8315     82.3406    176.0616   1.3078122704e+02   2.8795366221e+01    0.2420856      0.21042 -80.94 0.0004182834    1.135    0.119
        24 -13.2162     69.8817    173.5281   1.3330052320e+02   3.1160990630e+01    0.4813595    0.2775503 -46.25  0.001682393    2.305    0.566
        25 -12.2314     88.4030    166.9249   1.2808010555e+02   2.9897196720e+01    0.9905363    0.5409167  58.79  0.004556485    1.947    0.486
        26 -13.0546     67.5666    144.7402   1.2985228850e+02   3.8091653465e+01     1.189862    0.6445891  85.13  0.004946113    2.627    0.619
        27 -12.2514     58.0715    132.3749   1.3041151938e+02   4.2265430979e+01     1.817975     0.548615 -74.21  0.004025864    8.602    0.884
        28 -15.4363      2.9139    232.0361   1.5076871154e+02   2.7012405260e+01      8.99323      0.62002 -76.01   0.02468484    7.879    0.873
        29 -10.1083    101.0098    151.0052   1.2239268928e+02   3.1443008664e+01    0.2895338    0.2784621 -18.91 0.0008443973    1.272    0.214
        30  -9.4984    103.5933    147.1926   1.2104291598e+02   3.1868792621e+01    0.3381127     0.179088 -36.54  0.001267714    2.945    0.660
        31 -11.9307     89.9181    150.2608   1.2504626962e+02   3.3463334619e+01    0.2692823    0.2546737 -41.61 0.0004498923    1.265    0.209
        32 -11.4281     42.9207    148.9999   1.3669058188e+02   4.0142600260e+01    0.3140888    0.1725651  41.89  0.001674686    1.859    0.462
        33  -9.4608    134.3853    148.2390   1.1365573658e+02   2.5808110995e+01    0.2087444    0.1407624 -62.59 0.0007533096    1.640    0.390
        34  -8.7900    192.1615    144.1775   9.9903657258e+01   1.4336228085e+01    0.1930126    0.1749888 -75.36 0.0004127691    1.287    0.223
        35  -9.8406    111.3785    136.3712   1.1690487550e+02   3.2946689430e+01    0.3083736    0.2413058 -17.57   0.00131021    1.815    0.449
        36 -10.4288     99.1230    133.5487   1.1953168258e+02   3.5814598916e+01    0.2757506    0.2330886 -27.99 0.0007543708    1.462    0.316
        37 -11.1030     50.0731    129.9823   1.3221605032e+02   4.3799739911e+01    0.2705003    0.2129943  64.14 0.0007538395    1.290    0.225
        38 -14.2093      9.7392    207.2276   1.4848771064e+02   3.1003779368e+01     1.227977     1.024564  61.91  0.009951216    1.325    0.245
        39 -11.1549     43.8859    128.7402   1.3372238098e+02   4.4788189151e+01    0.3452308    0.1575073 -84.16  0.001393926    2.784    0.641
        40 -13.7854     45.4309    229.3454   1.4342693485e+02   2.2924867855e+01    0.8409801    0.3888702  52.95  0.001705187    1.664    0.399
        41  -9.4358    108.0430    123.4747   1.1496952218e+02   3.6541008145e+01    0.2090386    0.1924334 -67.89 0.0003208763    1.044    0.042
        42 -11.1397    168.1569    113.3456   9.7510088069e+01   2.5773581667e+01    0.3775484    0.3164488 -71.32 0.0007671148    1.356    0.262
        43  -9.0773    203.6604    111.6692   8.9836652907e+01   1.7736537791e+01    0.1581933    0.1184482  12.48 0.0007051726    1.742    0.426
        44 -11.0262     43.2446    109.0669   1.3071845787e+02   4.9509514817e+01    0.2999693    0.1739979  41.01  0.001570602    1.911    0.477
        45 -10.3254    249.7477    249.3695   1.0904603041e+02  -1.0826103494e+01    0.2071206    0.1117056  27.29  0.001311262    1.467    0.318
        46 -11.3885     33.1149    228.8552   1.4555865646e+02   2.4453113979e+01    0.1924567    0.1387786  65.70 0.0005200641    1.063    0.060
