#   1 NUMBER                 Running object number                                     
#   2 MAG_AUTO               Kron-like elliptical aperture magnitude                    [mag]
#   3 X_IMAGE                Object position along x                                    [pixel]
#   4 Y_IMAGE                Object position along y                                    [pixel]
#   5 X_WORLD                Barycenter position along world x axis                     [deg]
#   6 Y_WORLD                Barycenter position along world y axis                     [deg]
#   7 A_WORLD                Profile RMS along major axis (world units)                 [deg]
#   8 B_WORLD                Profile RMS along minor axis (world units)                 [deg]
#   9 THETA_WORLD            Position angle (CCW/world-x)                               [deg]
#  10 FWHM_WORLD             FWHM assuming a gaussian core                              [deg]
#  11 ELONGATION             A_IMAGE/B_IMAGE                                           
#  12 ELLIPTICITY            1 - B_IMAGE/A_IMAGE                                       
         1 -11.6093      4.0619     18.4028   1.1195150453e+02   7.1487035484e+01    0.3793699    0.3225543  22.52  0.002707859    1.565    0.361
         2 -10.9800     10.0732     15.6407   1.0777906917e+02   7.1649219350e+01    0.3193045    0.2029239 -53.15   0.00207586    1.221    0.181
         3 -11.7630    101.1047     28.2510   7.6723622592e+01   5.6330372489e+01    0.8226733    0.3929281 -55.49  0.002575539    4.389    0.772
         4 -12.0738     60.9616     22.6765   8.7625406063e+01   6.4625516609e+01     1.095918    0.5576259 -38.82  0.005341413    1.681    0.405
         5 -12.0381     81.1513      6.6932   7.2407485497e+01   6.3390167113e+01    0.4681121    0.2292473 -27.76 0.0006146809    1.835    0.455
         6 -11.5492     76.0231     15.4958   7.8608502660e+01   6.3198524739e+01    0.6028408    0.2982409 -19.28  0.002421836    2.268    0.559
         7 -12.2415     70.3722     15.0236   8.0349362523e+01   6.4284743760e+01    0.4172655    0.3603804 -33.50  0.001065442    1.217    0.178
         8 -11.9544     21.1424     18.4051   1.0330412116e+02   7.0241990432e+01    0.5301952     0.433804  77.03  0.003096376    1.967    0.491
         9 -11.2952    107.9343     17.1453   6.9902945418e+01   5.6395714612e+01    0.3182113    0.2365813  45.65 0.0004304684    1.358    0.264
        10 -10.6223     34.8824     16.0129   9.5577404001e+01   6.9296186638e+01    0.3691208    0.1864536 -32.12 0.0009885781    1.823    0.452
        11 -10.6597     55.1762     12.6114   8.4922436708e+01   6.7148394995e+01    0.3611772    0.1748124 -37.21  0.001101791    1.774    0.436
        12 -10.2376     59.6240     10.3627   8.1951704398e+01   6.6786240559e+01    0.2518011     0.199703  49.78 0.0008385952    1.622    0.383
        13 -10.4194     26.4413     13.8340   9.8603599288e+01   7.0595163956e+01    0.2100416    0.1367556 -27.07  0.000278113    1.397    0.284
        14 -10.3949     30.6412     13.0004   9.6130689569e+01   7.0303714379e+01    0.2135546    0.1355075 -35.23 0.0008440862    1.244    0.196
        15  -9.7020    138.0215     12.5133   6.1233417020e+01   4.9653772948e+01    0.3124175    0.1424878 -53.37  0.001040803    3.373    0.704
        16 -10.5116    176.8562     10.9307   5.4483843829e+01   3.9560915873e+01    0.4371397    0.2079646  26.12  0.001484722    3.204    0.688
        17  -9.8031    118.3789     12.1131   6.5115263482e+01   5.4569188948e+01    0.2879395    0.1856775 -35.96  0.001355104    1.567    0.362
        18 -11.5036    116.1235      4.1717   6.2021489205e+01   5.5954807456e+01    0.6435822    0.2217356 -25.68 0.0007647494    2.642    0.621
        19 -10.5378    185.8865     10.9823   5.3350084784e+01   3.7133109863e+01    0.2139126    0.2047564 -48.27 0.0003796823    1.031    0.030
        20  -9.9694     85.9390     10.6213   7.2944905201e+01   6.1944022982e+01    0.1781063    0.1612736  18.96 0.0004123604    1.121    0.108
        21  -9.6112     51.0010     11.0054   8.5806531772e+01   6.8023453364e+01    0.2032176    0.1340248  -5.62 0.0007176274    1.700    0.412
        22  -9.9888    107.3382     10.0211   6.6764309158e+01   5.7394900423e+01    0.4540704    0.2006584  64.93  0.001753731    2.769    0.639
        23 -10.6679      6.8120      8.2690   1.0639487129e+02   7.3285327489e+01    0.5871124    0.1834612  32.96  0.002763229    4.109    0.757
        24 -12.5362     12.9728      2.6744   1.0014326401e+02   7.3827886410e+01    0.5143345    0.3682139  18.76  0.001598773    1.677    0.404
        25 -11.7101     22.6638      7.1370   9.7183097125e+01   7.2159630772e+01    0.4045196    0.2914696 -48.67  0.001582275    1.368    0.269
        26 -13.2012     31.2857      2.2653   9.0025223418e+01   7.2015848189e+01    0.4508978    0.2389698  23.16  0.001016124    2.325    0.570
        27  -9.1083    155.5420      7.4455   5.6240692585e+01   4.5605085848e+01    0.3245948     0.127396   2.93 0.0008084211    5.778    0.827
        28 -10.2564    127.3194      8.0421   6.1425645034e+01   5.2825948668e+01    0.2041977    0.1766217 -13.13 0.0003777106    1.122    0.108
        29 -11.2585     74.4534      6.6552   7.4562485401e+01   6.4688672744e+01    0.3476177     0.204343 -16.94 0.0005984097    1.612    0.380
        30  -9.8388    146.0000      6.0967   5.7225963220e+01   4.8246959172e+01     0.404534   0.08166511 -19.91  0.001053155    4.951    0.798
        31 -10.5156     89.5548      7.2204   7.0148286468e+01   6.1617103379e+01    0.3150807    0.1882256  62.00 0.0009427238    2.041    0.510
        32 -10.1600    229.0463      5.8099   4.7375961512e+01   2.6406809982e+01    0.2146389    0.1647656 -56.29 0.0003840293    1.242    0.195
        33  -9.6734    172.1227      5.8015   5.3295811290e+01   4.1333865570e+01    0.2047694    0.1599744  36.34 0.0003744587    1.326    0.246
        34  -9.7751     59.5536      5.4861   7.9307872999e+01   6.7485677877e+01    0.2461452    0.1236252  44.48   0.00121689    2.192    0.544
        35  -9.7852      4.1436      1.2645   1.0460094728e+02   7.4757286029e+01    0.1840074   0.09379364   8.70  0.001062618    2.585    0.613
        36  -9.7709    173.8504    219.6555   1.0684983179e+02   7.6588318307e+00    0.1697346   0.08496403  49.63 0.0009411652    1.766    0.434
        37 -10.2857    247.1339    250.0923   9.9605331043e+01  -6.2538440893e+00     0.201168    0.1156095  21.43   0.00134291    1.413    0.292
        38 -10.6760    250.3962    245.5602   9.8517784529e+01  -6.3374343553e+00    0.3220502    0.1262872 -22.84  0.001901004    3.038    0.671
        39 -12.4251    226.3171    246.1718   1.0211475435e+02  -3.0709928721e+00    0.4249103    0.2705657  16.41  0.003112745    1.483    0.326
        40 -12.4576    232.7050    246.6442   1.0123496971e+02  -4.0054597105e+00    0.4137899    0.2964164  -4.43  0.003309093    1.488    0.328
        41 -12.7300     16.5497    238.3178   1.3372002834e+02   2.5770530126e+01    0.9051148    0.2922602  38.98  0.005560569    2.767    0.639
        42 -12.0328      5.8051    244.8415   1.3545692915e+02   2.5806959004e+01    0.4783205     0.203774  73.17  0.002956269    1.726    0.421
        43 -10.6173      1.4482    245.0198   1.3606321665e+02   2.6179294653e+01    0.1717283   0.09317181  82.38 0.0005301595    1.411    0.291
        44 -11.2063    234.8571    216.6222   9.6584222233e+01  -1.5702921206e+00    0.2116663    0.1564843 -10.31  0.001532958    1.398    0.285
        45 -10.0722    191.6644    217.4665   1.0360183921e+02   5.0906543593e+00    0.1760526    0.1458512 -32.38  0.001291591    1.485    0.327
        46  -9.6939    194.5268    215.4854   1.0284856858e+02   4.8685217617e+00    0.1155843   0.09139023  33.72 -4.179081e-05    1.003    0.003
        47 -10.9510      9.8078    217.0646   1.3392723205e+02   2.9794895943e+01    0.2411693    0.1133611  61.25 0.0008876666    1.487    0.327
        48 -10.3011     31.1252    215.7868   1.3051015055e+02   2.7908974608e+01    0.1920372    0.1174358  47.17  0.001456968    1.469    0.319
        49  -9.7342    201.5443    215.5425   1.0170773591e+02   3.7396717195e+00     0.116499   0.08909516  28.45 0.0008060883    1.084    0.077
        50  -9.3202    136.9716    216.0000   1.1264399181e+02   1.3955222040e+01    0.1879267    0.0529555  43.20 0.0007908666    2.863    0.651
        51  -9.6361    170.3208    213.3134   1.0659380533e+02   9.0447249838e+00    0.1138655   0.08094367  19.91 0.0005574133    1.653    0.395
        52 -11.0575     20.9440    212.1089   1.3196352554e+02   2.9560697989e+01    0.2901323    0.1116463  62.80  0.001788211    2.015    0.504
        53 -10.6354    241.3035    211.5086   9.4785276812e+01  -2.0452621293e+00    0.2168169    0.1809448  62.35  0.001511959    1.975    0.494
        54 -10.1125    208.9774    212.0781   9.9981918070e+01   2.9478635414e+00    0.1747262     0.136117  28.39 0.0004474393    1.025    0.025
        55  -9.6047      2.2869    212.3297   1.3491560718e+02   3.1266624466e+01    0.1208918   0.08283815  37.37 0.0004437402    1.825    0.452
        56 -12.0229      4.2925    206.8189   1.3439872762e+02   3.2023784605e+01    0.4634267    0.1792817  79.47  0.002886146    2.116    0.527
        57 -11.2845     18.6662    202.8479   1.3189299943e+02   3.1380780154e+01    0.2810054    0.1830718 -80.52 0.0006951896    1.445    0.308
        58 -10.1879    175.2860    202.6757   1.0423682086e+02   9.6599734516e+00    0.1959721    0.1583003  54.86 0.0005704667    1.250    0.200
        59  -9.5254    223.5964    201.7961   9.5989945645e+01   1.7492470432e+00    0.1399392    0.1075695 -38.66 0.0005985529    1.687    0.407
        60  -9.4640    184.4513    208.5266   1.0352186812e+02   7.3640859323e+00    0.1179416   0.09514353  34.06 8.970918e-05    1.038    0.037
        61  -9.0853    218.2768    201.6671   9.6830203224e+01   2.6295864918e+00    0.1005157   0.09256305  71.90  0.000295483    1.603    0.376
        62  -9.7187     34.6438    201.0268   1.2910046704e+02   3.0085937770e+01     0.141537     0.100834  78.68 0.0004493813    1.080    0.074
        63  -9.5696    227.1459    196.8365   9.4590639815e+01   1.7270579635e+00    0.1690318    0.1149364  18.35 0.0006510441    1.357    0.263
        64  -9.4341    203.0097    195.9726   9.8432983251e+01   5.8578723526e+00    0.1481509    0.1206331  30.26 0.0005709336    1.014    0.013
        65 -10.4037    215.5242    194.7009   9.6127467185e+01   3.9013085358e+00    0.1953529    0.1139144 -24.74 0.0006033622    1.938    0.484
        66  -9.8090    232.3053    191.2975   9.2807547418e+01   1.5034339491e+00     0.122744   0.07731532  16.41 0.0002587847    1.587    0.370
        67 -10.5883    187.2325    190.7494   1.0029929234e+02   9.2596092389e+00    0.1775136   0.09820781 -25.95 0.0008882072    2.427    0.588
        68  -9.3265      1.6014    188.2105   1.3409864043e+02   3.5551909393e+01    0.1282684   0.07201663 -79.01 0.0004755585    1.551    0.355
        69 -11.3876     15.8458    182.5974   1.3133415276e+02   3.5331566723e+01    0.3335749    0.1501341  79.75  0.002023509    1.878    0.468
        70  -9.9094    167.2891    183.6408   1.0273271498e+02   1.3800342811e+01     0.121757   0.09557278  80.27  0.000702572    1.687    0.407
        71  -9.7685     58.6823    182.3171   1.2336225894e+02   3.0805477425e+01    0.1212473   0.06732057  69.12 0.0007039584    1.655    0.396
        72  -9.7505      1.9770    180.2782   1.3368881225e+02   3.6987191433e+01    0.1423985     0.098124  71.20 0.0005698648    1.077    0.071
        73 -10.3693    244.4185    178.2628   8.8517428628e+01   9.6378583963e-01    0.2155198    0.1087045 -20.81  0.001112399    2.067    0.516
        74 -10.8638    224.2385    178.3382   9.1790987914e+01   4.4028809948e+00    0.2137806    0.1960585  16.66 0.0004600157    1.185    0.156
        75  -9.0854     36.4238    178.4787   1.2727730805e+02   3.4077400636e+01    0.1104869   0.08189752  78.36 0.0002404751    1.015    0.015
        76 -10.0755    200.1646    176.8225   9.5627863245e+01   8.8905200430e+00    0.1773117    0.1359636  14.87 0.0005594909    1.331    0.248
        77  -9.6840     70.1799    177.5909   1.2068416777e+02   3.0265021356e+01    0.1402355    0.1065564  36.61 0.0005398521    1.578    0.366
        78 -11.0849     17.9083    172.8819   1.3039235098e+02   3.7000721023e+01    0.3320154   0.08266102  58.07  0.001412407    3.838    0.739
        79  -9.5427     74.9274    171.0790   1.1903998042e+02   3.0908269889e+01    0.1636347    0.1450456 -34.65  0.001110446    1.698    0.411
        80  -9.7624      4.6808    168.6897   1.3263708821e+02   3.8976072802e+01   0.09332085    0.0693315 -64.55 0.0004067948    1.643    0.391
        81  -9.4591    209.9967    166.2392   9.1920804036e+01   8.5546965200e+00    0.1690709   0.09954731  43.46 0.0004365275    1.560    0.359
        82 -11.2131     36.9757    157.9470   1.2551184882e+02   3.8122689714e+01    0.2254607    0.1449619 -89.20 0.0003084216    1.267    0.211
        83 -10.7612     36.1635    166.1240   1.2637108015e+02   3.6541039763e+01    0.2170355     0.152143  72.48 0.0006725182    1.135    0.119
        84 -11.1379     36.4641    162.5191   1.2601167407e+02   3.7239058371e+01    0.2291366    0.1542437  77.15  0.001499639    1.194    0.163
        85  -9.7689     67.0190    165.0137   1.1998154687e+02   3.3162584944e+01    0.1960614    0.1170216  70.69 0.0008182999    1.630    0.387
        86 -10.7221     51.6257    164.0100   1.2305002405e+02   3.5257350556e+01    0.2809906    0.1621491 -51.09   0.00159137    2.267    0.559
        87 -11.3645     44.5767    162.2560   1.2433114483e+02   3.6417745176e+01    0.2922309     0.172646 -69.84  0.001820724    1.539    0.350
        88 -10.1460     48.4762    159.5141   1.2326211786e+02   3.6541780515e+01    0.2193083    0.1713584 -78.85  0.001531424    1.199    0.166
        89  -9.5061    246.3449    162.6757   8.5188177824e+01   2.4423845583e+00    0.1124535    0.1019973 -64.81  0.000705036    1.739    0.425
        90  -9.4573    200.4649    162.5578   9.2889637351e+01   1.0868934258e+01    0.1307783    0.1175817  26.36 0.0001839328    1.038    0.037
        91 -11.4715     22.6339    156.1504   1.2832568615e+02   3.9910516792e+01    0.3721679     0.268558  81.79  0.002709136    1.032    0.031
        92  -9.1786    147.5195    156.4840   1.0190208259e+02   2.1963396639e+01    0.1334665    0.1230881  59.46 0.0002149721    1.022    0.022
        93  -9.2214    197.9986    154.3354   9.1693333537e+01   1.2571079872e+01    0.2154611    0.1118061  65.82 0.0007051849    4.425    0.774
        94  -8.9507    151.6955    153.3463   1.0046795242e+02   2.1748144927e+01    0.1369587     0.104721  85.75 0.0004533625    1.692    0.409
        95 -10.2854     11.7600    153.4275   1.3035632567e+02   4.1434245240e+01    0.2207956    0.1067168  28.90  0.001303611    2.652    0.623
        96 -10.3318    178.2191    151.5418   9.4840725584e+01   1.6908216570e+01    0.2280466    0.1921182 -37.93 0.0005488042    1.260    0.207
        97 -10.2259     19.0000    145.9898   1.2830296021e+02   4.2353979064e+01    0.1690893    0.1198125  88.28 0.0004623498    1.056    0.053
        98 -10.2152    207.0241    146.0428   8.8325736673e+01   1.2043040208e+01    0.2121448    0.1896598  17.47 0.0007205722    1.015    0.015
        99 -10.2561     12.0551    147.0000   1.2985424521e+02   4.2737682343e+01    0.1524149   0.05961007  31.03 0.0008083378    2.983    0.665
       100 -10.0337     30.9286    144.5165   1.2558510553e+02   4.1556051926e+01    0.1481068    0.1065417  45.22 0.0003754002    1.505    0.335
       101 -10.4879     22.4994    144.0830   1.2739139511e+02   4.2443493845e+01    0.1639344    0.1278705  68.50 0.0006262718    1.184    0.155
       102 -10.0307      2.3763    144.3424   1.3170973722e+02   4.4055994369e+01    0.1554321    0.1022279 -61.92 0.0008765251    1.659    0.397
       103  -9.8778     55.2142    136.1898   1.1912932139e+02   4.0732242242e+01    0.1708821     0.119736  79.60 0.0003194877    1.316    0.240
       104 -10.2592     15.8138    139.8230   1.2850404404e+02   4.3934688805e+01    0.1939864   0.09279735  19.78  0.001002755    3.484    0.713
       105  -9.9138    236.7503    138.5856   8.1632130349e+01   7.2543330096e+00    0.1652975    0.1284202  51.85  0.000354587    1.483    0.326
       106  -9.4548     88.1042    137.8517   1.1165741719e+02   3.5919034488e+01    0.1596787    0.1518923 -46.77 0.0003920904    1.304    0.233
       107 -10.8402      2.7323    136.2990   1.3111157507e+02   4.5712424075e+01    0.3503495    0.1155536 -79.47   0.00176206    2.308    0.567
       108 -10.6249      9.1913    136.6881   1.2972070966e+02   4.5140792416e+01    0.1961346    0.1331645 -76.41 0.0003033766    1.238    0.192
       109 -10.7669     21.9514    135.9817   1.2680540407e+02   4.4227570747e+01    0.2998568    0.1670507  51.01  0.001854974    1.740    0.425
       110  -9.2902    138.3447    135.3110   9.9735952288e+01   2.7734092973e+01    0.1393794    0.1126657   3.75 0.0007045692    1.704    0.413
       111 -10.2232    106.9981    133.2668   1.0644277575e+02   3.3869510287e+01    0.2327378    0.1923984 -63.50 0.0009961342    1.166    0.143
       112  -9.3756    227.0255    131.9921   8.1741783559e+01   1.0082698488e+01    0.1668414    0.1473996  16.92 0.0004653656    1.059    0.055
       113 -11.0766     36.8273    130.6392   1.2280096277e+02   4.3985424387e+01    0.3373729    0.2126579 -72.14  0.002074703    1.313    0.239
       114 -11.0069     32.4485    125.7104   1.2329116633e+02   4.5511666961e+01     0.349704    0.1545552  48.94   0.00112747    2.285    0.562
       115 -10.4360     74.0240    129.6142   1.1367712124e+02   3.9764917985e+01    0.2433723    0.1704852 -62.39 0.0008128198    1.315    0.240
       116  -9.2359    243.4104    128.5007   7.8300667190e+01   7.3110687024e+00    0.1358496    0.1172128  -5.37 9.931889e-05    1.030    0.029
       117  -9.1212    233.6753    127.7148   7.9664466540e+01   9.3465813306e+00    0.1424225   0.09724716  15.10 0.0004199273    1.602    0.376
       118 -11.4707      2.2958    124.4077   1.3035800106e+02   4.8284048643e+01    0.4557749      0.13707 -75.38   0.00219904    2.419    0.587
       119  -9.9939     82.0703    125.2289   1.1096865128e+02   3.9589508600e+01    0.1878868    0.1691857 -59.69 0.0007047001    1.198    0.165
       120  -9.6978     47.3055    124.9468   1.1954976953e+02   4.4143449430e+01    0.1715168    0.1358889 -78.55 0.0004960067    1.063    0.059
       121 -10.1420    226.0106    124.2255   8.0105914154e+01   1.1405139753e+01    0.1830677    0.1126771  47.69  0.000875956    1.658    0.397
       122  -9.6815    219.5463    124.4858   8.1257425182e+01   1.2712139659e+01    0.1414532    0.1283396  -0.27 0.0003205646    1.013    0.013
       123 -11.3817     10.5296    122.4120   1.2825048775e+02   4.8122179293e+01    0.2446673    0.1651267  79.10 0.0009718263    1.230    0.187
       124 -11.0198     21.3655    121.2505   1.2551115805e+02   4.7508988177e+01    0.2207469    0.1836761 -25.82 0.0009336257    1.812    0.448
       125 -12.0061     17.5850    116.3409   1.2593615226e+02   4.8915074181e+01    0.4259191    0.2347517 -62.00   0.00255799    1.599    0.374
       126  -9.9940    249.8362    118.6047   7.5021271503e+01   7.3647244963e+00    0.1738393    0.1340562  63.68 0.0009456004    1.715    0.417
       127  -9.5168    220.4646    116.9960   7.9301241926e+01   1.3637242204e+01    0.1975796    0.1120405 -50.98 0.0005899918    2.394    0.582
       128 -10.3195     86.0427    116.4818   1.0834841107e+02   4.0947109921e+01    0.2053204    0.1643377 -66.29 0.0003552981    1.128    0.113
       129 -11.4060     51.1013    116.6146   1.1739695594e+02   4.5600203004e+01    0.2701991    0.1592579 -67.04            0    1.423    0.297
       130  -9.0013    166.3232    115.7009   8.9228559353e+01   2.5739422845e+01    0.1474808    0.1180829 -83.25 0.0002704314    1.627    0.386
       131  -9.2406    182.3326    114.6667   8.5708361154e+01   2.2391751881e+01    0.1506397    0.1182632 -75.45 0.0007052231    1.730    0.422
       132 -11.9342     35.5595    110.0614   1.2052127848e+02   4.8741827021e+01    0.5096977    0.2846661 -75.77  0.002836105    1.484    0.326
       133  -8.8699    212.6827    112.6657   7.9567234657e+01   1.5984489629e+01    0.1535387    0.1079024  12.23 0.0007048084    1.694    0.410
       134  -9.0942    223.3627    111.7338   7.7521321780e+01   1.3800459184e+01    0.1367718    0.1139444 -71.94 0.0006161237    1.645    0.392
       135 -10.7102    249.0248    111.9745   7.3565024491e+01   8.4070909951e+00    0.2159391    0.1848095 -11.73 0.0005674002    1.028    0.027
       136 -10.3202      6.6553    107.1325   1.2779061071e+02   5.1780084607e+01    0.2290007    0.1561601  77.29 0.0009479526    1.297    0.229
       137 -10.9434      2.5351    105.4120   1.2869657267e+02   5.2433859981e+01    0.2304084      0.14939 -84.41 0.0001745149    1.137    0.121
       138 -11.8807     16.5462    109.0596   1.2541508463e+02   5.0629004188e+01    0.4025938    0.2851363  65.10  0.002334413    1.398    0.285
       139 -10.3473     10.7506    109.4040   1.2695791183e+02   5.0986121973e+01    0.2202315    0.1796308 -46.99  0.001148395    1.541    0.351
       140 -10.4446     55.8711    108.9281   1.1489518198e+02   4.6799588338e+01    0.3531168    0.1688546 -58.46  0.001718142    1.782    0.439
       141 -11.5854     23.5467    107.6014   1.2339512275e+02   5.0391941517e+01    0.3468663    0.2283943 -89.82  0.001210924    1.293    0.227
       142 -10.0811     91.2763    107.8911   1.0522034767e+02   4.2051132934e+01    0.2060897    0.1715268 -81.27 0.0006681681    1.173    0.147
       143 -10.2594    223.2530    103.9933   7.5591480984e+01   1.4978355078e+01    0.2300512     0.209492  35.82 0.0004327291    1.146    0.128
       144 -10.8088     74.3331    102.4055   1.0861085763e+02   4.5876290795e+01    0.3289812    0.2258079 -84.01  0.001040255    1.611    0.379
       145 -10.7967    247.8404    102.3115   7.1382816752e+01   9.9489370297e+00    0.2000266    0.1850714 -87.95 0.0008280216    1.408    0.290
       146 -10.1337    119.6585    101.6312   9.6420375806e+01   3.8350692936e+01    0.2200812    0.1780294  -6.53  0.001088433    1.679    0.404
       147 -10.3282     35.9819    101.7342   1.1918523105e+02   5.0609674481e+01    0.2921918    0.1399733  37.12  0.001517553    2.354    0.575
       148 -11.8117      3.7533    100.4283   1.2788770792e+02   5.3467573925e+01    0.3827921    0.2073406  47.85  0.000556732    2.006    0.501
       149 -11.2780    243.8115    104.4853   7.2510710328e+01   1.0489935124e+01    0.2786683    0.1707723  -7.93 0.0007007521    1.821    0.451
       150 -11.9945     29.2865     98.4226   1.2056751364e+02   5.1992308603e+01    0.4300484    0.2306387 -63.01  0.001530373    1.489    0.328
       151 -11.8405     25.7467     91.7658   1.2058261919e+02   5.3827838125e+01    0.2558642    0.2032109 -73.25 0.0003925692    1.046    0.044
       152 -10.7128     63.3912     98.9308   1.1095328767e+02   4.8163837776e+01    0.4343696    0.2512707  26.21  0.002119948    2.377    0.579
       153 -11.3710     20.2840     96.9230   1.2290474919e+02   5.3090140206e+01    0.3003442    0.1776116 -77.81   0.00113239    1.335    0.251
       154 -10.4230      1.8309     93.8621   1.2773294102e+02   5.5056240886e+01    0.3261729   0.09532695 -66.71  0.001544667    2.327    0.570
       155  -9.0032     77.3126     94.7068   1.0608828115e+02   4.7201279830e+01    0.1366402     0.100926  85.04 0.0002596805    1.593    0.372
       156  -9.4837     98.9137     93.4828   9.9768315999e+01   4.3978225201e+01     0.186011    0.1430879  45.83 0.0009701904    1.411    0.291
       157 -10.1074     31.5084     92.3359   1.1897696476e+02   5.3193874050e+01    0.2659366   0.09816511 -67.30  0.001198722    2.125    0.529
       158 -12.0973     11.1502     91.0236   1.2474558998e+02   5.5104049125e+01    0.3003314    0.2125349  23.62  0.002023114    1.903    0.474
       159 -10.3091    158.0119     90.2247   8.4240992758e+01   3.2407887800e+01    0.2929101    0.2006789 -23.62   0.00128856    1.642    0.391
       160 -10.7178     95.7138     90.5976   9.9904194746e+01   4.5173859676e+01    0.3713866    0.2445741   9.31  0.001506591    2.975    0.664
       161  -9.2737     21.2968     91.3344   1.2182581849e+02   5.4288981977e+01    0.1225726   0.07325625 -50.98 0.0003595198    1.647    0.393
       162 -10.2662    171.3375     90.6809   8.1537992872e+01   2.9203365857e+01    0.1584994    0.1213358 -72.33 0.0004196467    1.706    0.414
       163 -11.5118     48.0354     85.8109   1.1279165903e+02   5.3040024863e+01    0.5229569     0.349276  86.39  0.001549326    1.744    0.427
       164 -10.5506     39.9297     81.2442   1.1437488391e+02   5.4949879929e+01    0.3437808     0.199992  57.07  0.001083568    2.165    0.538
       165 -10.9514    112.1886     86.0872   9.4189175316e+01   4.3124585286e+01    0.3648133    0.2858349 -86.34  0.001800535    1.598    0.374
       166 -10.5593     22.9773     86.8118   1.2063555399e+02   5.5193056187e+01    0.2349021    0.1364928 -63.64 0.0005655328    1.341    0.254
       167 -10.6983      4.4051     86.2058   1.2611886331e+02   5.6626135291e+01    0.3572256    0.2369337  78.62  0.002350964    1.434    0.303
       168 -10.7406     67.0634     84.8813   1.0678099331e+02   5.0901474272e+01    0.3493791    0.2336835 -25.45  0.001529564    2.194    0.544
       169  -9.6602     88.0416     83.5134   1.0020540766e+02   4.8042074069e+01    0.2209284    0.1684434 -55.49 0.0004993058    1.177    0.151
       170  -9.2143    173.3645     83.2968   7.8992017777e+01   3.0035434634e+01     0.162869    0.1189298  18.53 0.0007031941    1.719    0.418
       171 -10.1456    117.7215     83.3914   9.1949936931e+01   4.2593915559e+01    0.2428347    0.1989291  31.36  0.001001246    1.387    0.279
       172 -10.0246     29.6970     81.8924   1.1772523942e+02   5.5761844978e+01    0.1830571    0.1605081 -45.50  0.000886245    1.298    0.230
       173 -10.2407     74.6479     81.1357   1.0354708769e+02   5.0672541416e+01    0.2088978    0.2022046  71.30 0.0004528188    1.163    0.140
       174  -9.8746     70.8366     79.3722   1.0425109099e+02   5.1624208239e+01    0.1818651    0.1752527 -53.46 0.0005292122    1.137    0.120
       175 -10.4378     18.4976     79.5206   1.2084722173e+02   5.7209073027e+01    0.2823858     0.193213 -82.20  0.001787997    1.250    0.200
       176 -10.6791     23.0145     79.9844   1.1949505273e+02   5.6757278859e+01    0.2611489    0.1524363 -48.18            0    1.671    0.402
       177 -10.8631     21.3302     76.7342   1.1946671118e+02   5.7633426265e+01    0.2540391    0.1652583  52.40  0.000948286    1.824    0.452
       178 -11.4663     11.7138     78.9433   1.2289870048e+02   5.7814681380e+01      0.50481    0.1977382 -65.97 0.0003470743    1.825    0.452
       179 -10.9746      3.0701     78.5314   1.2554834616e+02   5.8436873572e+01    0.2594613    0.2253025  84.86  0.001261154    1.234    0.190
       180 -11.4972      7.1055     73.7232   1.2358607330e+02   5.9289643873e+01    0.4002106    0.2564024  22.80  0.002598911    2.088    0.521
       181 -10.6053     91.6429     78.2749   9.7696904273e+01   4.8586163189e+01    0.3081171    0.2080236 -36.04   0.00149629    1.555    0.357
       182 -10.5566    151.1544     77.5285   8.2000788843e+01   3.6392560966e+01     0.426201    0.2554179  50.40  0.001806003    1.726    0.421
       183 -11.8677     57.8931     74.2279   1.0700602648e+02   5.4527687464e+01    0.4137387    0.2888512  79.15 0.0004416365    1.934    0.483
       184 -11.6861     62.3944     71.5162   1.0483244810e+02   5.4556054418e+01    0.4417571    0.3133933 -56.09  0.001423286    1.192    0.161
       185  -9.6672    121.9910     76.4705   8.8753329053e+01   4.3134592955e+01    0.2194608     0.151173  49.81 0.0008420102    1.554    0.356
       186 -11.9945     44.8024     75.2555   1.1151352042e+02   5.5819118045e+01      0.22091    0.1932681 -71.10 0.0002596554    1.091    0.083
       187 -10.7286     39.8609     71.2798   1.1223540837e+02   5.7241233267e+01    0.3002914     0.224824  56.96  0.001827763    1.609    0.378
       188 -10.5874     36.8450     68.4492   1.1260151320e+02   5.8183507281e+01    0.3722967    0.1882381 -45.07  0.001874355    1.891    0.471
       189 -11.0145    108.7798     74.3906   9.1654709085e+01   4.6252307648e+01    0.4073803    0.1973237 -53.25  0.001570459    2.206    0.547
       190  -9.9422     16.7034     72.7083   1.2027216674e+02   5.8894285957e+01    0.2663001    0.1230094 -65.23  0.001419073    1.593    0.372
       191 -10.5821    144.4697     70.0159   8.1164407576e+01   3.9359936215e+01    0.2195987    0.2129634  35.56 0.0003135134    1.074    0.069
       192 -11.1084    102.5095     72.9429   9.2965783600e+01   4.7763280734e+01    0.2521318    0.2342579  41.02 0.0001604277    1.182    0.154
       193  -9.3297    174.4980     72.3938   7.5487005948e+01   3.1643184801e+01    0.1525883    0.1491776 -32.82 -0.0002113617    1.037    0.035
       194 -11.6626     76.5559     71.0228   1.0016454080e+02   5.2634718806e+01    0.4838779    0.3232226  65.13  0.002083929    2.106    0.525
       195 -11.2442     94.4805     68.2778   9.3837663605e+01   5.0226662851e+01    0.4696091     0.251711 -47.18  0.001580948    1.684    0.406
       196  -9.8119    160.9406     69.6920   7.7408420046e+01   3.5456065280e+01    0.2094941    0.2001936  38.94 0.0003125625    1.081    0.075
       197 -11.0672     68.9033     68.1535   1.0177097666e+02   5.4403460122e+01    0.4928969    0.1703762 -51.24  0.001046868    2.436    0.590
       198 -11.9091     50.0070     68.8671   1.0823073509e+02   5.6691315382e+01    0.4200414    0.3001238 -19.92  0.002123781    1.899    0.473
       199 -10.1740     51.0776     63.5418   1.0643865615e+02   5.7759360846e+01    0.3481286    0.1587233 -43.99  0.001569167    2.061    0.515
       200 -11.0056     27.2829     69.9694   1.1619809514e+02   5.8701487227e+01    0.2441286    0.1883728 -36.16  0.001003233    1.465    0.317
       201 -10.9694     30.9693     65.9738   1.1406207647e+02   5.9291283872e+01    0.2961237    0.1491034 -66.25 0.0006004367    1.636    0.389
       202  -9.3427    123.4412     68.4557   8.5824783761e+01   4.4418146766e+01     0.151778    0.1413798 -43.93 6.542624e-05    1.033    0.032
       203 -10.9225     19.2421     60.9261   1.1711031991e+02   6.1382746001e+01     0.510318      0.30136  56.91  0.002856584    2.258    0.557
       204 -11.3226     16.4781     67.9008   1.1947748773e+02   6.0003393969e+01    0.2680094    0.1810098 -78.71  0.001687009    1.273    0.215
       205 -10.6330     21.5853     65.6190   1.1726229456e+02   6.0147228039e+01    0.2894881    0.2164672   2.29  0.001875599    1.857    0.461
       206 -11.7506      3.9681     65.0323   1.2327747465e+02   6.1430429006e+01    0.4821045    0.2657355  76.20   0.00186677    2.166    0.538
       207 -10.5843     81.4775     66.9691   9.7397900369e+01   5.2736319082e+01    0.2252206    0.1250473 -49.19 0.0007237373    1.583    0.368
       208 -10.6163     99.3936     65.0942   9.1357324755e+01   4.9979559282e+01    0.3541737    0.1981539 -38.24  0.001542195    1.705    0.413
       209 -11.5641     57.9782     61.5941   1.0349498750e+02   5.7335818903e+01    0.6222295    0.1739213 -44.77  0.002097351    3.455    0.711
       210  -9.8159    215.9150     65.0189   6.6132206818e+01   2.2476949156e+01    0.2523124     0.176226  21.20  0.001135727    1.745    0.427
       211  -9.2982    135.4355     65.4559   8.1816708993e+01   4.2307581974e+01    0.1536353    0.1447063 -26.22 6.491739e-05    1.021    0.021
       212  -9.7611    120.4891     65.0148   8.5456929885e+01   4.5724491194e+01    0.2299755    0.1417906 -38.87 0.0004335883    1.517    0.341
       213 -11.5182     77.0416     63.3147   9.7661552392e+01   5.4228796471e+01    0.3310126    0.2290068 -49.54  0.000448385    1.262    0.208
       214  -9.9283    154.1559     63.6051   7.6893745334e+01   3.8181516462e+01    0.2226344     0.140056  41.71 0.0005317319    1.711    0.416
       215 -11.5615     11.6030     44.2765   1.1620278253e+02   6.5597418656e+01    0.4301898    0.2263303 -42.93  0.001726288    1.722    0.419
       216 -10.5646      7.0029     41.2303   1.1735352642e+02   6.6537319718e+01    0.2755451    0.1134059 -59.65 0.0007583293    1.682    0.406
       217 -10.6455      1.4961     44.5175   1.2038170311e+02   6.6115030364e+01    0.1849114   0.08539849 -67.14 0.0002189732    1.571    0.363
       218 -12.2115      5.1764     52.2155   1.2052764597e+02   6.4228429857e+01    0.6384549    0.2335625 -66.70  0.002231714    1.945    0.486
       219 -10.8084     11.0862     62.6836   1.2038036920e+02   6.1541306679e+01      0.21303    0.1667969 -76.55 0.0003891458    1.114    0.102
       220 -10.2459      7.6498     59.8135   1.2107422354e+02   6.2394538172e+01    0.2540585    0.1678724 -82.19 0.0009869394    1.350    0.259
       221  -9.5165    201.2000     61.8653   6.7489734287e+01   2.6602693160e+01    0.2044646    0.1729168  10.21 0.0004151309    1.276    0.216
       222 -11.0096     83.9762     61.7620   9.4946902919e+01   5.3426547867e+01    0.4015105     0.279942  34.84   0.00205652    1.663    0.399
       223 -10.8288     86.4414     56.7007   9.2455508018e+01   5.4046935787e+01    0.3430001    0.2444967 -26.38 0.0009009155    1.511    0.338
       224 -11.2047     87.2446     52.4640   9.0697713691e+01   5.4754381558e+01    0.3458551    0.2246704 -47.61 0.0008999841    1.424    0.298
       225  -9.3058    134.6822     61.3067   8.0600496386e+01   4.3244635987e+01    0.1552985    0.1198702 -69.43 0.0005029951    1.632    0.387
       226 -10.8894     45.2877     50.4615   1.0465671269e+02   6.1291349826e+01    0.5451471    0.1496492 -46.97   0.00201617    2.970    0.663
       227 -11.5454     30.0406     60.7645   1.1317084054e+02   6.0548956019e+01    0.5593677    0.2736341  12.07  0.002499256    3.422    0.708
       228 -12.5186     37.5669     51.2716   1.0783141707e+02   6.1942177705e+01    0.7094783    0.4681833 -42.65  0.002661293    1.347    0.258
       229 -10.6411    129.0773     56.8363   8.0431592911e+01   4.5345740260e+01    0.4074714    0.2116835 -22.73  0.001461922    2.467    0.595
       230 -10.9950    123.0771     56.4167   8.1810623599e+01   4.6777484684e+01    0.5269337    0.2335636 -49.55 0.0009914592    2.658    0.624
       231 -12.1339    128.0140     50.9486   7.8584838789e+01   4.6631869469e+01     0.802694    0.4649794  -9.46  0.002883827    2.813    0.644
       232 -10.1656    114.7349     57.3536   8.4359583830e+01   4.8420989892e+01    0.2679049    0.2174291  37.06 0.0003616249    1.331    0.248
       233 -10.6259    117.6083     54.8214   8.2680087695e+01   4.8274644361e+01    0.4364722     0.294553  12.13  0.001832768    2.206    0.547
       234 -10.9225     47.1185     57.3404   1.0607144541e+02   5.9589560783e+01    0.3433574    0.2591585  85.54  0.001178961    1.750    0.428
       235  -9.8364     43.7066     57.3150   1.0730020823e+02   5.9974899571e+01    0.2153536    0.1395051 -72.64 0.0006496665    1.676    0.403
       236 -11.0177    101.3075     55.9770   8.7667741045e+01   5.1432377791e+01    0.5237814    0.2197912  48.77  0.001988607    2.668    0.625
       237 -10.7718     75.2734     56.0626   9.5857512394e+01   5.6036056703e+01    0.2048691    0.2020456  85.98 0.0003002161    1.175    0.149
       238 -11.8076     63.8481     59.9650   1.0098575983e+02   5.6903905472e+01    0.7917707    0.3410215  27.89  0.003105658    3.474    0.712
       239 -10.8252     12.5672     51.9404   1.1763281421e+02   6.3850062409e+01    0.3026578    0.1652461 -66.83  0.001556174    1.403    0.287
       240 -10.6084     69.9625     50.5683   9.5749498927e+01   5.7992847116e+01    0.3563915    0.2242705 -58.29  0.001656483    1.691    0.409
       241  -9.3709    179.6971     50.6700   6.7596574798e+01   3.3788162823e+01    0.1617853    0.1178149  19.68 0.0003541001    1.651    0.394
       242 -10.3403    113.9563     48.6141   8.1381727268e+01   5.0191760119e+01    0.3430431    0.1984639 -50.04  0.001048479    1.913    0.477
       243 -10.1776     77.0319     50.5549   9.3337291157e+01   5.6879079508e+01    0.1847693    0.1396077  38.07 0.0003604233    1.512    0.339
       244 -11.4063    153.0485     48.0679   7.1820943944e+01   4.1034637942e+01    0.4825151      0.33091  71.86  0.001489551    1.749    0.428
       245 -11.0363    104.1084     47.0924   8.3567785284e+01   5.2541762560e+01    0.4684536    0.2212525 -48.66  0.001799657    2.331    0.571
       246  -9.4877     52.3226     49.7110   1.0178288562e+02   6.0615012569e+01    0.1231893   0.09919869 -85.78  0.000266053    1.605    0.377
       247 -10.7655     61.3313     46.9367   9.7513486455e+01   5.9999195078e+01    0.3219293    0.2474838 -40.36  0.001149897    1.106    0.096
       248 -10.6584    142.7417     45.7385   7.3205068344e+01   4.3976053291e+01    0.3179466    0.2452966 -63.13 0.0009162645    1.561    0.360
       249 -10.6010    121.9956     43.3829   7.7268975313e+01   4.9301939181e+01    0.4817241    0.2940056 -31.12  0.002138784    1.552    0.356
       250  -9.3847     18.6789     46.2902   1.1384604870e+02   6.4673773154e+01    0.1122457   0.08495615  84.98 0.0007010107    1.605    0.377
       251  -9.1833    233.4311     45.4443   5.8179833120e+01   2.0844978127e+01    0.1449536    0.1318293 -27.66 0.0001488251    1.015    0.015
       252 -10.1216    163.8464     45.1906   6.8654766887e+01   3.8715852605e+01    0.2109638    0.1771706  11.97 0.0002792596    1.291    0.226
       253 -11.4976     89.1842     39.9317   8.5271991848e+01   5.6769272564e+01    0.4237036    0.2640541 -32.44  0.001733126    1.476    0.323
       254 -10.0023     51.1877     44.8902   1.0056123911e+02   6.1765793348e+01    0.2408168     0.146699 -39.15   0.00037583    1.463    0.316
       255 -11.0559     52.4930     41.2195   9.8736353476e+01   6.2352190524e+01    0.2916313    0.2202625  61.64  0.001265414    1.918    0.479
       256 -10.5110     10.0876     25.2204   1.1132529152e+02   6.9732864056e+01    0.3134541    0.2147315 -48.50 0.0008646328    1.089    0.082
       257 -10.8727     11.0336     34.3243   1.1375582819e+02   6.7774429331e+01    0.3501666    0.2266379   6.98  0.001565822    2.053    0.513
       258 -11.2681      5.8266     31.4243   1.1526219109e+02   6.8702766816e+01    0.5372773    0.2075293 -42.64  0.002746381    2.223    0.550
       259 -10.5493      2.1332     24.1610   1.1483785471e+02   7.0421324601e+01    0.4501952    0.1322799 -55.39  0.002182321    2.137    0.532
       260 -10.9839     18.0343     32.5128   1.1006613389e+02   6.7665763398e+01    0.4981738    0.2264811 -55.95  0.002654803    1.630    0.387
       261 -10.4233    181.0138    248.5148   1.0925612756e+02   3.2241858440e+00    0.2033635    0.1069208 -24.86  0.001182228    3.328    0.700
       262  -9.8148    136.9929    247.4958   1.1597244302e+02   9.7047801086e+00    0.1590408   0.07740523  44.32 0.0003974448    1.520    0.342
       263 -12.0571     20.7223     37.7028   1.1053861771e+02   6.6367844018e+01    0.3769363    0.2332931 -65.77  0.001719605    1.458    0.314
       264 -12.7653     26.0362     36.4050   1.0783893856e+02   6.6201029422e+01    0.5959815    0.3676226 -51.01  0.002221725    1.235    0.190
       265 -10.3464    225.7943     40.1695   5.7587707604e+01   2.3380884971e+01    0.2906103    0.1989656 -51.14  0.001393344    1.491    0.330
       266  -9.3209    220.4313     41.5380   5.8647621089e+01   2.4547485191e+01    0.1478428    0.1364954 -30.45 9.065188e-05    1.008    0.008
       267  -9.6707    156.6579    245.7221   1.1272336617e+02   7.0890066754e+00    0.1019165   0.06852794  27.61 0.0003024441    1.624    0.384
       268 -10.9109     97.3377     40.9359   8.3154960603e+01   5.5011779057e+01    0.3841789    0.2966055  52.79  0.001273459    1.482    0.325
       269 -11.2917     97.9916     31.9933   7.9249504753e+01   5.6391360755e+01    0.4080523    0.3086194  27.03  0.000715328    1.433    0.302
       270 -11.7642    101.5020     36.9401   8.0295050860e+01   5.4853067066e+01     0.466924    0.3240694  31.80   0.00060488    1.607    0.378
       271 -12.0198     97.0640     36.9724   8.1622244554e+01   5.5753756692e+01    0.2634993    0.2578004 -52.38 0.0003521763    1.175    0.149
       272 -10.3789     67.1052     41.1254   9.3245045075e+01   6.0313560022e+01    0.2732831    0.2057106 -21.52  0.001474222    1.375    0.273
       273 -10.5334     70.1457     36.1357   9.0145079798e+01   6.0785470952e+01    0.3648122    0.1781614 -28.36  0.001495787    2.420    0.587
       274 -10.1839     84.9685     34.9755   8.4578532863e+01   5.8432558231e+01    0.3583038    0.1895567  60.43  0.001427759    3.053    0.672
       275 -11.6419     80.1584     36.8482   8.6959224373e+01   5.8968193079e+01    0.4417713     0.334002 -56.21  0.002356722    1.540    0.351
       276 -10.4909     77.5231     33.4758   8.6434060366e+01   6.0032001808e+01    0.3887335    0.2091598 -19.12    0.0015447    2.653    0.623
       277  -9.9036     43.3018     37.7858   1.0110045461e+02   6.4169408280e+01    0.3564373    0.2176355 -77.67  0.001543879    3.226    0.690
       278 -10.0265    182.9818     37.7334   6.2764041883e+01   3.4756837053e+01    0.2136657    0.2039926  72.87 0.0004087489    1.093    0.085
       279 -10.0606    110.5668     41.8582   7.9708243189e+01   5.2102417767e+01    0.2252305    0.2019958 -75.91 0.0004073754    1.351    0.260
       280 -10.5466    162.9388     36.5546   6.5785662067e+01   4.0195612343e+01    0.2381273    0.1492901  58.32  0.001029978    1.614    0.381
       281  -9.3289    127.4665     36.4584   7.3214767702e+01   4.9131131677e+01    0.1501573    0.1413093 -16.94   9.1841e-05    1.020    0.019
       282  -9.6985    150.8416     34.4020   6.7310757591e+01   4.3631813478e+01    0.2186786    0.1343876  46.81 0.0004491693    1.651    0.394
       283 -10.2936    139.9708     34.0425   6.9425036263e+01   4.6437561691e+01    0.2225788    0.2126319 -16.33 0.0003178364    1.024    0.023
       284 -10.0718    207.3111     33.2743   5.7831107992e+01   2.8938905553e+01    0.2852301    0.1667907  52.07  0.001242052    1.768    0.434
       285 -10.0905    129.9053     32.6459   7.1128707488e+01   4.9115573324e+01    0.2035132    0.1956998  34.92 0.0007174626    1.082    0.076
       286 -10.1502    124.1655     33.0080   7.2635752611e+01   5.0434804240e+01     0.252919    0.2093546  49.43  0.000746092    1.256    0.204
       287  -9.8971    221.7483     30.7386   5.5309104369e+01   2.5545442331e+01    0.2525016    0.0883651 -36.01 0.0008982417    2.425    0.588
       288 -10.0377    177.6634     31.3422   6.1447304083e+01   3.7002637721e+01    0.2562222     0.172048 -59.69  0.001116197    1.752    0.429
       289  -9.7031     90.0671     31.5375   8.1471935248e+01   5.8050315252e+01    0.1894674    0.1398133  43.93 0.0003978876    1.478    0.323
       290  -9.8748     73.9319     31.2957   8.6741192438e+01   6.1033641657e+01    0.1821102     0.161865 -12.68 0.0001919408    1.079    0.073
       291 -10.7312     50.2132     28.7207   9.4652148614e+01   6.5087505218e+01    0.3488133    0.1903196 -32.88  0.001039429    1.717    0.417
       292  -9.4370     42.8805     31.5601   9.8874367358e+01   6.5459994867e+01    0.1623233    0.1256342  23.45  0.001007773    1.540    0.351
       293  -9.7667    139.9175     28.8894   6.7434650390e+01   4.7170462190e+01    0.3753241    0.2122291 -12.51  0.001502354    2.059    0.514
       294  -9.7746     82.7467     29.9832   8.3153244840e+01   5.9696215965e+01    0.3596105    0.2157904 -64.23  0.001364686    3.486    0.713
       295  -9.6841     80.4431     26.4414   8.2334302252e+01   6.0704375407e+01    0.2534579     0.190484 -16.03  0.001186042    1.280    0.219
       296  -9.5733    162.8719     28.8215   6.3016280628e+01   4.1245335022e+01    0.2081003    0.1726803 -56.04 0.0002705855    1.300    0.231
       297 -11.1508    214.6933     27.3340   5.5108976769e+01   2.7744977536e+01     0.252983    0.2393073   1.09 0.0002405422    1.106    0.096
       298  -9.6602     21.4429     28.3542   1.0708344352e+02   6.8251340516e+01    0.1616475   0.09791901 -61.63 0.0009310936    1.518    0.341
       299 -10.4487     87.7215     25.6220   7.9586252964e+01   5.9458762402e+01    0.4119543    0.2701802 -47.70  0.002026422    1.712    0.416
       300 -10.8414     84.9815     20.8209   7.8233773051e+01   6.0724004181e+01    0.4015864    0.3141299  42.32  0.002258885    1.381    0.276
       301 -11.1474     70.7010     25.8640   8.5463742215e+01   6.2513713254e+01    0.4638078    0.2878169  34.39  0.002386739    1.812    0.448
       302 -10.1525     16.7376     26.6680   1.0866501499e+02   6.8967733881e+01    0.2541696    0.1046222 -49.50   0.00104779    1.750    0.429
       303 -11.4986    129.4204     23.9170   6.7700682320e+01   5.0443550762e+01    0.4780954     0.326327 -55.75  0.002145661    1.819    0.450
       304 -10.4431    129.4406     19.4717   6.5851261678e+01   5.1004687092e+01    0.2493949    0.1403293 -23.01 0.0006456875    1.728    0.421
       305  -9.4489    115.4992    244.5058   1.1905803363e+02   1.3098998174e+01    0.1040279    0.0768406  52.78 -4.731611e-05    1.037    0.036
       306 -10.0818    109.8708    243.2251   1.1983061542e+02   1.4042719024e+01    0.1670194    0.1193528  74.70  0.000823752    1.391    0.281
       307 -12.0279     74.3042    238.4102   1.2503065245e+02   1.9367821369e+01    0.3667478    0.2533059  77.18  0.002851167    1.271    0.213
       308 -10.2679     88.8855    241.2365   1.2295795939e+02   1.7109937104e+01    0.1555038     0.130244 -36.63  0.001229203    2.142    0.533
       309  -9.3318     36.4239     26.5737   9.9613880045e+01   6.7162804762e+01    0.1252786    0.0993238 -40.13 0.0001794332    1.028    0.027
       310 -10.7430    174.0072     24.1863   5.9536308469e+01   3.8861396406e+01    0.2530532    0.2131568 -45.33  0.000377973    1.199    0.166
       311 -10.3034    112.3674     24.8207   7.2165538564e+01   5.4358016062e+01    0.2047832    0.1315022 -16.18 0.0004475142    1.596    0.373
       312 -10.5317     94.7930     24.0697   7.6707085084e+01   5.8279198876e+01    0.4095045    0.1877561  48.58  0.001718638    2.284    0.562
       313  -9.4428    190.5048     22.4777   5.6590496013e+01   3.4655338615e+01    0.3344114    0.1381179  -1.50 0.0008104253    5.927    0.831
       314  -9.6074     34.9697     22.8363   9.8671083126e+01   6.8034932678e+01    0.2046967     0.124468 -14.73 0.0008755777    2.132    0.531
       315 -10.7349    156.4968    241.0685   1.1224889283e+02   7.6673464912e+00    0.1281773    0.1075572 -54.04  0.001031324    1.587    0.370
       316  -9.8172    134.9355     22.2538   6.5830812339e+01   4.9290861023e+01    0.2541168      0.15078  33.58 0.0009034096    1.893    0.472
       317  -9.6780    120.4381     21.3255   6.8666802099e+01   5.2952582845e+01    0.1972883    0.1310368 -34.31 0.0007694748    1.464    0.317
       318  -9.6515     48.5646     20.5013   9.1625790789e+01   6.6797057477e+01     0.176061    0.1372586 -31.25 5.745612e-05    1.039    0.038
       319 -10.2612     45.5046     20.5049   9.2937501889e+01   6.7201634805e+01    0.2226417     0.161042  47.58  0.001313213    1.891    0.471
       320  -9.8321    162.1283     20.1188   5.9959039138e+01   4.2504377335e+01    0.2030727    0.1717527 -57.92 0.0002609296    1.275    0.216
       321 -13.1741     19.7233    248.3307   1.3363190656e+02   2.3962133153e+01     1.055727    0.1954522  44.84  0.005965442    2.960    0.662
       322  -9.3897     50.3145    240.3200   1.2882402847e+02   2.1921197470e+01   0.07766975    0.0731905  67.04 0.0006250003    1.654    0.395
       323 -10.0436    217.5044     16.5045   5.1550986694e+01   2.8234385297e+01    0.2543192     0.115517  56.85 0.0009924028    2.211    0.548
       324 -10.3535    164.4745     16.5403   5.8269455228e+01   4.2284618283e+01    0.2828542    0.1125999  53.47  0.001027719    2.349    0.574
       325  -9.5162    191.6326     15.4991   5.4145348957e+01   3.5127361573e+01    0.1454211    0.1367294 -33.95 -0.0003603084    1.039    0.037
       326  -9.9215     50.1316     15.0897   8.8301746913e+01   6.7497520468e+01    0.2150539    0.1755398  34.92  0.001371326    1.464    0.317
       327 -10.4421    195.7233    238.2875   1.0574349464e+02   2.1335489575e+00    0.2136336    0.1446869  28.49  0.001535832    1.271    0.213
       328  -9.7618     24.0601    232.3326   1.3238081550e+02   2.5952897292e+01    0.1664061   0.08406437  54.02 0.0008390229    1.399    0.285
       329 -10.5310     31.7961    237.3506   1.3144771522e+02   2.4382677185e+01    0.1779504    0.1313512  65.67  0.000864014    1.173    0.147
       330 -10.4964     29.3268    232.9733   1.3161968720e+02   2.5315797683e+01    0.2489913    0.1180121  63.13  0.001452669    1.517    0.341
       331  -9.5513    243.4908    237.4986   9.8388390657e+01  -4.7340414941e+00    0.1059543   0.07577813  24.73 -1.442853e-05    1.018    0.018
       332 -10.1639    100.1866     13.0552   7.0044240308e+01   5.8636756212e+01    0.2277898    0.1752752   7.56  0.001216097    1.292    0.226
       333 -10.2882    159.9356    235.8567   1.1111967351e+02   7.7892764788e+00    0.1664871     0.122224  33.58 0.0006500593    1.261    0.207
       334 -10.0109     72.5786    250.1203   1.2605209894e+02   1.7889318188e+01    0.1438573    0.1215749  39.59  0.001253949    1.626    0.385
       335 -10.2460    177.6212    234.8307   1.0816621387e+02   5.2401986812e+00    0.2047387    0.1388268  27.60 0.0009421067    1.434    0.303
       336 -11.0900    153.4730    234.1577   1.1196963544e+02   8.9710611382e+00    0.1923694    0.1689833   2.58  0.001145372    1.499    0.333
       337 -11.3869     36.0077    241.5346   1.3101538535e+02   2.3304575516e+01      0.31438    0.1786451  57.29  0.002521982    1.210    0.174
       338 -10.0850    167.0179    233.7244   1.0973244280e+02   6.9795476548e+00    0.1559868    0.1164457  42.31 0.0009330538    1.023    0.022
       339  -9.8894     79.9075    231.4866   1.2365375186e+02   1.9702679175e+01    0.1535512   0.07779249  47.29  0.000455106    1.522    0.343
       340 -10.2692      5.5246    235.4596   1.3520743811e+02   2.7251559402e+01    0.1606015    0.1223649  62.77  0.000823202    1.326    0.246
       341 -10.2063    190.5137    227.2695   1.0513399273e+02   4.1304149063e+00    0.2804251    0.1108062 -39.08  0.001480347    3.214    0.689
       342  -9.4723    249.2951    227.3260   9.6042343924e+01  -4.6788495592e+00    0.1107082   0.06287735  16.85 0.0004104094    1.625    0.385
       343 -10.1028    129.7345    226.7193   1.1505706152e+02   1.3511075364e+01    0.2420692   0.09987678  56.68  0.001186255    2.632    0.620
       344  -9.8100     87.5161    227.4828   1.2211078264e+02   1.9327118322e+01     0.106787   0.07867913  61.26  0.000810223    1.001    0.001
       345 -10.3366     66.5458    226.6139   1.2545459637e+02   2.2126171991e+01    0.2449725    0.1097647  49.92  0.000955919    1.669    0.401
       346 -10.3195    115.7561    225.7271   1.1728426083e+02   1.5693967869e+01    0.1473873   0.08469177 -78.92 0.0005682184    2.380    0.580
       347  -9.8731    181.0000    224.9048   1.0636258120e+02   5.8865715925e+00    0.1496831   0.06488024 -41.73 0.0008012672    2.934    0.659
       348 -10.7451    123.0874    221.4245   1.1561555239e+02   1.5257549135e+01    0.2957858    0.1837943  56.59  0.001945584    1.366    0.268
       349  -9.7456     13.3801    221.7462   1.3356120464e+02   2.8690117210e+01    0.1180524   0.07073397 -81.30 0.0006404107    1.573    0.364
       350 -10.1680    141.8536    220.8793   1.1237899642e+02   1.2505953270e+01    0.1721509    0.1329983  35.88 0.0008285613    1.274    0.215
       351  -9.4928    250.4779    219.4463   9.4656688734e+01  -4.1511479511e+00    0.1112049   0.08003537  20.53 0.0004047209    1.025    0.024
