#   1 NUMBER                 Running object number                                     
#   2 MAG_AUTO               Kron-like elliptical aperture magnitude                    [mag]
#   3 X_IMAGE                Object position along x                                    [pixel]
#   4 Y_IMAGE                Object position along y                                    [pixel]
#   5 X_WORLD                Barycenter position along world x axis                     [deg]
#   6 Y_WORLD                Barycenter position along world y axis                     [deg]
#   7 A_WORLD                Profile RMS along major axis (world units)                 [deg]
#   8 B_WORLD                Profile RMS along minor axis (world units)                 [deg]
#   9 THETA_WORLD            Position angle (CCW/world-x)                               [deg]
#  10 FWHM_WORLD             FWHM assuming a gaussian core                              [deg]
#  11 ELONGATION             A_IMAGE/B_IMAGE                                           
#  12 ELLIPTICITY            1 - B_IMAGE/A_IMAGE                                       
         1 -13.5230      4.4393     13.2800   1.3606454303e+02   7.5695572661e+01     2.371002    0.7606984 -63.66   0.01067266    2.403    0.584
         2 -13.3328    190.2150     27.7336   7.3498980500e+01   3.3429546468e+01     1.340894     1.213594  53.97  0.006426629    1.160    0.138
         3 -13.6653    204.0362      8.9918   6.6493053466e+01   3.1779974278e+01     1.619595     1.080617  44.92  0.008165075    1.735    0.424
         4 -11.3039     10.2103     54.2448   1.4219858073e+02   6.5946094266e+01    0.4082626    0.2115681  35.14  0.001276418    2.123    0.529
         5 -10.8341    248.4702    249.6379   1.1206441672e+02  -4.5248713842e+00     0.357911    0.1161442  33.50  0.002077422    2.231    0.552
         6 -11.0340    139.8687    249.9865   1.3015477960e+02   9.5416000473e+00    0.3737584    0.1029916  38.47  0.001763246    2.465    0.594
         7  -9.8989    126.9846    250.0247   1.3249508127e+02   1.1275734912e+01    0.1385859   0.09330266  38.59 0.0006124886    1.029    0.028
         8 -10.2515     99.1921    249.3958   1.3754557888e+02   1.5014843755e+01    0.2253406    0.1315896  41.95  0.001124354    1.173    0.148
         9 -10.7407    102.6175    247.7820   1.3678790577e+02   1.4795450749e+01    0.2251639    0.1403206  51.77 0.0006396624    1.332    0.249
        10  -8.8974     67.4874    250.5489   1.4344888710e+02   1.8744710684e+01     0.108027   0.07163688  47.62 0.0001079043    1.019    0.018
        11 -13.0216      6.1170    243.8184   1.5420196686e+02   2.6103581569e+01     2.375969    0.6095326  37.49   0.01379588    2.292    0.564
        12 -13.9091      7.1820    209.3587   1.5326343849e+02   3.1738562377e+01     1.985675    0.6925488 -75.59  0.009353544    2.980    0.664
        13 -14.1239      3.5355    176.3027   1.5315459400e+02   3.8288446590e+01     8.404553    0.4870694 -83.90   0.01676309   17.315    0.942
        14 -14.8964     17.3961    167.0044   1.4954802663e+02   3.9046413790e+01      5.50723     1.557061  78.97   0.02015128    4.430    0.774
        15  -8.7472     33.0339    228.7288   1.4884983531e+02   2.5950485314e+01    0.1489668   0.09925367  49.20 0.0004704429    1.065    0.061
        16  -9.4519    163.3322    226.3233   1.2322493665e+02   9.1664728402e+00    0.1171393   0.07546816  15.50 0.0007050309    1.704    0.413
        17 -14.3566     56.9763    213.9035   1.4331577785e+02   2.5835843621e+01     7.897229          nan  40.21   0.01929889    8.963    0.888
        18  -9.4352     35.2481    225.3772   1.4828556833e+02   2.6279494128e+01    0.1373747    0.1046057  57.21 0.0004913259    1.108    0.097
        19 -10.6411    173.2407    221.8789   1.2082113362e+02   8.2567082321e+00    0.3383193    0.2722296  69.12  0.002277623    1.991    0.498
        20 -12.5416     41.8324    234.0623   1.4739734277e+02   2.4156628605e+01    0.2854627    0.2479844 -67.25 0.0008050542    1.649    0.393
        21  -9.9039     46.3809    248.5650   1.4718710072e+02   2.1412222909e+01    0.2908734    0.1003429  60.41  0.001333287    2.606    0.616
        22 -10.0063     82.1488    242.8954   1.4025728431e+02   1.8097750608e+01    0.1747368    0.1052097  51.57 0.0006021169    1.270    0.212
        23  -8.6617    152.4862    212.9434   1.2359524607e+02   1.2579275725e+01    0.1362828    0.1221882 -38.81 0.0003581933    1.447    0.309
        24 -10.2417     32.4458    207.0136   1.4803857911e+02   2.9774066039e+01    0.3836294   0.09625416  48.08  0.001419511    2.535    0.606
        25 -12.2749     24.3027    202.0226   1.4952519874e+02   3.1501427240e+01    0.4429573    0.1520542  48.71  0.002394474    1.988    0.497
        26 -11.3679     66.5771    199.3286   1.4022224949e+02   2.7282105854e+01     0.276345    0.2331088 -45.31 0.0007430896    1.679    0.404
        27  -9.0874    156.3530    250.2892   1.2723766800e+02   7.2649041280e+00    0.1094947   0.06692477  19.74 0.0007026016    1.673    0.402
        28 -10.0095    193.1798    195.0868   1.1323113768e+02   8.5541824274e+00     0.583695    0.3639337 -66.25  0.002123671    6.650    0.850
        29 -11.5920     72.1019    191.3274   1.3830528737e+02   2.8068185963e+01    0.2303024    0.2231586  54.26 0.0005138995    1.299    0.230
        30  -9.0740    104.2733    180.3049   1.2966610400e+02   2.5527885955e+01    0.1696624    0.1243893  57.76 0.0003654769    1.275    0.216
        31 -13.1315     68.6894    176.3946   1.3770055459e+02   3.1447178139e+01    0.4531174    0.2822856 -43.66  0.001743884    2.350    0.575
        32 -10.7723     81.3735    178.5341   1.3486769335e+02   2.9283719915e+01    0.2292292    0.1953107  52.58 0.0004419218    1.062    0.058
        33  -8.3755    171.5577    173.5380   1.1380910174e+02   1.5222718209e+01    0.1322878    0.1114259  29.81 0.0001158336    1.018    0.018
        34 -11.6822     88.3583    169.0171   1.3205381698e+02   3.0173801907e+01     0.595512    0.4946799  47.10   0.00370251    1.064    0.060
        35  -8.8471    250.5349    171.5127   9.9523057517e+01   2.3986532669e+00    0.1176203    0.0902041   6.76 -0.000148838    1.003    0.003
        36 -10.4304    192.0369    155.6396   1.0643592087e+02   1.4192375660e+01    0.4166802    0.3109435 -82.88  0.001978777    2.826    0.646
        37 -10.6655    198.4898    245.4970   1.1941312106e+02   2.0818606265e+00    0.2973643     0.131032 -37.40  0.001798718    3.012    0.668
        38  -9.8049    100.2045    152.5714   1.2674425964e+02   3.1702222046e+01    0.3168447    0.2761967 -29.30 0.0007492438    1.455    0.313
        39  -9.1157    102.8023    148.4592   1.2540991854e+02   3.2130527959e+01    0.2235651    0.1690044  22.56  0.001167755    1.540    0.351
        40 -11.8693     88.9760    152.1489   1.2961814462e+02   3.3600113181e+01    0.2604406    0.2507119   6.82  0.000537861    1.265    0.210
        41 -12.4641     67.0812    144.0801   1.3446489915e+02   3.8592929916e+01    0.8295324     0.497979  70.08  0.004075308    1.830    0.454
        42 -11.7915     57.7283    132.7097   1.3567763660e+02   4.2440152769e+01    0.9749217    0.4029582 -85.24  0.003441443    3.663    0.727
        43  -8.3795    191.9771    144.0119   1.0409296116e+02   1.5943848725e+01    0.1610487    0.1432686  13.42 0.0003805158    1.028    0.027
        44 -11.4333     28.3541    138.9146   1.4492277336e+02   4.4222335380e+01    0.3022137     0.156995  58.77 0.0008818206    1.740    0.425
        45  -9.5290    183.4518    238.5099   1.2111449160e+02   4.8536513228e+00    0.1126236   0.07956356  27.73 -9.177566e-05    1.012    0.012
        46 -10.4155     98.3879    134.8956   1.2426710054e+02   3.5809264547e+01     0.265167    0.2355238 -33.42 0.0004642981    1.355    0.262
        47  -9.5831    110.7341    137.7207   1.2143343227e+02   3.3008972543e+01     0.361653    0.2546647 -18.30  0.001253982    2.300    0.565
        48  -9.3397    166.5134    130.5222   1.0637766400e+02   2.3291865606e+01    0.2898251    0.2137544  87.80   0.00108878    2.251    0.556
        49  -9.3885    107.8057    124.1787   1.1956841374e+02   3.6471071789e+01    0.2053236    0.1816709  63.40 0.0002985038    1.090    0.083
        50  -9.7069     69.9839    124.0676   1.3069849212e+02   4.2806520531e+01    0.2061084    0.1834142  68.35 0.0003179001    1.017    0.017
        51  -9.0074    154.2843    120.1071   1.0672780037e+02   2.7779392927e+01    0.2843376    0.1922498  71.69  0.001206601    2.153    0.535
        52 -11.1133     28.2136    150.5311   1.4582793221e+02   4.1615625372e+01    0.2149011    0.1541401  53.67 0.0008846935    1.179    0.152
        53 -13.8767     48.3107    226.9177   1.4580776561e+02   2.4615310337e+01    0.9954622    0.7527775  73.44  0.005350881    1.276    0.216
        54 -10.3647    168.0440    113.2689   1.0200395679e+02   2.5993480365e+01    0.3247675    0.2882474  87.70  0.000797338    1.362    0.266
        55  -9.3694    203.3338    111.3645   9.4664048930e+01   1.8577696153e+01    0.2228701    0.1566718  14.62 0.0007110454    1.666    0.400
        56  -9.2531    181.5248    144.4590   1.0624058207e+02   1.7915172275e+01    0.2180434    0.1839092  77.52 0.0005366187    1.649    0.394
        57  -9.9770     33.2022     92.4573   1.3822343139e+02   5.4914641995e+01    0.3933376    0.1872458  44.13   0.00182147    2.109    0.526
        58  -9.4797    155.5324     75.5348   9.4422164994e+01   3.5650158343e+01    0.1539082    0.1504817  58.75 0.0002199358    1.010    0.010
        59  -9.5775     17.3005     66.4305   1.4077600445e+02   6.2581517998e+01    0.2037898    0.1475694  38.22 0.0006852606    1.507    0.336
        60 -11.1517      2.3542     61.1978   1.4699148030e+02   6.4609455576e+01    0.4523096    0.2146212 -83.35  0.001410103    1.828    0.453
        61 -11.7755      2.2622     48.0722   1.4536777102e+02   6.7760351264e+01    0.9355669    0.1446963 -74.97  0.002939156    4.652    0.785
        62  -8.9355     74.4379    242.9382   1.4171102409e+02   1.9038570549e+01    0.1388578   0.06697731  65.37 0.0005382685    2.279    0.561
        63  -9.3122     23.7190     58.7035   1.3630582246e+02   6.4012524219e+01    0.2612334    0.1134253  43.30  0.001145344    2.597    0.615
        64  -9.9819    121.7421    249.7561   1.3342829436e+02   1.2011678048e+01    0.1884525   0.05480897  43.26 0.0008976671    2.426    0.588
        65 -10.3661     81.2959    248.5734   1.4079380646e+02   1.7377070290e+01    0.2259507    0.1434786  56.50  0.001270551    1.325    0.246
