#   1 NUMBER                 Running object number                                     
#   2 MAG_AUTO               Kron-like elliptical aperture magnitude                    [mag]
#   3 X_IMAGE                Object position along x                                    [pixel]
#   4 Y_IMAGE                Object position along y                                    [pixel]
#   5 X_WORLD                Barycenter position along world x axis                     [deg]
#   6 Y_WORLD                Barycenter position along world y axis                     [deg]
#   7 A_WORLD                Profile RMS along major axis (world units)                 [deg]
#   8 B_WORLD                Profile RMS along minor axis (world units)                 [deg]
#   9 THETA_WORLD            Position angle (CCW/world-x)                               [deg]
#  10 FWHM_WORLD             FWHM assuming a gaussian core                              [deg]
#  11 ELONGATION             A_IMAGE/B_IMAGE                                           
#  12 ELLIPTICITY            1 - B_IMAGE/A_IMAGE                                       
         1 -12.2391      5.8342     16.5103   9.9442651284e+01   7.1472508729e+01    0.4534441    0.3196706 -58.74  0.002613078    1.719    0.418
         2 -11.7639    166.4165     17.9581   4.6987464062e+01   4.1224700690e+01    0.3752463     0.303883  58.39 0.0003489383    1.146    0.127
         3 -11.1369     64.3893     15.7660   7.1222389301e+01   6.4623834694e+01    0.3744904    0.2976782  27.99   0.00196774    1.197    0.164
         4 -10.7759    116.8512     14.6536   5.5037143822e+01   5.3908181446e+01    0.4074865    0.2812202  17.66  0.001329649    1.575    0.365
         5 -11.0718    120.6624      8.2326   5.1725874980e+01   5.3618515180e+01    0.4616478    0.2917454  36.50  0.001493491    1.516    0.340
         6 -11.6526    174.7316     11.6404   4.3908317222e+01   3.9750980484e+01    0.4137019    0.3390415  26.45   0.00195096    1.429    0.300
         7 -11.1071    133.0822     12.7804   5.0924351405e+01   5.0175819967e+01     0.236551    0.1990412 -17.46 0.0003062581    1.294    0.227
         8 -10.7325    148.6507     12.1411   4.7917568767e+01   4.6344821444e+01    0.3971775    0.1641448  53.41  0.001219918    2.077    0.519
         9 -10.1779     32.4115     12.4886   8.3592337783e+01   6.9704846798e+01    0.2135329    0.1858399 -31.30 0.0008545606    1.471    0.320
        10 -11.0786     70.6164     11.9482   6.7117528827e+01   6.3977784464e+01    0.2202803    0.1638147  34.52 0.0002179028    1.235    0.190
        11 -11.5362     14.5251      9.8286   9.1667492101e+01   7.1927078477e+01    0.3944617    0.2068655 -31.67  0.001297888    1.501    0.334
        12 -11.7449    106.8947      7.0950   5.4337752450e+01   5.6939376678e+01    0.6717973    0.4287173  52.06  0.003581101    1.372    0.271
        13 -11.7955     20.6334      6.8698   8.6850325107e+01   7.1804860140e+01     0.515227    0.2461071 -46.05   0.00274234    2.383    0.580
        14 -10.2382      4.7920      9.0337   9.6804306558e+01   7.2799084617e+01    0.2285903    0.1097882 -35.22  0.001368626    1.559    0.359
        15 -11.6600    204.3773      7.6032   3.9411151311e+01   3.2726536349e+01    0.3916779    0.2918495  32.30  0.001280628    1.749    0.428
        16 -11.6895    193.7254      6.0876   4.0101957830e+01   3.5508065721e+01    0.6440744     0.399106  51.56  0.003332695    1.673    0.402
        17  -9.9178    164.8723      8.5000   4.4289601305e+01   4.2568774138e+01    0.2804607    0.1568103 -45.12  0.001323084    1.931    0.482
        18  -9.2474     74.3020      8.2974   6.4110684781e+01   6.3687618394e+01    0.1339131   0.08318187  20.00 0.0003862794    1.580    0.367
        19  -9.7119     46.7830      8.4054   7.4796146600e+01   6.8345618274e+01    0.1655767   0.09786358  24.54 0.0004146521    1.591    0.371
        20 -10.4057     87.7647      6.4487   5.9064208381e+01   6.1182536735e+01    0.2526696    0.1841557  53.72 0.0009330167    1.377    0.274
        21  -9.5359    134.5248      6.4522   4.8388370031e+01   5.0403200651e+01    0.1372646    0.1198047  51.69   2.8041e-05    1.013    0.013
        22  -9.4667     61.7569      5.9918   6.7448085300e+01   6.6216699120e+01    0.1615895   0.09526068 -20.89 0.0006233647    1.618    0.382
        23 -10.8721     38.4187      2.9963   7.5750510516e+01   7.0199036014e+01    0.3626252    0.2740462 -48.22  0.001145958    2.225    0.551
        24 -11.0913    147.8885      3.1623   4.5048507553e+01   4.7349657239e+01    0.4191312    0.3440677 -72.10  0.002439164    1.339    0.253
        25 -11.1760    160.1016      2.8895   4.3204412174e+01   4.4287378536e+01    0.4423466    0.2703318  65.33  0.001978145    1.422    0.297
        26 -11.7173    216.7557      1.9871   3.6881284748e+01   3.0308944769e+01    0.2946743    0.1900062  77.57 0.0007308241    1.409    0.290
        27 -10.6331     24.7440      6.9017   8.4671956519e+01   7.1371145257e+01    0.2485783    0.1771475 -40.18 0.0009441597    1.623    0.384
        28 -10.9226    180.1844      1.9016   4.0425926155e+01   3.9293241595e+01      0.29868    0.1670752  67.53  0.001142469    1.562    0.360
        29 -10.5753    123.9398      2.0237   4.8721557290e+01   5.3360461287e+01    0.3087341    0.1879441  74.08  0.001252432    1.728    0.421
        30 -10.9844    115.6486      1.9758   5.0345464424e+01   5.5342781022e+01    0.2418271    0.1752405  58.33 0.0003541007    1.236    0.191
        31  -9.8276     88.5402      1.6705   5.6690682490e+01   6.1448447170e+01    0.3667504    0.1302487  49.97  0.001573276    2.274    0.560
        32  -9.7142     82.0119      2.0448   5.8726522135e+01   6.2769453499e+01    0.2493338    0.1773359  53.12  0.001300792    1.403    0.287
        33 -11.4992     74.8003      1.8297   6.0846381151e+01   6.4224236053e+01    0.5046048    0.1702234  52.66  0.001369903    2.722    0.633
        34 -10.4263     49.6697      2.1713   7.0288380297e+01   6.8632116439e+01    0.2141438    0.1442941  26.98  0.000587224    1.300    0.231
        35  -9.9300     30.8280      3.1689   7.9548502475e+01   7.1168944162e+01    0.1643416    0.1356172 -13.80 0.0004883611    1.263    0.208
        36  -9.1272     22.9666    227.0043   1.2650940634e+02   2.4285981348e+01    0.1294964   0.09355816  71.10 0.0009532848    1.007    0.007
        37 -10.7745    187.1214    250.3704   9.8211502692e+01  -3.0528941262e+00    0.1905342    0.1326078  36.65 0.0005650776    1.174    0.148
        38 -11.5722    127.9290    247.8085   1.0896891238e+02   6.5430773502e+00    0.3299407    0.2779302  70.80   0.00111044    1.265    0.210
        39 -11.0946    116.1219    249.2824   1.1133808347e+02   8.1028140701e+00    0.2795627    0.2113784  67.20  0.001286905    1.318    0.241
        40 -10.5279    111.9498    246.1710   1.1178974623e+02   9.2383641219e+00    0.1858735    0.1728326 -60.59 0.0003840634    1.369    0.269
        41  -9.7208     30.9757    250.5463   1.2644109405e+02   1.9140168688e+01    0.1447796   0.08069005  46.83 2.446227e-05    1.470    0.320
        42  -9.8722     16.2748    250.4389   1.2879577926e+02   2.0729951026e+01    0.2050574    0.1028399  51.05 0.0008284805    1.491    0.329
        43 -11.0963     12.5091    249.5459   1.2934946826e+02   2.1268356797e+01    0.2824416    0.1759506  24.61    0.0018768    2.629    0.620
        44  -9.5111     41.4703    233.9388   1.2367588462e+02   2.0935184836e+01    0.1487323   0.09359666 -83.56 8.269344e-05    1.475    0.322
        45  -9.6660    164.5195    225.4818   9.8916382868e+01   4.2189045682e+00    0.1302499    0.1091327  32.74 -6.247692e-05    1.014    0.013
        46  -9.4980      2.0053    224.6837   1.2997731035e+02   2.6779687132e+01    0.1433944    0.1040432  72.47 0.0005055103    1.066    0.062
        47 -10.5168     89.0592    221.3800   1.1360088283e+02   1.7085087544e+01    0.1855826    0.1688998 -80.35 0.0007332067    1.246    0.197
        48  -9.2457    228.3898    219.7294   8.5712534526e+01  -5.3694424095e+00    0.1123247   0.09521241  51.25 0.0006989327    1.717    0.418
        49 -11.6122     90.5225    215.7332   1.1269009608e+02   1.7969151044e+01    0.4200236    0.2615965  68.16 0.0006718343    1.668    0.400
        50  -9.7622     38.9343    218.1335   1.2305588262e+02   2.4263084284e+01    0.1522251     0.127922 -56.48 0.0005967827    1.630    0.387
        51  -8.9237     27.7235    218.2683   1.2513844573e+02   2.5472752171e+01     0.113408   0.06275462  66.23            0    1.482    0.325
        52  -9.0595     14.5059    218.5849   1.2753203068e+02   2.6762770856e+01    0.1088071   0.08027532  74.02 0.0002541145    1.035    0.034
        53 -10.0200     72.4719    215.2314   1.1629506394e+02   2.0639205571e+01    0.3425982    0.1671333 -84.77   0.00157311    2.548    0.608
        54 -10.0989     58.2809    215.7916   1.1916195245e+02   2.2398360212e+01    0.1721959    0.1285261  68.97 0.0005389433    1.089    0.082
        55  -9.8096     12.8905    215.0411   1.2762777364e+02   2.7612989672e+01    0.1410957    0.1205761 -63.37  0.000637682    1.598    0.374
        56  -9.5477    144.1956    214.4039   1.0139000297e+02   9.5613438287e+00    0.1912466    0.1083037  48.45 0.0005200039    1.634    0.388
        57 -10.1720    111.9101    213.3203   1.0797588551e+02   1.5140547391e+01    0.1825844    0.1503483  48.26 0.0003236369    1.076    0.071
        58 -10.9311    126.8097    209.9731   1.0438887521e+02   1.3336758962e+01    0.2649625    0.2227131  -0.83 0.0002797136    1.572    0.364
        59  -9.8390    155.6258    209.7329   9.8291764321e+01   8.4149849034e+00     0.170256    0.1300333 -61.97 0.0008298861    1.625    0.385
        60  -9.2444     47.4155    210.4976   1.2084544271e+02   2.4808611008e+01    0.1198118   0.09289924  74.25 0.0008044701    1.019    0.019
        61 -10.9667      8.5139    209.4649   1.2811420960e+02   2.9130426465e+01    0.1902623    0.1523542  88.62 0.0005622545    1.214    0.176
        62  -9.1695    230.6609    209.6606   8.3493515572e+01  -4.3567518493e+00    0.1368853   0.08478989   5.85 0.0007050426    1.764    0.433
        63 -10.8206     66.9554    207.3753   1.1663778815e+02   2.2981152382e+01    0.3153151    0.1899635  46.72  0.001050766    1.470    0.320
        64 -10.2196     18.3612    208.0284   1.2622855389e+02   2.8478108669e+01    0.2809536    0.1285619  72.08  0.001545774    1.986    0.496
        65 -10.2370     57.7971    204.4275   1.1823021138e+02   2.4785328935e+01    0.2994955    0.1219872 -59.53 0.0009859457    2.511    0.602
        66  -9.4761     40.0089    204.9650   1.2185867670e+02   2.6810832611e+01    0.1609071    0.1350907 -53.02 0.0008497001    1.605    0.377
        67  -9.1945      1.4275    204.5066   1.2913763321e+02   3.0757178035e+01    0.1114785   0.07706594  76.62 0.0001044119    1.045    0.043
        68 -10.4732    142.2989    203.1555   1.0006499636e+02   1.1968097673e+01    0.2415419    0.1733543  45.01 0.0002847107    1.248    0.199
        69 -10.4077    121.4532    199.5786   1.0403344422e+02   1.6279504118e+01    0.2871505    0.2265067 -88.04  0.001030091    1.446    0.308
        70 -11.2414     33.3829    199.3597   1.2273674276e+02   2.8717525995e+01    0.2800809    0.1815306  60.83 0.0007043561    1.309    0.236
        71  -9.7166      5.8723    200.0501   1.2809024898e+02   3.1271161431e+01    0.1606457    0.1049474  74.62 0.0003482266    1.160    0.138
        72 -10.6768     62.4615    198.3116   1.1665944792e+02   2.5478091357e+01    0.2048039    0.1808209  68.34 0.0002360434    1.131    0.116
        73 -10.3624     39.4614    198.0022   1.2140373311e+02   2.8334897960e+01    0.3064688    0.1372988  63.83  0.001495223    2.261    0.558
        74  -9.6984     12.6941    197.5142   1.2665585219e+02   3.1176819395e+01    0.1986855     0.107103 -62.01  0.001192225    1.957    0.489
        75  -9.8576    109.2981    196.4315   1.0624934470e+02   1.8953399386e+01    0.4005315    0.2111518  85.35  0.001290825    4.782    0.791
        76 -10.0184     95.8142    194.7397   1.0900072251e+02   2.1466902359e+01    0.1828167    0.1723938  57.74 0.0008409194    1.145    0.127
        77  -9.9841     82.9018    195.0142   1.1188293770e+02   2.3358449533e+01    0.1952654    0.1688928  74.26 0.0003392723    1.017    0.017
        78  -9.5455     63.4808    193.5433   1.1594299162e+02   2.6371459903e+01    0.2123134    0.1716923 -38.68 0.0006579724    1.738    0.425
        79 -10.2326      5.8815    193.0097   1.2769224345e+02   3.2725349317e+01     0.201576    0.1201529  78.03 0.0009834749    1.321    0.243
        80 -10.7820     58.9595    191.1876   1.1667089947e+02   2.7469146841e+01    0.3381692    0.1652509 -70.72   0.00148192    1.938    0.484
        81  -9.0348     52.2869    193.3559   1.1832028597e+02   2.7829316898e+01    0.1160227   0.09048226 -48.04 0.0007023254    1.674    0.403
        82  -9.5590    112.4829    191.0051   1.0474597451e+02   1.9561507894e+01     0.191423    0.1344507 -61.78 0.0004285524    1.508    0.337
        83 -11.1413     91.3291    188.5827   1.0917680813e+02   2.3487048366e+01    0.3583137    0.2260558  56.73 0.0008385103    1.538    0.350
        84  -9.8506     86.5548    186.5297   1.0998286767e+02   2.4662739680e+01    0.1775919    0.1299499  28.20 0.0005942885    1.615    0.381
        85  -9.0603     67.2753    190.6692   1.1480179476e+02   2.6494708869e+01    0.1336834   0.08456774  72.33 0.0003208219    1.595    0.373
        86 -10.4765    105.4959    186.0528   1.0559041257e+02   2.1782108334e+01    0.2519757    0.1913638  45.39 0.0003951663    1.235    0.190
        87 -10.7874    239.8136    185.1486   7.7142177845e+01  -2.3181713384e+00    0.1914297    0.1367915   3.93 0.0006907113    1.349    0.259
        88 -10.3786     44.4734    184.3518   1.1912546361e+02   3.0731857232e+01    0.2580681    0.1476738 -86.00 0.0008024425    1.631    0.387
        89  -9.3881    108.2777    181.6465   1.0427388985e+02   2.2279547882e+01    0.1439971    0.1022909  76.85 0.0004743715    1.649    0.393
        90  -9.9299     55.4876    181.4891   1.1639708554e+02   3.0057471493e+01    0.1287671    0.1074743  81.53 0.0001012862    1.001    0.001
        91  -9.6841     31.8197    180.3701   1.2149937771e+02   3.2997625308e+01    0.1929688    0.1218256 -73.28 0.0006455565    1.387    0.279
        92  -9.2092    222.7067    177.7066   7.8768194801e+01   1.7700263486e+00    0.1392352   0.09721749   3.80 0.0002256944    1.555    0.357
        93 -10.0265     46.5860    177.0683   1.1792490063e+02   3.2123321870e+01    0.2073538    0.1477511  59.65  0.000659638    1.296    0.228
        94 -10.2979     32.3488    175.9279   1.2098621131e+02   3.3936908200e+01    0.1872697    0.1413096  65.93 0.0003545279    1.187    0.157
        95 -10.3898     17.2372    175.6546   1.2423710497e+02   3.5456948032e+01    0.2108809     0.150003 -82.46  0.000592317    1.152    0.132
        96 -10.8638     78.7273    173.9803   1.1009214346e+02   2.8644062741e+01     0.250532    0.2062668  65.17 0.0003308179    1.129    0.114
        97  -9.6196     76.6977    170.6916   1.1011723969e+02   2.9694911979e+01    0.1932424     0.120324 -76.31 0.0003291338    1.629    0.386
        98  -9.4792      5.1999    168.6480   1.2628667029e+02   3.8025246184e+01    0.1216653    0.1110843  21.41 0.0002124428    1.545    0.353
        99 -10.1855     47.6882    166.4384   1.1650371821e+02   3.4439422150e+01    0.2714321    0.1263398  31.02   0.00127083    2.437    0.590
       100  -9.9797     24.8154    162.7989   1.2146673695e+02   3.7664747074e+01    0.1714325    0.1403215 -78.81 0.0003537732    1.126    0.112
       101 -11.0213    248.7927    161.0476   7.0601427795e+01  -1.7866244966e-01    0.2152624    0.1814049  56.82 0.0008305706    1.634    0.388
       102 -10.7617     30.5073    154.5104   1.1929130293e+02   3.9051454347e+01     0.332009    0.1981663  53.15  0.001859296    1.690    0.408
       103 -10.3457     39.3186    160.6508   1.1784023520e+02   3.6718405845e+01     0.268224    0.1944119  76.62  0.001609526    1.270    0.213
       104 -11.1613     35.8148    158.6171   1.1845584414e+02   3.7560445709e+01    0.4375614    0.2172247  53.54  0.002183717    2.068    0.517
       105  -9.2197    140.0069    160.7622   9.2980149862e+01   2.1087306375e+01    0.1917074    0.1226053  41.80 0.0003970817    1.516    0.340
       106  -9.1116     94.2892    159.6946   1.0407376169e+02   2.9583724205e+01    0.1450562    0.1050112  75.85 0.0002376112    1.571    0.363
       107 -11.4262    248.5725    155.2558   6.9398933378e+01   7.5936218054e-01    0.2889437    0.2763689 -31.60  0.001608281    1.293    0.226
       108 -11.6369    248.8943    150.3310   6.8278375462e+01   1.4767385337e+00    0.3341441    0.2532267 -29.69  0.001429722    1.181    0.153
       109 -12.6365    244.6550    149.8470   6.8882698428e+01   2.3110964894e+00    0.3633207    0.2727521 -34.63  0.001985486    1.254    0.203
       110  -9.7993    143.9874    153.3186   9.0473282573e+01   2.1922942778e+01    0.2062835    0.1878015  40.61  0.000302645    1.077    0.071
       111  -9.6062     45.5832    151.5014   1.1520472071e+02   3.8203487381e+01     0.131505    0.1098261 -82.30 5.142649e-05    1.018    0.018
       112  -9.1215     80.5525    150.4510   1.0602818848e+02   3.3918034025e+01     0.140209    0.1286925 -80.16 3.510553e-05    1.029    0.028
       113 -11.0491      5.3816    147.4210   1.2462841818e+02   4.2800571145e+01    0.2848313    0.1654763  70.56            0    1.641    0.390
       114 -13.2443    236.2803    138.1106   6.7687503747e+01   5.7975241393e+00    0.7765118    0.3401034 -40.65  0.003170181    2.152    0.535
       115 -12.8304    247.3511    137.5119   6.5700925518e+01   3.8052657440e+00    0.7109165    0.3648739 -40.70  0.001064822    1.827    0.453
       116 -12.2490    248.1674    129.6697   6.3803137195e+01   4.9236238125e+00    0.7769885    0.3187879  44.34  0.003179424    2.694    0.629
       117 -10.3794     16.4986    141.3328   1.2136035390e+02   4.3379781863e+01    0.3451915     0.124026 -51.14  0.001495492    2.903    0.656
       118  -9.8505     23.8713    143.9457   1.1978594262e+02   4.2150984207e+01    0.1869081    0.1588018 -87.23 0.0006613362    1.070    0.065
       119  -9.7512     21.3934    140.8369   1.2007272024e+02   4.3098018603e+01    0.2046191    0.1024473 -72.92  0.001056566    1.615    0.381
       120  -9.1839     30.6812    147.3234   1.1845238266e+02   4.0731498476e+01    0.1329862   0.08202434  71.70 0.0007044625    1.672    0.402
       121 -10.1679      2.0650    139.9552   1.2479077098e+02   4.4743747585e+01    0.1759547    0.1371329 -86.22 0.0007347208    1.032    0.031
       122 -10.0984     49.9815    136.4839   1.1195251926e+02   4.1335718215e+01    0.2136168     0.159326 -67.67 0.0005895206    1.162    0.139
       123  -9.7544     34.6452    136.8145   1.1613848300e+02   4.2866215995e+01    0.1862864    0.1050336 -80.09 0.0006077173    1.635    0.388
       124  -9.8580     42.0079    132.9921   1.1361572376e+02   4.3053157241e+01    0.2797001    0.1215344 -36.48 0.0005061359    4.234    0.764
       125 -12.1771     28.4283    131.8663   1.1716369471e+02   4.4631870587e+01     0.278079    0.2257842  78.94  0.001775354    1.196    0.164
       126  -9.9741      7.7895    133.2383   1.2274913448e+02   4.5919250091e+01    0.1682729    0.1167614 -57.57 0.0009615311    1.374    0.272
       127  -9.2406    217.8065    131.9113   6.9539328366e+01   1.0578140570e+01    0.1971234    0.1090604 -34.35 0.0004585474    1.706    0.414
       128 -11.4530     12.8790    131.0382   1.2120575044e+02   4.6078146355e+01    0.1887542    0.1581865 -83.12            0    1.075    0.070
       129 -10.0190     33.9577    129.0539   1.1527316021e+02   4.4804925903e+01    0.2052907    0.1336204 -44.17 0.0008352133    1.668    0.400
       130 -11.1701    247.5158    122.9848   6.2382922054e+01   6.1354039186e+00    0.2599535    0.2380043 -55.75   0.00102104    1.255    0.203
       131 -11.0214    243.2399    124.4060   6.3387355859e+01   6.7295916201e+00    0.3119228    0.1432462  52.97   0.00128905    2.572    0.611
       132 -13.0347    238.7954    121.4580   6.3421611257e+01   8.0968149637e+00    0.7351639    0.4226004 -22.73  0.003264449    1.881    0.468
       133  -9.7544     30.0167    125.3374   1.1585217029e+02   4.6062840635e+01    0.1660455    0.1469749 -77.88 0.0002702648    1.084    0.078
       134 -11.5870    229.3594    123.3039   6.5434591311e+01   9.6963688854e+00    0.3567158    0.2510898 -71.36  0.001591704    2.272    0.560
       135  -9.5490      2.5989    122.7942   1.2305797672e+02   4.8690367640e+01    0.1599324   0.09168296 -84.39 0.0003779976    1.444    0.307
       136  -9.5351      7.0100    123.0000   1.2189808380e+02   4.8369704388e+01    0.1602346   0.07069065  20.47 0.0007983549    2.914    0.657
       137 -10.1260     32.7591    121.0194   1.1444921728e+02   4.6859302356e+01    0.1823968    0.1445957 -72.50 0.0004229099    1.049    0.047
       138 -11.0945     22.1660    120.5569   1.1741221696e+02   4.7870012376e+01     0.424665     0.189864 -42.90  0.001667927    2.578    0.612
       139 -11.3602     20.0049    118.0000   1.1768521074e+02   4.8648671600e+01     0.357844    0.1894556  24.44  0.001904223    2.314    0.568
       140 -11.0241    223.3854    117.4015   6.5052020323e+01   1.1972928650e+01    0.5227779    0.2382799 -33.82  0.001403357    2.074    0.518
       141 -10.0317    206.0775    119.1163   6.8635238145e+01   1.5430261154e+01    0.2398061    0.1840822 -67.11 0.0007312532    1.689    0.408
       142 -10.7455     54.8267    117.9978   1.0744441642e+02   4.5290068401e+01    0.2422944    0.1972145  34.30 0.0005560565    1.396    0.284
       143 -10.6175     10.1600    117.2677   1.2038219588e+02   4.9515897347e+01    0.2207646    0.1306123 -63.57  0.000815713    1.338    0.253
       144 -11.0259    232.7833    117.0660   6.3373205593e+01   1.0059990365e+01    0.2951243    0.2046727  42.11 0.0009050096    1.571    0.363
       145 -10.7659      2.9892    115.9842   1.2223479158e+02   5.0257179067e+01    0.3022864    0.2071319   6.29  0.001588006    2.022    0.505
       146 -10.7038      4.0021    111.5515   1.2145067272e+02   5.1235333622e+01    0.2318161    0.1366608 -73.27 0.0005670743    1.301    0.232
       147 -10.5264    249.7591    115.0264   6.0210381633e+01   6.9953675329e+00    0.2329154    0.2037043  44.14  0.000807678    1.298    0.230
       148 -12.1342    243.6861    110.1977   6.0010094839e+01   8.9845721634e+00    0.6495783    0.2971784 -23.88 0.0007846433    2.738    0.635
       149 -11.2437     61.3467    113.0996   1.0450958228e+02   4.5683244893e+01    0.3459752    0.2322885 -42.43  0.001119029    1.497    0.332
       150 -10.3738     31.9566    111.2715   1.1316331802e+02   4.9285283489e+01    0.2279807    0.1596763  86.91 0.0007151169    1.531    0.347
       151 -10.3761     14.0550    113.2613   1.1877146177e+02   5.0204408506e+01    0.2702427    0.1417297  -9.28  0.001277246    3.258    0.693
       152 -11.4262    232.8041    110.9136   6.1897159108e+01   1.1101689562e+01    0.3005126    0.2439662 -70.85  0.000861703    1.541    0.351
       153 -11.0966     19.5783    110.0712   1.1670743118e+02   5.0572525114e+01    0.3462187    0.2007643 -47.26  0.001909322    1.648    0.393
       154  -9.6997     33.9626    114.4874   1.1308132347e+02   4.8329077304e+01    0.1780166    0.1538188 -72.66 0.0003439682    1.048    0.045
       155 -10.5630    250.0479    107.5801   5.8447653273e+01   8.1416629966e+00    0.2701275    0.1868484 -31.68 0.0006156728    1.276    0.216
       156 -10.0734     37.4603    107.1936   1.1077041894e+02   4.9764107161e+01    0.2737014   0.09813353 -58.96  0.001137378    2.167    0.539
       157  -9.1877      8.2870    106.6632   1.1960362188e+02   5.2130715823e+01    0.1218345   0.08013527  77.51 0.0006586324    1.632    0.387
       158 -10.3980     48.0212    103.8383   1.0678838454e+02   4.9497509962e+01    0.2384863    0.1685125 -59.76 0.0003712685    1.208    0.172
       159  -9.9230     29.1473    103.4984   1.1272976478e+02   5.1392202546e+01    0.2845207    0.1195601 -52.06  0.001306656    1.967    0.492
       160  -9.7136    174.8809    102.8914   7.0764701186e+01   2.5744475840e+01    0.2222236     0.203755   2.00  0.001119614    1.152    0.132
       161 -12.5278    245.2936     98.1231   5.6926995808e+01   1.0625270322e+01    0.5950252    0.5134563 -55.27  0.002177997    1.188    0.158
       162 -10.9994    231.0833    101.9194   5.9994801670e+01   1.2988392980e+01    0.5013063    0.2076643  57.18  0.001296619    2.825    0.646
       163  -9.6174    103.1729    100.7845   8.8732691624e+01   4.2018450371e+01    0.2025887    0.1717873 -17.21 0.0002423542    1.294    0.227
       164  -9.4531    162.1795     99.7786   7.2753354561e+01   2.9385102887e+01    0.2055618    0.1808125   3.69 0.0002678721    1.255    0.203
       165  -9.7856     23.2903    100.0583   1.1400291271e+02   5.2677727849e+01    0.1781963     0.133928 -66.55  0.000274552    1.082    0.076
       166 -10.5878      8.9005     99.2296   1.1840829532e+02   5.3837062039e+01    0.2340275    0.1791115  73.14 0.0006415813    1.446    0.308
       167 -10.7295      3.7048     97.9643   1.1984398118e+02   5.4420536250e+01    0.2301655     0.169566 -60.85 0.0006681942    1.109    0.098
       168  -9.0396    110.3358     99.3102   8.6212636861e+01   4.0972137876e+01    0.1587463    0.1214858  -6.66  0.000696253    1.681    0.405
       169 -10.0923     50.8378     99.1493   1.0489068442e+02   5.0308275536e+01    0.1875887    0.1409836 -39.91  0.001035987    1.294    0.227
       170 -10.9699     42.0529     98.9251   1.0772048627e+02   5.1299145051e+01    0.2171943    0.2114054 -19.89 0.0003609654    1.180    0.153
       171 -10.2542     46.1963     94.0015   1.0530154126e+02   5.2039606520e+01    0.2059247    0.1936041   7.40 0.0002514697    1.225    0.184
       172 -10.9258     29.1851     92.8072   1.1077106071e+02   5.3926176438e+01    0.2741743    0.1996745  45.80  0.001094333    1.660    0.398
       173  -9.6890      1.5146     93.0680   1.1986530095e+02   5.5664716486e+01    0.1851738   0.09293837 -71.04 0.0005013309    1.525    0.344
       174 -10.6028    105.3548     90.9555   8.5298950804e+01   4.3801258918e+01    0.3117338     0.220429  38.94   0.00145417    1.475    0.322
       175  -9.5471    250.5109     89.9602   5.4280019564e+01   1.0856241831e+01    0.2155897    0.1210293 -35.56 0.0005749522    1.550    0.355
       176  -9.2856    157.6406     90.1695   7.1063179974e+01   3.2375040259e+01    0.2153436    0.1491455 -28.00 0.0003475911    1.548    0.354
       177 -10.3662      7.2197     89.5118   1.1750538148e+02   5.6191578705e+01    0.2310817    0.1642656  78.30 0.0005021807    1.598    0.374
       178 -11.0617     21.3029     87.6869   1.1246502004e+02   5.5731243959e+01    0.2015215    0.1712351 -53.78 0.0002880043    1.079    0.073
       179 -10.9867     27.4662     87.1333   1.1023776931e+02   5.5393909454e+01    0.2725161    0.2563333  -5.61 0.0008473739    1.255    0.203
       180 -10.5518     30.9281     84.2402   1.0842607289e+02   5.5780799789e+01    0.2513858    0.1860662 -24.87 0.0006008765    1.472    0.321
       181  -9.5058    123.5020     86.9992   7.8850099646e+01   4.0900973288e+01    0.2236675    0.1345808 -63.21 0.0008103207    2.523    0.604
       182  -9.5953      2.3803     86.8038   1.1868856830e+02   5.7062770749e+01    0.1741555   0.08081472 -61.36 0.0004197035    1.559    0.358
       183 -10.4977    193.9478     84.2092   6.1783457546e+01   2.4614277359e+01    0.2435002    0.2129213 -37.63 0.0003194376    1.107    0.097
       184 -10.0664    155.0974     85.0213   7.0142668930e+01   3.3986014356e+01    0.2302353    0.2276141  23.55  0.000391161    1.016    0.015
       185 -11.1849     50.2264     83.2923   1.0137296065e+02   5.4090397372e+01    0.4411803    0.2667576  -1.80  0.001324747    2.451    0.592
       186 -10.9433    222.8174     87.2882   5.7666344667e+01   1.7271466755e+01    0.3198348    0.2255326 -34.05  0.000399405    1.326    0.246
       187 -10.5241    148.0430     82.9204   7.1197542882e+01   3.6087890619e+01    0.2299697    0.2223317  -0.53  0.000299461    1.032    0.031
       188  -9.6140     60.4858     83.0114   9.7690991636e+01   5.2905269559e+01    0.2061829    0.1222162 -50.90 0.0003867248    1.474    0.322
       189 -10.0776     73.5588     80.2354   9.2375928194e+01   5.1687034832e+01    0.4231188    0.1682722 -41.25  0.001574539    2.462    0.594
       190 -10.4823    235.5128     92.5162   5.7019163123e+01   1.3596658645e+01    0.3598791    0.2306339  82.36  0.001578771    2.370    0.578
       191  -9.9540     20.3161     81.6474   1.1164091499e+02   5.7196824777e+01    0.1233454   0.08960148  78.73 0.0007046559    1.737    0.424
       192 -10.1385     44.6854     80.0583   1.0253336444e+02   5.5435897549e+01    0.2369368    0.1768617  45.73 0.0007947518    1.651    0.394
       193  -9.5134      2.7688     80.5907   1.1759171825e+02   5.8461388404e+01    0.1356753    0.1085502  41.52 0.0002876652    1.591    0.371
       194 -10.3472    249.4590     79.2256   5.1905619870e+01   1.2742246022e+01    0.2285167    0.1952729  68.59 0.0007288856    1.316    0.240
       195  -9.6630     64.5936     75.8034   9.4204593825e+01   5.3961404887e+01    0.2088051     0.126465 -50.46 0.0002943322    1.496    0.331
       196  -9.8162     61.2860     74.9724   9.5145016465e+01   5.4593088231e+01    0.2260104    0.1935276  42.46 0.0002105806    1.375    0.273
       197 -11.3530     52.9010     75.1518   9.8240720505e+01   5.5614226039e+01     0.227864    0.1865939 -33.30            0    1.109    0.098
       198 -11.2869     17.5842     73.8253   1.1102516631e+02   5.9161045670e+01    0.3257544    0.2272777 -26.37 0.0008714952    1.514    0.339
       199 -10.4992    176.2627     75.3223   6.2675259429e+01   3.0540707845e+01    0.4125009    0.1835295  58.87  0.001463677    2.404    0.584
       200  -9.6818    216.7510     73.6414   5.5109436924e+01   2.0910304805e+01    0.2777218     0.152788 -49.65  0.001174162    1.858    0.462
       201 -10.2497    169.5183     72.9632   6.3353876986e+01   3.2638737836e+01    0.5126262    0.2218959  61.81  0.001722328    2.740    0.635
       202  -9.1403     68.7151     73.6734   9.2099870240e+01   5.3837596616e+01     0.145503    0.0999455 -22.93 0.0007006496    1.606    0.377
       203 -11.8127    222.4916     71.1351   5.3609060703e+01   1.9964431618e+01    0.3559617    0.2963416 -83.80 0.0005364283    1.299    0.230
       204 -11.2740    199.8422     71.5568   5.7269054307e+01   2.5320481086e+01    0.2612722    0.2414842 -44.43 0.0002712234    1.044    0.042
       205  -9.2902     89.1452     71.8632   8.4512083323e+01   5.0892505110e+01    0.1977515    0.1605198 -16.09 0.0002834512    1.262    0.208
       206 -11.7909     79.8029     69.8559   8.7011284065e+01   5.2916032917e+01    0.2412648    0.2217114  -8.83 0.0002937304    1.056    0.053
       207 -10.8259     52.9106     69.4765   9.6603146200e+01   5.6855481847e+01    0.2443971    0.1898886 -49.08 0.0004409812    1.164    0.141
       208  -9.3184     63.9617     69.2520   9.2444785885e+01   5.5461406715e+01    0.1616268    0.1186466  29.54 0.0004132574    1.486    0.327
       209 -10.6241     45.4227     68.7465   9.9220580064e+01   5.7876068704e+01    0.2981005    0.1639398 -32.14 0.0007070385    1.901    0.474
       210 -10.0889     13.9276     64.8666   1.1045423828e+02   6.1384390029e+01     0.499644    0.2711543  60.07  0.002027943    3.490    0.713
       211 -10.2210      1.3109     69.2934   1.1617258565e+02   6.1063947345e+01    0.2262657    0.1193648 -47.83 0.0006603234    1.500    0.333
       212 -12.0014      6.0152     59.0495   1.1228820480e+02   6.3087532658e+01    0.4270849    0.3557967 -69.59  0.001231829    1.236    0.191
       213 -10.7513      1.2475     65.6204   1.1551077429e+02   6.1877638925e+01    0.1870453     0.134331 -82.55   0.00121088    1.453    0.312
       214 -11.2681      1.5013     62.0477   1.1471280930e+02   6.2648174769e+01    0.2705675    0.1561145 -59.96 0.0003992744    1.286    0.222
       215 -11.9805    245.5005     64.8237   4.9006530627e+01   1.5757191947e+01    0.4648055    0.2408328 -41.51  0.001086982    1.669    0.401
       216  -9.7558    105.5839     66.7449   7.7574542535e+01   4.8743749899e+01    0.2850734    0.1681106  34.08  0.001040081    1.831    0.454
       217 -10.3500    230.7380     70.8028   5.2359834442e+01   1.8122741159e+01    0.2629485     0.243663  27.84 0.0008363568    1.251    0.200
       218  -9.6002     75.2961     66.0456   8.7332417086e+01   5.4430100463e+01    0.1944899    0.1638135 -32.95 0.0002600946    1.074    0.069
       219  -9.3711    240.5194     65.5127   4.9782782546e+01   1.6741528520e+01    0.1381255    0.1238581 -48.57 0.0001256434    1.025    0.025
       220  -9.5657     52.1462     65.0960   9.5568893970e+01   5.7885087550e+01    0.1653266    0.1563731 -70.44 0.0003161181    1.290    0.225
       221 -11.2709     32.2470     64.6268   1.0317975350e+02   6.0073225157e+01     0.274362    0.2215421   5.50  0.001744653    1.390    0.281
       222 -10.4885     21.8312     64.0361   1.0714391904e+02   6.1040247589e+01    0.2506596    0.1262064 -44.52 0.0007445093    1.604    0.376
       223 -10.3258    133.7208     63.5669   6.8627009192e+01   4.3075395740e+01    0.3589519    0.2609586  77.32  0.001100766    1.880    0.468
       224 -11.1384    193.2995     62.6330   5.5895997489e+01   2.8376893564e+01    0.2770707    0.2611759   4.36 0.0003783766    1.170    0.145
       225  -9.2039    202.9744     62.7899   5.4362925598e+01   2.5950778048e+01     0.191347    0.1177517  61.04 0.0004703413    1.654    0.396
       226 -10.0201     71.2831     60.4296   8.6872957193e+01   5.6190230346e+01    0.3527013    0.2259042  53.57  0.001528507    2.231    0.552
       227 -10.0309     16.3257     60.1195   1.0837450492e+02   6.2267407951e+01    0.2108503    0.1466007 -72.85 0.0007306607    1.536    0.349
       228  -9.8999    150.0606     59.8048   6.3476712931e+01   3.9740219552e+01    0.2346076     0.206252 -78.62 0.0006592311    1.300    0.231
       229 -10.2741     58.9843     59.4988   9.1149743096e+01   5.8166470627e+01    0.2812033    0.1755966 -25.75 0.0008076799    1.679    0.404
       230 -10.9431     31.4610     58.4631   1.0176246688e+02   6.1462284645e+01    0.2423891    0.1966445 -64.91 5.661453e-05    1.358    0.264
       231  -9.3442    238.9758     59.3125   4.8480720173e+01   1.7998912418e+01    0.2170698    0.1065849 -87.53 0.0007045756    4.259    0.765
       232 -11.1812     23.8845     57.0900   1.0448613427e+02   6.2380805887e+01    0.4312886    0.2377317 -40.02  0.002374061    1.515    0.340
       233  -9.7025    200.0118     58.0092   5.3519140063e+01   2.7418353554e+01    0.2320455    0.1789823  17.51  0.001117939    1.704    0.413
       234  -9.6934    187.1686     57.7103   5.5535829911e+01   3.0685557910e+01    0.2326224    0.1832657  89.02 0.0005628598    1.410    0.291
       235  -9.8778    219.0621     56.5566   5.0351737559e+01   2.2995811692e+01    0.2104028    0.1820156 -43.68 0.0003510783    1.095    0.087
       236 -10.1713    168.3833     57.2347   5.8826161201e+01   3.5534008299e+01    0.2690776    0.1918385  88.73 0.0009647945    1.794    0.443
       237 -10.2153    126.3958     56.8766   6.8258538535e+01   4.5943930218e+01    0.2315247    0.2054973  61.07 0.0004332412    1.217    0.178
       238  -9.0542     39.6388     57.3120   9.8083411819e+01   6.0918948803e+01    0.1199387    0.1015334  77.55 0.0004059232    1.749    0.428
       239  -9.5622    244.2905     55.0361   4.6836776489e+01   1.7441071615e+01    0.1889708    0.1524254 -40.94  0.000407329    1.131    0.116
       240 -11.1094    224.2680     54.1432   4.9045876627e+01   2.2117586303e+01    0.4341863    0.2716586 -76.38  0.001978758    2.006    0.501
       241 -10.4505    145.1741     54.2591   6.2771144751e+01   4.1849028072e+01    0.3059593    0.2048577 -26.40   0.00138348    1.581    0.367
       242  -9.9939    118.9997     54.9487   6.9575905066e+01   4.7964983442e+01    0.2365173    0.1732073  11.23 0.0003280558    1.635    0.388
       243  -9.9879    122.4629     52.3042   6.7703476726e+01   4.7611057820e+01    0.2945765    0.1347462  46.93 0.0008239289    2.105    0.525
       244 -11.3158     93.1789     54.4693   7.7161872871e+01   5.3483402311e+01     0.259133    0.2168724 -17.55 0.0002695647    1.132    0.117
       245 -10.7327     30.0145     53.3731   1.0084676878e+02   6.2652834250e+01     0.345186    0.2306837  19.77  0.001544296    1.701    0.412
       246  -9.2219    192.2989     53.3314   5.3435588046e+01   3.0051635765e+01    0.1486721    0.1143283  23.42 0.0005075741    1.645    0.392
       247  -9.2914     52.6655     53.6938   9.1639748366e+01   6.0154903663e+01    0.1397596   0.09098093 -18.24 0.0006958333    1.668    0.401
       248 -10.5196    200.0738     51.3866   5.1685935715e+01   2.8387563132e+01    0.3187176    0.2320456   2.35 0.0008881259    1.920    0.479
       249  -8.9994     75.6520     52.6734   8.2521022544e+01   5.6968728801e+01    0.1486162    0.1014751  -4.89 0.0007049517    1.753    0.430
       250  -9.6855     60.7356     51.9430   8.7844068105e+01   5.9409835457e+01    0.1837017    0.1571848 -26.59 0.0004346633    1.050    0.048
       251 -10.7631     42.0167     51.5585   9.5242170459e+01   6.1837383629e+01    0.3397887    0.1646395 -41.36 0.0009586522    1.736    0.424
       252 -12.2400    234.8065     49.9807   4.6720125956e+01   2.0274148641e+01    0.2835824    0.2494664 -29.60 0.0003296819    1.210    0.174
       253  -9.9413    236.2736     45.6898   4.5515597664e+01   2.0536095682e+01    0.2011556    0.1539258 -83.48  0.000268465    1.333    0.250
       254 -11.6025      6.4094     49.9233   1.0996112530e+02   6.5006659762e+01    0.4552618    0.2747666  14.75  0.002826195    1.988    0.497
       255 -11.8381     12.3918     43.9154   1.0568570234e+02   6.5904791723e+01    0.4187563    0.1886027 -44.90 0.0004087604    1.652    0.395
       256 -12.2557     14.2272     39.8279   1.0360059830e+02   6.6603666326e+01    0.6241265    0.3562713 -63.41  0.002689002    1.860    0.462
       257  -9.6616     89.3716     50.0184   7.6766307589e+01   5.4994675819e+01     0.198168    0.1724055 -22.11 0.0003608576    1.090    0.082
       258 -10.4158     65.8835     49.1605   8.4839626250e+01   5.9174524115e+01    0.3612094     0.186222 -30.02  0.001610267    2.000    0.500
       259 -10.0585     67.8622     44.4796   8.2300028373e+01   5.9709218221e+01    0.2274585    0.2007886  20.17 0.0005975792    1.190    0.160
       260 -10.1939    221.0934     48.4178   4.7999187742e+01   2.3684880898e+01    0.2286441    0.1804102 -41.68 0.0003280893    1.194    0.162
       261  -9.3056    181.3082     49.6717   5.4194201491e+01   3.3380077450e+01    0.1560992    0.1100641 -66.32 0.0003578957    1.659    0.397
       262  -9.0263    152.4899     48.5252   5.9285773713e+01   4.0899716137e+01    0.1500938    0.1427412  39.16 -2.52733e-05    1.029    0.028
       263  -9.5039     31.9199     47.7411   9.8244561539e+01   6.3622321803e+01    0.1617552    0.1399341 -11.87  0.001023203    1.167    0.143
       264 -10.8982     17.3088     47.1226   1.0444004682e+02   6.4931981156e+01    0.2464572    0.1914957 -36.02 0.0007272148    1.055    0.052
       265 -10.3390    242.0213     43.5182   4.4373855479e+01   1.9540639785e+01    0.2817329    0.1824886 -74.31  0.001062484    1.684    0.406
       266  -9.4876    114.5276     46.8563   6.7901549669e+01   5.0285868533e+01    0.2063172    0.1422864 -27.68 0.0003564309    1.467    0.318
       267  -9.6275     46.8001     47.2378   9.1747551939e+01   6.2134211297e+01    0.1822213    0.1243498 -26.71 0.0005488555    1.323    0.244
       268  -9.7549     39.1437     46.9110   9.4858445886e+01   6.3063914410e+01    0.1780559    0.1646068 -40.72 0.0004996049    1.262    0.207
       269  -9.5033    231.1999     46.2050   4.6219366167e+01   2.1625743543e+01    0.2313177   0.07892676 -40.94 0.0008743763    2.507    0.601
       270 -12.0586     61.9341     44.2686   8.4505651059e+01   6.0655001898e+01    0.3211232    0.2247457 -37.79 0.0004388886    1.320    0.242
       271  -9.3268    192.7448     45.0367   5.1019834177e+01   3.1134121738e+01      0.17896    0.1224162 -34.42 0.0004923642    1.463    0.316
       272  -9.5408    166.7511     44.9919   5.5352569863e+01   3.7780999059e+01    0.3358977    0.1518591  40.53   0.00118579    2.732    0.634
       273 -10.3892    124.2056     45.0594   6.4663732467e+01   4.8339607408e+01    0.3702544    0.2045005  50.75  0.001597397    1.732    0.422
       274  -9.3865     42.5366     44.4824   9.2544869678e+01   6.3157597834e+01    0.1288962    0.1071555 -27.52 5.786928e-05    1.046    0.044
       275  -9.5559     27.0319     44.0257   9.9152734151e+01   6.4797936903e+01    0.1539479     0.121165 -33.05  0.001002603    1.010    0.010
       276  -9.4326    143.7198     43.3457   5.9439983046e+01   4.3856095481e+01     0.150074    0.1136554 -64.24 0.0007011027    1.637    0.389
       277 -10.2536    238.0370     40.6939   4.4128986675e+01   2.0812591251e+01    0.3622089    0.1367299 -42.88   0.00149698    2.274    0.560
       278 -10.5018    241.1066     46.8719   4.5263086106e+01   1.9287292901e+01    0.2261387    0.2018246 -47.32  0.000449884    1.089    0.082
       279  -9.5801     91.3778     40.8095   7.2555573141e+01   5.6124424515e+01    0.1946249    0.1256558 -20.40 0.0006224152    1.606    0.378
       280 -10.6728     40.4305     37.8337   9.0960433544e+01   6.4631648406e+01    0.6263868    0.3358227 -22.87  0.001993688    2.044    0.511
       281 -10.6640    227.9991     38.7803   4.4761477116e+01   2.3372340820e+01    0.3673831    0.3059357 -34.12  0.001066549    1.231    0.188
       282 -10.0439    158.7814     39.1801   5.5000100022e+01   4.0625852624e+01    0.3141915    0.1861081 -42.96  0.001267989    1.780    0.438
       283 -10.6625    127.4314     39.7550   6.1945885825e+01   4.8348566560e+01    0.2770268    0.2482155  60.60 0.0009946662    1.165    0.142
       284  -9.8748     20.9398     40.3911   1.0069017869e+02   6.6010271947e+01     0.256799    0.1101002   6.91  0.001139566    3.308    0.698
       285 -10.1765      4.8409     31.9375   1.0555819948e+02   6.8703782512e+01    0.2602771    0.1516233 -39.18   0.00105754    1.288    0.224
       286 -11.0623      6.2666     38.8572   1.0700413618e+02   6.7272825243e+01    0.3088839    0.2101611 -17.19   0.00205928    1.457    0.314
       287 -10.7719      3.4701     36.5154   1.0762778099e+02   6.7881608459e+01    0.2117529    0.1775929 -48.20 0.0009520608    1.184    0.156
       288 -10.0521    250.6293     38.8425   4.2426373642e+01   1.8277682931e+01    0.1979551   0.09637766 -43.78 0.0009475979    1.739    0.425
       289  -9.4202    234.1479     39.1632   4.4179082923e+01   2.1900122341e+01    0.1905275    0.1398139 -65.28 0.0005741135    1.300    0.231
       290  -9.6818    222.9527     39.4915   4.5515403530e+01   2.4465086495e+01    0.1985157    0.1308362  70.27 0.0005608028    1.525    0.344
       291 -11.8304    103.6534     38.7547   6.7953062064e+01   5.3904915615e+01    0.2470213    0.2227821  20.14 0.0003007427    1.027    0.027
       292  -9.5568    194.2261     38.4476   4.8948374690e+01   3.1656790012e+01    0.1914016    0.1337704  83.53 0.0003432141    1.512    0.339
       293 -11.0147    191.8801     28.3888   4.6453750826e+01   3.3528514130e+01    0.4427537    0.2038364  62.35 0.0009543583    2.002    0.500
       294 -10.0991    186.1488     36.1415   4.9470768405e+01   3.4010172919e+01    0.2831362    0.2007854 -32.54 0.0007785045    1.449    0.310
       295  -9.6352    187.2509     32.2774   4.8197721455e+01   3.4223315295e+01    0.3552831    0.1740421 -42.89   0.00129451    2.034    0.508
       296  -9.6079     85.9895     36.9850   7.2803370098e+01   5.7762655597e+01    0.2066551    0.1481933   7.39  0.001063164    1.494    0.331
       297 -10.9797    175.4790     35.1161   5.0820187145e+01   3.6875441942e+01    0.4591728    0.2784218 -44.89  0.002112922    1.704    0.413
       298 -10.6850    135.0695     36.1414   5.8865434598e+01   4.6993379686e+01    0.5137548    0.1817036  54.32  0.001221355    2.533    0.605
       299 -11.2497    201.8322     33.8981   4.6658871797e+01   3.0340037083e+01     0.335275    0.2868583  23.47 0.0005205176    1.436    0.304
       300 -10.4952     56.0079     33.7791   8.2661185732e+01   6.3323745490e+01    0.3617155    0.2682743  62.22  0.001880981    2.507    0.601
       301  -9.1566    166.5605     34.5897   5.2141524600e+01   3.9235284291e+01    0.1436009     0.134757  70.20 8.516302e-05    1.011    0.011
       302 -12.1787    107.7536     28.9059   6.2927839904e+01   5.4364329914e+01    0.4230587    0.2705382 -22.09  0.002086229    1.620    0.383
       303 -10.1389    153.1885     32.2615   5.3802224634e+01   4.2954412624e+01    0.2978436    0.1946801 -41.43  0.001413867    1.622    0.383
       304  -9.9807     75.2731     32.9424   7.4860531505e+01   6.0352517767e+01    0.2496238     0.165552 -14.60 0.0008709021    1.536    0.349
       305 -10.5129     94.7590     49.4977   7.4807540470e+01   5.4039292590e+01    0.4295709    0.2027034  34.68  0.001480505    2.353    0.575
       306 -11.7868    221.3627     29.5504   4.3207205337e+01   2.6123652913e+01    0.3337335    0.2382442 -41.02 0.0003693097    1.326    0.246
       307 -11.3216    145.1661     29.3649   5.4379314886e+01   4.5344927607e+01    0.4324646    0.3359319  53.99  0.002279535    1.190    0.160
       308  -9.6699     31.7203     28.0493   9.1011211939e+01   6.7309349387e+01    0.3489507    0.2083037 -21.01  0.001980127    1.583    0.368
       309 -10.6406     24.8625     31.0120   9.5472634562e+01   6.7449573750e+01     0.404077    0.2463375  25.42  0.002428059    1.840    0.457
       310 -10.3731     19.2289     29.0251   9.7442768950e+01   6.8288417606e+01     0.202722    0.1659813 -40.33 0.0004310326    1.224    0.183
       311  -9.6811    158.8683     29.8392   5.1975490931e+01   4.1803748733e+01    0.1912834    0.1625083 -64.70  0.000298566    1.276    0.216
       312 -10.1494     72.1024     29.3331   7.4475858379e+01   6.1447090064e+01    0.2332832    0.1645037 -14.04 0.0008023193    1.355    0.262
       313  -9.7046    211.8437     28.1353   4.3910230857e+01   2.8592356993e+01    0.1959522    0.1734397  54.04 0.0002910648    1.247    0.198
       314 -10.9582    207.8038     27.0601   4.4098825793e+01   2.9712914459e+01    0.3506298    0.2285379  84.79 0.0005179017    1.563    0.360
       315  -9.7342    181.7185     27.3832   4.7575326340e+01   3.6236000337e+01    0.2348052    0.1738355   7.34  0.001165861    1.787    0.440
       316  -9.3766     55.5430     29.4392   8.1000323816e+01   6.4091188614e+01     0.131179    0.1063873  -7.78  6.43093e-05    1.026    0.025
       317 -11.0669     48.8637     26.5484   8.2563543982e+01   6.5491665556e+01    0.3648281    0.2965083  69.01  0.001847823    2.441    0.590
       318 -10.1145     36.8855     27.3593   8.8298193658e+01   6.6862815892e+01    0.3009095    0.1582783  -4.21  0.001244095    2.793    0.642
       319  -9.7688    134.5072     26.8279   5.5679726321e+01   4.8307788949e+01    0.2579333    0.1450006 -17.70 0.0008862384    2.050    0.512
       320  -9.5406     99.8687     27.0993   6.4418858359e+01   5.6322886297e+01    0.1933665    0.1457454  20.86 0.0002593938    1.294    0.227
       321 -10.1693    165.2538     25.8371   4.9622364770e+01   4.0643502158e+01    0.2582141    0.1910191 -88.63 0.0007632744    1.488    0.328
       322 -11.9038      1.9643     24.3855   1.0448665789e+02   7.0282397365e+01    0.3961813    0.1476753 -57.88  0.001405186    2.350    0.575
       323 -11.0044    164.8135    247.0577   1.0191674404e+02   8.8072160735e-01     0.351439    0.2487731  85.71  0.001901918    2.722    0.633
       324 -10.4792    232.0482     23.5489   4.0662263817e+01   2.4355045061e+01     0.287074    0.2054349 -68.59 0.0009283352    1.303    0.233
       325  -9.8168    211.9366     23.4828   4.2701955806e+01   2.9130473511e+01    0.1978917    0.1726931 -51.35 0.0004218532    1.118    0.106
       326  -9.2780    158.8008     24.5635   5.0288349071e+01   4.2445644429e+01    0.1879719    0.1322205  79.74 0.0002801887    1.500    0.334
       327 -11.2568    153.6661     23.0490   5.0679838183e+01   4.3929404325e+01     0.250424    0.2363136  41.13 0.0003053265    1.068    0.064
       328 -10.0730    152.2503     18.2617   4.9346251368e+01   4.4812166393e+01    0.3037129    0.1458976 -39.41  0.001293023    2.216    0.549
       329  -9.9405     61.3491     24.0371   7.6243484083e+01   6.4014369771e+01    0.2384977    0.1587807   5.77  0.001298963    1.559    0.358
       330 -10.9468     18.5583     23.6408   9.5649765334e+01   6.9302173720e+01    0.2509677    0.1572281 -41.88 0.0005502252    1.314    0.239
       331 -11.0633    195.0006     22.6790   4.4466386725e+01   3.3418394811e+01    0.2431788    0.2142143 -83.82 0.0003136743    1.050    0.048
       332  -9.8114    124.1700     23.2387   5.6642809960e+01   5.1241818973e+01    0.2209381    0.1624532 -85.40  0.001075341    1.890    0.471
       333 -12.4014    116.9179     22.3235   5.7995850961e+01   5.3065422625e+01    0.2664604    0.2373513   1.97 0.0004930015    1.129    0.114
       334 -10.9869    105.2276     21.0196   6.0449854616e+01   5.5888261023e+01    0.3093726    0.2396295 -65.44 0.0003720309    1.871    0.465
       335 -10.1094    109.9106     20.1006   5.8859801448e+01   5.4936458215e+01    0.3086599    0.1698032  21.38  0.000673646    2.344    0.573
       336 -10.6488     26.5563     21.7977   9.0848362792e+01   6.8890090932e+01    0.3092651    0.1712639 -19.13 0.0009051263    1.802    0.445
       337 -10.9826    174.3262     21.2254   4.6818425892e+01   3.8841171265e+01    0.3227236    0.2902574  37.49  0.001879577    1.201    0.167
       338 -10.3235    132.4323     21.6920   5.4272046410e+01   4.9409125055e+01    0.2768154    0.2504643  47.01  0.001196688    1.015    0.015
       339  -9.8352     41.0186     21.5123   8.3794602238e+01   6.7306552455e+01    0.1678887    0.1121752  25.89 0.0003971992    1.518    0.341
       340 -10.2588     36.0983     20.7373   8.5735758005e+01   6.8027167048e+01    0.1943087    0.1445403 -34.62 0.0005229073    1.305    0.234
       341 -10.5640    182.3269     18.7961   4.4996825791e+01   3.7065191833e+01    0.2619724    0.2305846  -0.93  0.001013249    1.347    0.257
       342 -10.1307    138.0109    249.0182   1.0721386692e+02   4.7946420750e+00    0.1887654    0.1278292  63.55 0.0007328704    1.689    0.408
       343 -10.0195    163.0226     15.0069   4.6577552956e+01   4.2401577176e+01    0.2034395    0.1811253  85.98  0.001186996    1.091    0.084
       344  -9.9270    139.4828     19.9336   5.2229854749e+01   4.7854373724e+01    0.2246872    0.1781143  58.44 0.0007237634    1.156    0.135
       345 -10.0573    212.0901     19.1941   4.1589478557e+01   2.9591957205e+01    0.1942592    0.1735621  63.98 0.0006202164    1.195    0.163
       346  -9.0546     93.6936     19.7464   6.3159884912e+01   5.8535911200e+01     0.137604   0.09048118  25.27 0.0002079094    1.511    0.338
       347 -10.6969     14.4387     18.7420   9.5742437046e+01   7.0478129822e+01    0.3230118    0.1582914 -16.29   0.00101494    2.311    0.567
       348  -9.9010    188.5994     17.4746   4.3816702065e+01   3.5617646066e+01    0.2015386    0.1335881 -27.48 0.0005937028    1.629    0.386
       349 -10.0342     38.6644    248.9277   1.2508288594e+02   1.8554486378e+01    0.1671454    0.1272069  49.69  0.001048226    1.313    0.238
       350  -9.8065     45.6448     17.2658   7.9703861497e+01   6.7325443541e+01    0.1682254    0.1509734 -57.01  0.001092709    1.828    0.453
       351  -9.0880    229.6481     16.2398   3.9156239643e+01   2.5764367966e+01    0.1343852   0.08361423 -70.05 0.0002078195    1.576    0.366
       352  -9.3006    112.4596     15.5004   5.6398997177e+01   5.4846776458e+01    0.1391166    0.1204687  32.82 4.661038e-05    1.026    0.025
       353  -9.4405     26.3323    249.6629   1.2715048571e+02   1.9802399272e+01    0.1163341   0.05284254  63.99 0.0007052052    1.739    0.425
       354 -10.3086      4.5240    247.9837   1.3052987555e+02   2.2327407243e+01    0.1417176    0.0769529 -88.10 0.0005076808    1.549    0.355
       355  -9.1467    243.6529     15.6947   3.7835791999e+01   2.2659163393e+01    0.1189306   0.09439402  40.86 0.0004196385    1.697    0.411
       356 -10.4400    180.2259     13.9557   4.3871986281e+01   3.8116330591e+01    0.3432846    0.1654364 -82.70  0.001256416    3.126    0.680
       357 -11.6686     20.6723    245.3586   1.2785551318e+02   2.1161112292e+01    0.2658672    0.1898807 -85.22  0.001652099    1.362    0.266
       358 -10.1701    138.9840     14.0479   5.0261830865e+01   4.8587709084e+01    0.2183755    0.1893964  59.03  0.001266061    1.055    0.052
       359  -9.8126    211.0212    245.6666   9.3143168967e+01  -6.0734361297e+00    0.1684425    0.1223691  25.47 0.0004679153    1.074    0.069
       360  -9.9503     88.9300     13.6428   6.1929108148e+01   6.0214499912e+01    0.1819125    0.1468833  39.01 0.0003380773    1.144    0.126
       361 -10.9677    148.1275    245.2604   1.0484202474e+02   3.7853612058e+00    0.3443921    0.2196847  77.90  0.001704262    2.946    0.661
       362 -10.9052    202.0486    244.3957   9.4587996311e+01  -4.5602237946e+00    0.2279368    0.1681973 -16.65  0.001064184    1.478    0.324
       363 -10.5819     26.7762    245.6233   1.2687114053e+02   2.0463325773e+01    0.1516345   0.06853963  50.08 0.0009103061    1.659    0.397
       364  -9.0624     73.2845    244.2906   1.1874108354e+02   1.5065975725e+01   0.09322935   0.08925892  21.82 0.0005183389    1.534    0.348
       365  -9.4932    219.4793     11.4846   3.8941731563e+01   2.8676050868e+01    0.1330465    0.1112722 -72.87 2.535772e-05    1.043    0.042
       366  -9.2850      1.4825    243.5262   1.3083060320e+02   2.3396528850e+01    0.1018582   0.06992981  71.07 0.0001100859    1.032    0.031
       367  -9.4719     91.7738    242.1877   1.1516324034e+02   1.2875893349e+01    0.1455479    0.1267996  41.05   0.00055432    1.293    0.227
       368  -9.9224     76.1220    241.4081   1.1798552277e+02   1.5194412292e+01    0.2171821     0.125639  80.54 0.0007270582    1.896    0.473
       369 -10.3956    109.7858    239.5805   1.1149878984e+02   1.0676212202e+01    0.2727996    0.1554899 -84.51  0.001384083    2.637    0.621
       370  -9.5885     55.0982    240.8872   1.2173617229e+02   1.8019968467e+01    0.1669637    0.1094142  70.30 0.0004429441    1.258    0.205
       371 -10.2741    148.5007    239.4795   1.0402720873e+02   4.6222319357e+00    0.2015649    0.1250776 -49.51 0.0006545865    1.978    0.495
       372 -11.5393     34.1495    239.0550   1.2526971164e+02   2.0829661010e+01    0.2359003    0.1824193  43.78  0.000323197    1.440    0.306
       373  -9.9540    246.6503    239.3072   8.5824582045e+01  -1.0418946546e+01     0.099379   0.08842549  36.75 0.0007043103    1.707    0.414
       374  -9.7848    168.0192    237.6967   1.0001577653e+02   1.7438046174e+00    0.1801199    0.1379018  35.83 0.0005797292    1.064    0.060
       375 -11.5358    143.3707    237.8640   1.0481083044e+02   5.7035504291e+00    0.4922814    0.1490773  41.64  0.001993446    2.652    0.623
       376 -10.4585    104.2818    237.0559   1.1228304762e+02   1.1943105721e+01    0.1630794    0.1384348  68.32  0.000355541    1.115    0.103
       377  -9.2579      5.4276    237.4934   1.2996406614e+02   2.4096955113e+01    0.1047944   0.07114176  71.63 2.693291e-05    1.013    0.012
       378 -10.2647    133.0864    234.5866   1.0639988659e+02   7.8927605327e+00    0.1828588    0.1593219  76.88  0.001222746    1.269    0.212
       379 -10.2446     18.6660    235.2968   1.2768800225e+02   2.3183097585e+01    0.1646799   0.08608095  89.72 0.0003579387    1.636    0.389
       380 -11.2764     15.5665    234.4734   1.2816537055e+02   2.3650461174e+01    0.2638216    0.1620248 -59.39  0.001783973    2.158    0.537
       381  -9.8919    173.4857    233.4668   9.8346131208e+01   1.4893366238e+00    0.1274789    0.1039818  30.71 0.0003051702    1.008    0.008
       382  -9.5215    230.6704    232.6992   8.7523445602e+01  -7.3764428286e+00    0.1259129   0.07656445   9.78 0.0003235679    1.645    0.392
       383  -9.5996    142.4733    232.4490   1.0427706892e+02   6.7326702400e+00     0.210497     0.137086  45.47 0.0006032345    1.294    0.227
       384 -10.2358    146.3024    231.5777   1.0340401296e+02   6.2509640377e+00    0.2305373    0.1576508  28.43  0.000947538    1.448    0.309
       385 -10.9841     46.5906    230.0316   1.2249031173e+02   2.1064899903e+01    0.3722984    0.1720998  70.55   0.00112223    2.193    0.544
       386 -10.1798     29.5763    230.5789   1.2556058135e+02   2.2904482363e+01    0.1825797    0.1343761  87.79 0.0005721218    1.198    0.166
       387  -9.6254    169.5137    229.5335   9.8536185051e+01   2.7446550264e+00     0.128836    0.1064535  32.06 0.0008095727    1.004    0.004
       388  -9.4635    138.6482    228.2767   1.0447993879e+02   8.0596095274e+00    0.1303228   0.08691376  60.26   0.00034553    1.643    0.391
