#   1 NUMBER                 Running object number                                     
#   2 MAG_AUTO               Kron-like elliptical aperture magnitude                    [mag]
#   3 X_IMAGE                Object position along x                                    [pixel]
#   4 Y_IMAGE                Object position along y                                    [pixel]
#   5 X_WORLD                Barycenter position along world x axis                     [deg]
#   6 Y_WORLD                Barycenter position along world y axis                     [deg]
#   7 A_WORLD                Profile RMS along major axis (world units)                 [deg]
#   8 B_WORLD                Profile RMS along minor axis (world units)                 [deg]
#   9 THETA_WORLD            Position angle (CCW/world-x)                               [deg]
#  10 FWHM_WORLD             FWHM assuming a gaussian core                              [deg]
#  11 ELONGATION             A_IMAGE/B_IMAGE                                           
#  12 ELLIPTICITY            1 - B_IMAGE/A_IMAGE                                       
         1 -14.1128    226.0610      4.9861   3.5860199864e+01   2.8219458334e+01     1.973202     1.092295  53.15  0.007096371    2.099    0.524
         2 -14.1706    182.9370     49.0006   5.2425403007e+01   3.3229444670e+01     2.113582     1.380363  22.13  0.001039999    2.317    0.568
         3 -14.1184    194.1967     39.7404   4.8113190650e+01   3.1716823003e+01     1.354732      1.07311 -38.38  0.003302279    1.251    0.201
         4 -14.5808    202.5642     30.7947   4.4598217520e+01   3.0819521414e+01     1.458034     1.247509  31.60  0.001393402    1.430    0.301
         5 -13.4727     45.5610      4.8739   7.0931516067e+01   6.8785339200e+01     1.299977    0.4237828  31.96  0.005129036    3.647    0.726
         6 -11.7463     65.4012    205.0621   1.1507326373e+02   2.3546662919e+01    0.4534802    0.2213956 -72.69 0.0008049469    2.038    0.509
         7 -13.9996     74.4427    154.9830   1.0652268382e+02   3.3721083574e+01    0.8061129    0.6124694 -46.74  0.001158521    1.431    0.301
         8 -15.8922     68.3780    144.1230   1.0632288248e+02   3.7208371717e+01     6.259364     3.360693  68.78   0.02463862    2.845    0.648
         9 -12.0427     57.4401    208.0608   1.1700041656e+02   2.3948947445e+01     1.102505    0.5122344  64.17  0.005230294    2.329    0.571
        10 -13.6737     51.4695    199.5967   1.1742362928e+02   2.6490991792e+01    0.4344351    0.3921621 -39.62  0.001441535    1.564    0.361
        11 -11.5035     44.7163    197.9446   1.1866928039e+02   2.7656188038e+01    0.4696573    0.3306605  67.17  0.002085915    1.219    0.179
        12 -11.6487    108.2692    210.8996   1.0678596279e+02   1.6068615055e+01    0.4712616    0.2514554  43.53  0.002347017    1.661    0.398
        13 -13.1640    113.6719    207.0751   1.0513120599e+02   1.5966734997e+01     1.095055    0.6360484  64.65  0.005133868    2.128    0.530
        14 -15.4244     11.2801    206.4321   1.2586762763e+02   2.9387987301e+01    0.6604906    0.5452031  34.52  0.003904085    1.597    0.374
        15 -13.0772    109.4328    201.7607   1.0530257420e+02   1.7733202026e+01      0.86773    0.5954159 -13.38  0.002074835    2.932    0.659
        16 -12.4406    111.6185    197.8355   1.0426789815e+02   1.8190442191e+01    0.4006802    0.3750761  61.39  0.001804897    1.065    0.061
        17 -10.6941     35.9669    208.5472   1.2131107144e+02   2.6408654909e+01     0.202429    0.1273306  67.49 0.0007103416    1.339    0.253
        18 -11.2341     27.3493    203.9010   1.2264227880e+02   2.8313305518e+01    0.4860305    0.1357272  50.76  0.002117902    3.061    0.673
        19 -11.8371     34.5361    228.1224   1.2297457639e+02   2.2641407084e+01    0.1993333     0.145232  59.13 0.0003231013    1.147    0.128
        20 -11.9794    193.4789    195.8174   8.6564383244e+01   4.1459791841e+00    0.9717429    0.5532808 -62.39  0.003689773    3.798    0.737
        21 -12.4978    203.7522    197.6766   8.4897271743e+01   2.0415052881e+00    0.5596175    0.3896757  -1.03  0.002943746    1.647    0.393
        22 -11.4906     42.0774    208.3330   1.2009664593e+02   2.5757663693e+01    0.3210551    0.1879847  65.95  0.001247046    1.508    0.337
        23 -17.2244      1.4280     94.7941   1.1806456184e+02   5.5495405740e+01     13.49315          nan -70.73    0.0139386   43.185    0.977
        24  -9.8421     69.6744    198.2474   1.1344341175e+02   2.4429416998e+01    0.3585549     0.184743 -53.72  0.001268589    2.164    0.538
        25 -10.7095    134.1921    196.8707   9.9183433467e+01   1.4555888561e+01     0.271021    0.1929182 -71.30  0.001188574    1.709    0.415
        26 -11.4444    128.3919    195.0371   1.0015841701e+02   1.5936041945e+01    0.3443944    0.2312897 -76.05  0.001595557    1.933    0.483
        27 -10.5938    151.4388    195.4567   9.5216752344e+01   1.1773977416e+01    0.3022439    0.1270505  40.86  0.001214523    2.195    0.544
        28  -9.8237     81.8654    194.7939   1.1039285592e+02   2.3462040558e+01    0.2304344    0.1808776  85.42  0.001366984    1.203    0.169
        29 -12.0900     74.3169    188.9042   1.1133181497e+02   2.5838500513e+01    0.4451291    0.2428683  71.81   0.00151389    2.281    0.562
        30 -10.1614     77.4075    226.5305   1.1480776054e+02   1.7573983010e+01    0.1971171    0.1445677  84.78 0.0005594228    1.301    0.232
        31 -12.2892    110.6079    188.6294   1.0311946629e+02   2.0309480427e+01    0.5479611    0.3564784 -15.99  0.002181767    3.376    0.704
        32 -10.0933    150.5046    187.4893   9.4019505479e+01   1.3507391389e+01    0.1406058    0.1320462  41.56 -0.0001190358    1.014    0.014
        33  -9.6661     94.1864    186.8576   1.0658044235e+02   2.3347470140e+01    0.2038194     0.165153  75.83 0.0005658902    1.192    0.161
        34 -18.3925     12.8056    240.7074   1.2741595978e+02   2.2587042817e+01     11.41133     6.179341 -84.20   0.07838831    1.599    0.375
        35 -11.4162     25.5669    213.2450   1.2363243091e+02   2.6569799671e+01    0.4062697    0.1761368  82.95   0.00205509    2.342    0.573
        36 -11.1883     98.7613    181.3284   1.0471635235e+02   2.3854279409e+01    0.4123755    0.2928029 -28.08  0.002000684    2.123    0.529
        37 -10.4456     39.1170    199.8490   1.1998293005e+02   2.7890661476e+01    0.3472534    0.2289838  65.38  0.000996304    1.304    0.233
        38 -11.1498    150.8367    179.5336   9.2484796634e+01   1.5051083925e+01    0.4491208    0.2896296 -74.05  0.001889051    2.473    0.596
        39 -11.5593    145.0167    180.5544   9.3975102925e+01   1.5929399925e+01    0.3374206     0.309562  50.61  0.001084979    1.058    0.055
        40  -9.8741    188.8416    178.0058   8.4038404786e+01   8.1384649521e+00    0.2929078    0.2067703 -61.80  0.001271813    1.991    0.498
        41 -10.6246    187.9559    173.4398   8.3289974209e+01   9.1501839898e+00    0.3911436    0.2624086 -65.42  0.001709176    2.369    0.578
        42 -11.3119     40.3137    224.2536   1.2165473978e+02   2.2737014269e+01    0.2473123    0.1506199  81.29 0.0006187127    1.435    0.303
        43 -12.2382     74.1582    173.5864   1.0936516484e+02   2.9349158392e+01    0.3908785    0.2833367 -37.81  0.002013706    1.832    0.454
        44 -12.3403     78.1203    168.7449   1.0772393958e+02   2.9912686296e+01    0.3712177    0.2935602 -39.82  0.001063769    1.552    0.356
        45 -11.3817     54.5900    166.1583   1.1305147342e+02   3.3681587925e+01    0.4885679    0.2159114 -50.78  0.002119175    2.482    0.597
        46 -11.1939     52.8396    172.4356   1.1423494002e+02   3.2422817250e+01    0.3125515    0.2166118  73.98  0.000649699    1.387    0.279
        47 -10.7299     50.2404    224.6528   1.1983594159e+02   2.1478666831e+01     0.209187    0.1255245  85.32 0.0008627482    1.557    0.358
        48  -9.5818    195.5047    172.9659   8.1652150400e+01   7.7981880440e+00    0.2200871    0.1368816 -39.07  0.001038037    1.606    0.377
        49 -11.3778    139.5944    171.9151   9.3590005958e+01   1.8763434352e+01    0.4428826    0.2972783  60.60  0.001324815    1.754    0.430
        50 -11.0943     54.8904    222.6415   1.1879302912e+02   2.1301160796e+01      0.26213    0.1342966  54.82  0.001026092    1.660    0.398
        51 -10.8526    131.0507    172.0627   9.5601197221e+01   2.0324289280e+01    0.3881272    0.2081538  33.44  0.001613299    2.041    0.510
        52 -10.1335     61.3061    219.9830   1.1732732180e+02   2.1014905956e+01     0.164414    0.1615531 -51.01 0.0006140837    1.453    0.312
        53 -10.9840     47.7441    172.6703   1.1544545013e+02   3.2976836345e+01     0.382213    0.2196041 -50.71  0.001147183    1.973    0.493
        54 -12.3664     92.6872    152.9370   1.0149274065e+02   3.1435382569e+01    0.7045907      0.54265 -18.87  0.003476964    1.844    0.458
        55 -11.5610    133.8254    145.3335   8.9515107429e+01   2.5767351267e+01     1.272377    0.3351988 -54.59  0.003067628    5.436    0.816
        56 -11.1640     56.1211    217.6564   1.1813153209e+02   2.2143287631e+01    0.3179232    0.1599264  77.36  0.000986113    2.240    0.554
        57 -10.5479     31.9159    195.7928   1.2111036919e+02   2.9556478748e+01    0.3778541    0.1542514  65.02  0.001711222    2.679    0.627
        58 -10.5322    174.4416    149.0150   8.0874920414e+01   1.6629650940e+01    0.3105375    0.2559622  66.86 0.0009693739    1.455    0.313
        59 -10.7198    143.8693    145.7480   8.7157743980e+01   2.3655432219e+01     0.307649    0.2070911 -74.18  0.001251469    2.168    0.539
        60 -11.2101    104.9212    138.8995   9.5538339535e+01   3.2727433066e+01    0.5560258    0.3728071 -25.49  0.002366552    2.154    0.536
        61 -12.4188     92.7498    138.6600   9.8749942252e+01   3.4867717002e+01    0.2815148     0.251551 -49.36 0.0006012526    1.129    0.115
        62  -9.1930     49.0281    216.8997   1.1944310956e+02   2.3172321131e+01    0.3170166    0.2616174 -43.20  0.002133252    1.801    0.445
        63 -10.9893    105.9081    130.7479   9.3495926818e+01   3.4497913827e+01    0.3873591    0.3175256 -66.32  0.001133562    1.223    0.182
        64 -11.3116    135.6475    128.1841   8.5075336141e+01   2.9288466225e+01    0.7934619    0.2024694 -48.78  0.002129162    4.001    0.750
        65 -10.2769    135.0000    119.9609   8.3184872738e+01   3.1275582891e+01     0.350092    0.1684691 -48.47  0.001059406    2.053    0.513
        66 -10.7430    113.3506    129.5833   9.1222624188e+01   3.3398050461e+01    0.3314099    0.2809855  16.44 0.0007387624    1.385    0.278
        67 -11.7757    119.3175    123.7190   8.8229623886e+01   3.3620772025e+01    0.6945415    0.3976031 -29.69  0.002502501    2.452    0.592
        68 -10.5188    160.5709    127.6351   7.8902916544e+01   2.4066662354e+01    0.3622641     0.285637 -60.99  0.001165093    1.414    0.293
        69  -9.3336     97.2747    129.2126   9.5520490557e+01   3.6390114997e+01     0.198006    0.1660503  88.14 0.0004898025    1.318    0.241
        70 -11.1277    100.5835    125.6064   9.3792176942e+01   3.6679358050e+01    0.2881514    0.2461812 -11.35 0.0006121501    1.417    0.294
        71 -10.2043    109.0026    118.7691   8.9825327838e+01   3.6764476110e+01    0.2450775    0.2093194 -51.97 0.0003434717    1.115    0.103
        72  -9.1715    114.3119    118.3161   8.8248768778e+01   3.5855158752e+01    0.1558449    0.1219223 -13.38 0.0003187448    1.640    0.390
        73  -9.9535    167.8544    112.7827   7.3429891253e+01   2.5538119787e+01    0.3523373    0.2472737 -87.35  0.001391102    2.321    0.569
        74 -10.1124    135.0000    112.0011   8.1106448926e+01   3.3046898270e+01    0.4028813    0.1102066 -44.73  0.001119783    3.545    0.718
        75 -10.3049    134.6168    102.7873   7.8688807055e+01   3.5139890900e+01    0.3595277      0.18635 -48.98  0.001365167    1.961    0.490
        76 -12.0226    118.4088    110.0393   8.4991988647e+01   3.6948024060e+01    0.6613923    0.5038351  66.07  0.002329448    1.602    0.376
        77 -10.4000    205.4161    110.1762   6.5142696316e+01   1.7498388062e+01    0.3081346    0.2498337  45.19 0.0009000705    1.316    0.240
        78  -9.8110     63.3625     99.0661   9.8699331303e+01   4.8859000358e+01    0.2693577    0.1753961  53.20  0.000784697    1.931    0.482
        79 -10.8474     53.1327     91.0795   1.0013806452e+02   5.2032097642e+01    0.2224091    0.1680919 -38.50 0.0005157716    1.252    0.201
        80 -10.0945     39.9220     88.7077   1.0408915810e+02   5.4040011863e+01    0.1788211    0.1629708 -50.62 0.0005445514    1.089    0.082
        81  -9.0674    161.3266     88.7181   6.8229116269e+01   3.1859314538e+01    0.1568919    0.1238176 -79.08 0.0003286124    1.599    0.375
        82 -10.0848    156.8067     81.6505   6.7165587763e+01   3.4282545817e+01    0.2648644    0.2136216 -25.16 0.0008192503    1.297    0.229
        83  -9.9425    184.2160     77.1291   6.0248799950e+01   2.8428806416e+01    0.2336425     0.209902   0.49  0.001042092    1.253    0.202
        84  -9.5447     63.1865     69.8024   9.0674953409e+01   5.5467920665e+01    0.1955099    0.1463137 -26.07 0.0007928918    1.310    0.237
        85 -10.6100    158.2505    237.1063   1.0027799834e+02   3.3139172526e+00    0.3201114    0.1710288 -60.32  0.001558449    2.832    0.647
        86 -10.0070    168.9850    235.7499   9.8022324576e+01   1.8057630928e+00    0.1807626    0.1686371  -5.00 0.0004120008    1.191    0.160
        87 -13.5735     61.9620    186.8539   1.1383823364e+02   2.7970332989e+01     1.091245    0.9094788   6.96  0.006594214    1.769    0.435
        88 -11.2681     59.7053    231.4515   1.1861242470e+02   1.8981050741e+01    0.2058251    0.1541475  76.68 0.0005503378    1.126    0.112
        89 -11.1949    151.8132     55.0424   6.0027599534e+01   4.0096407284e+01    0.3292693    0.2686046 -81.69 0.0005089455    1.452    0.311
        90 -10.2144    189.7527     15.0004   4.1860368323e+01   3.5792414555e+01    0.2314212    0.1845268  78.16 0.0006615313    1.154    0.134
