#   1 NUMBER                 Running object number                                     
#   2 MAG_AUTO               Kron-like elliptical aperture magnitude                    [mag]
#   3 X_IMAGE                Object position along x                                    [pixel]
#   4 Y_IMAGE                Object position along y                                    [pixel]
#   5 X_WORLD                Barycenter position along world x axis                     [deg]
#   6 Y_WORLD                Barycenter position along world y axis                     [deg]
#   7 A_WORLD                Profile RMS along major axis (world units)                 [deg]
#   8 B_WORLD                Profile RMS along minor axis (world units)                 [deg]
#   9 THETA_WORLD            Position angle (CCW/world-x)                               [deg]
#  10 FWHM_WORLD             FWHM assuming a gaussian core                              [deg]
#  11 ELONGATION             A_IMAGE/B_IMAGE                                           
#  12 ELLIPTICITY            1 - B_IMAGE/A_IMAGE                                       
         1 -13.3234     67.7825    144.9920   1.2812935483e+02   3.7548154726e+01     1.278983    0.6906512  87.83  0.002347893    2.834    0.647
         2 -13.9966    191.7976     23.9966   6.6492946810e+01   3.4181007090e+01     1.940341      1.27774   1.17  0.007679923    2.200    0.545
         3 -14.1223    199.2924     18.3231   6.4039880181e+01   3.2951376550e+01     1.600948     1.452239 -26.56  0.006477875    1.228    0.186
         4 -13.8022    204.7809     11.5532   6.1656653341e+01   3.2326348799e+01      1.40865    0.8175294  40.84  0.001493307    2.216    0.549
         5 -13.0136      2.1794     26.3062   1.2382578921e+02   6.9954567112e+01     3.797132          nan -48.86  0.009271277    9.277    0.892
         6 -12.6969      2.1387     14.2307   1.1927898120e+02   7.2083110108e+01     0.822856    0.3634269 -35.84  0.004066491    1.772    0.436
         7 -11.0308      2.0907      5.5152   1.1543716790e+02   7.3502647699e+01    0.6036128    0.1988022 -43.59  0.003156007    2.257    0.557
         8 -11.8105     69.4404    193.1193   1.3420870447e+02   2.6519377592e+01    0.3745947     0.249811 -43.80  0.002057544    2.093    0.522
         9 -11.1050    247.1253    249.8819   1.0826983948e+02  -1.0386627378e+01     0.404371    0.1245336  37.54   0.00194936    2.703    0.630
        10 -12.2447    140.4193    248.9142   1.2675152068e+02   5.6593381198e+00    0.5030629    0.3001268  54.12  0.002987974    1.578    0.366
        11 -12.2319    141.7461    241.6504   1.2563779943e+02   6.5534806892e+00     0.386411    0.2942449  36.57  0.001457036    1.167    0.143
        12 -13.7095    107.5707    246.9302   1.3247315114e+02   1.0937838548e+01     1.459981    0.3447172  41.30  0.005797872    3.296    0.697
        13 -11.6799    103.1854    242.8552   1.3285851157e+02   1.2251324788e+01    0.2685039     0.190696  51.27 0.0009290621    1.117    0.105
        14 -13.1105     79.8469    233.6678   1.3624906368e+02   1.7169396916e+01    0.7636679    0.3970702  60.63 0.0003945058    1.783    0.439
        15 -12.5718     89.5988    245.3052   1.3554023161e+02   1.3790856649e+01    0.6518908    0.3405392  61.65  0.001955457    1.841    0.457
        16 -12.5217     85.2428    239.6454   1.3580924462e+02   1.5366951610e+01    0.7287667    0.3677341 -50.13  0.001216228    2.792    0.642
        17 -15.6665      5.2145    179.7399   1.4632457517e+02   3.6446455748e+01      5.92359     1.918669 -73.46   0.02936372    2.431    0.589
        18 -13.0464      7.1536    150.9691   1.4377142298e+02   4.2543654346e+01    0.8616163    0.2967852  39.83 0.0008041254    2.815    0.645
        19 -13.8235     45.5546    227.6105   1.4198804389e+02   2.2693463647e+01    0.6541892    0.3817026  75.00  0.002001168    1.507    0.336
        20 -15.6120     53.3738    213.2425   1.3941617831e+02   2.4499753210e+01     6.993601     1.250768  44.88   0.02662542    3.849    0.740
        21  -8.6709    181.5099    192.4901   1.1045232580e+02   7.7929270374e+00    0.1359075    0.1218675  25.18 -4.223405e-05    1.010    0.009
        22 -11.7495     74.2227    186.1663   1.3236927660e+02   2.7338767452e+01    0.2736453    0.2192604 -57.07 0.0005545366    1.401    0.286
        23 -11.1933     82.8586    174.4900   1.2890495834e+02   2.8639943861e+01    0.2315247    0.2122625 -79.55 0.0002939941    1.129    0.114
        24 -13.4188     70.5235    171.7392   1.3136678580e+02   3.1021184100e+01    0.4794006    0.2786012 -44.55  0.001724234    2.237    0.553
        25 -10.3816    104.9067    173.1101   1.2362138953e+02   2.5461965020e+01    0.3596058    0.1737173  49.50  0.001552608    2.044    0.511
        26 -14.1472      3.4439    233.2797   1.4947602668e+02   2.6132530966e+01     1.859305    0.1918229 -71.12    0.0071249    5.916    0.831
        27 -10.0809    138.2027    171.5905   1.1577138569e+02   1.9855175720e+01    0.2034499    0.1320072  32.83 0.0007224139    1.653    0.395
        28 -12.6318     58.3525    132.5067   1.2856785205e+02   4.1730222073e+01     2.832822    0.8754016 -73.21  0.006091252    9.092    0.890
        29 -12.4370     89.0806    166.1315   1.2621663130e+02   2.9559285849e+01     1.049992    0.5291553  54.41  0.001405714    2.139    0.532
        30  -9.9222    199.3449    249.3111   1.1626520032e+02  -3.4996439808e+00    0.1201835   0.07597926  15.23 0.0006944992    1.705    0.414
        31  -9.5431    164.4658    157.5238   1.0715744268e+02   1.7556579681e+01     0.144832    0.1407478  38.24  0.000289223    1.021    0.020
        32 -10.0251    101.6379    149.8642   1.2037958121e+02   3.1210138848e+01    0.2795189    0.2626301 -56.06 0.0007065454    1.124    0.110
        33  -9.5658    104.0407    145.6778   1.1897938587e+02   3.1754481075e+01    0.3139469    0.2045725 -25.96  0.001320162    2.461    0.594
        34 -12.1832     90.3156    149.0626   1.2307404797e+02   3.3262436975e+01    0.2753009     0.254812 -28.72 0.0005187077    1.293    0.227
        35 -12.4159     43.0696    148.5829   1.3491007588e+02   3.9747056541e+01     0.515385    0.3031944  29.62  0.002763858    2.027    0.507
        36  -9.8135    111.7696    135.6266   1.1495588469e+02   3.2669339109e+01    0.3039447     0.234534 -16.79  0.001298051    1.787    0.440
        37 -14.5296     34.2045    247.1018   1.4517377919e+02   2.0506276215e+01      5.77254     1.482734  31.95   0.01826531    8.468    0.882
        38 -10.6698     99.3302    132.6455   1.1756348763e+02   3.5575473616e+01    0.2757818    0.2283084 -27.35 0.0003107717    1.449    0.310
        39 -12.6167     43.7799    128.2039   1.3184425325e+02   4.4453022130e+01    0.5126518    0.3212075 -79.01  0.002677718    1.518    0.341
        40  -9.4326    108.2908    122.9819   1.1304516685e+02   3.6198310762e+01    0.1970444    0.1801734 -56.89 0.0002791639    1.052    0.049
        41 -12.7075     57.2126    225.5021   1.3971110700e+02   2.1661664140e+01    0.6143131    0.3992931 -45.91  0.003663268    2.455    0.593
        42  -9.9940    230.9993    168.4912   9.6395434451e+01   2.6364180729e+00    0.2602333    0.1672908 -65.27  0.001040786    3.597    0.722
        43 -11.3033    168.0994    113.1697   9.5906934292e+01   2.5664583849e+01    0.3816825    0.3150069 -70.05 0.0007124055    1.418    0.295
        44  -9.6653    204.7175    110.7897   8.7963095326e+01   1.7739252089e+01    0.3694856    0.1850245  37.73  0.001401783    2.452    0.592
        45  -8.7242     78.3313    167.6879   1.2898849361e+02   3.0825186791e+01    0.1418457   0.09273277  71.78 0.0007043784    1.675    0.403
        46 -11.1826      1.9044     89.6141   1.3833956514e+02   5.6794237854e+01    0.3706337    0.1193453 -68.73  0.001691957    2.303    0.566
        47 -10.4050    128.4676     54.7106   8.7764138537e+01   4.5786195633e+01    0.3158958    0.2669785  82.89 0.0004978702    1.425    0.298
        48 -11.0957    121.5417     50.3435   8.7994061069e+01   4.8074745810e+01    0.4054268    0.2879891  81.27 0.0008843691    2.065    0.516
        49 -13.9741     10.5304    206.7488   1.4695364978e+02   3.0456990847e+01    0.8422581    0.6455201  27.87  0.002376458    1.827    0.453
        50 -11.5080     67.6065    234.2703   1.3853329792e+02   1.8709411867e+01     0.358479    0.2024507  44.83  0.002208593    1.505    0.335
        51 -13.6657     14.0298    239.6219   1.4805930510e+02   2.3968059335e+01     1.202885    0.7429118  86.74   0.00601499    1.316    0.240
        52 -10.1078    228.4940    205.4297   1.0399523061e+02  -2.3379442068e+00    0.2153613    0.2057856 -31.52 0.0007438183    1.414    0.293
        53 -10.4495    192.9486    194.6059   1.0859219134e+02   5.3637742385e+00    0.7901252    0.3879868 -61.01  0.002212528    7.232    0.862
        54 -10.8767     13.0856     24.2175   1.1764513892e+02   6.9587881159e+01    0.1798897    0.1535125  30.42  0.001325069    1.576    0.365
