#   1 NUMBER                 Running object number                                     
#   2 MAG_AUTO               Kron-like elliptical aperture magnitude                    [mag]
#   3 X_IMAGE                Object position along x                                    [pixel]
#   4 Y_IMAGE                Object position along y                                    [pixel]
#   5 X_WORLD                Barycenter position along world x axis                     [deg]
#   6 Y_WORLD                Barycenter position along world y axis                     [deg]
#   7 A_WORLD                Profile RMS along major axis (world units)                 [deg]
#   8 B_WORLD                Profile RMS along minor axis (world units)                 [deg]
#   9 THETA_WORLD            Position angle (CCW/world-x)                               [deg]
#  10 FWHM_WORLD             FWHM assuming a gaussian core                              [deg]
#  11 ELONGATION             A_IMAGE/B_IMAGE                                           
#  12 ELLIPTICITY            1 - B_IMAGE/A_IMAGE                                       
         1 -14.8953    162.8334     43.8228   7.8657131690e+01   3.9162741226e+01     1.515458      1.12688 -10.47   0.00357143    1.394    0.282
         2 -14.9848    177.4268     11.1881   6.4782866481e+01   3.9232479690e+01     2.080891     1.338647  63.82  0.006583907    1.517    0.341
         3  -9.9533    163.4178    250.4941   1.2186216911e+02   7.0428150529e+00    0.1033328    0.0748109  38.27 7.486127e-05    1.015    0.014
         4 -20.0970     75.5917    174.4820   1.2956624618e+02   3.0492537151e+01     14.18058     6.076998 -68.68   0.07257577    2.453    0.592
         5 -11.9160    153.3287    193.8201   1.1666698979e+02   1.5776446655e+01    0.2747132    0.2232745  49.51 0.0007385043    1.153    0.133
         6 -10.5121     25.0151    185.3556   1.4029076468e+02   3.3961031710e+01    0.1442855     0.111489 -85.87 0.0001898222    1.245    0.197
         7 -10.1095    151.3883    241.2974   1.2283109699e+02   9.7592843589e+00      0.10701   0.09791986  73.45 0.0004076754    1.383    0.277
         8 -10.6100     31.1537    182.7271   1.3899528430e+02   3.3864542443e+01     0.256043    0.1633865  15.64  0.001630255    2.634    0.620
         9 -10.8061     28.5425    239.1912   1.4226291171e+02   2.4876623037e+01    0.1223236    0.0742532  74.60  0.000542681    1.323    0.244
        10 -11.8036     21.6354    237.7359   1.4323886959e+02   2.5737283643e+01    0.1236981   0.09056298  79.25 0.0007347125    1.237    0.191
        11 -11.8231    187.8515    174.7069   1.0711830584e+02   1.2704562415e+01    0.2230678    0.1740152 -70.71    0.0012483    2.167    0.539
        12 -11.7328    167.7916    175.1799   1.1101095074e+02   1.6151892731e+01    0.1912848    0.1642348  50.86  0.000699255    1.213    0.176
        13 -11.8375     26.0730    173.6381   1.3939253249e+02   3.6018011483e+01    0.1966518    0.1533775  69.44 0.0003173455    1.065    0.061
        14 -11.7814    163.8628    170.0874   1.1091032143e+02   1.7625498426e+01    0.1966012     0.167787  58.03  0.001214492    1.290    0.225
        15 -12.1930    131.0732    234.9667   1.2553678226e+02   1.3372175424e+01    0.1650061    0.1461927 -77.21 0.0006889931    1.439    0.305
        16 -11.8892    230.3419    167.4340   9.8194149325e+01   6.1833996150e+00    0.3578356    0.1699906 -42.90    0.0016036    3.068    0.674
        17  99.0000    139.5801    249.9875   1.2559973943e+02   1.0355490216e+01    0.7258877     0.185478 -54.11  0.003352024    5.859    0.829
        18 -10.0715    145.1843    234.6836   1.2315548582e+02   1.1436779879e+01   0.08834944   0.07027843  67.67 0.0001709061    1.467    0.318
        19  -9.6936    200.4873    159.5036   1.0192370268e+02   1.2564153322e+01    0.1335465    0.1135086  19.98 -2.233204e-05    1.005    0.005
        20 -11.7687    188.8844    158.4216   1.0389492343e+02   1.4871319572e+01    0.6393149    0.3544697  15.52  0.002628434    2.884    0.653
        21 -10.6847    189.2381    154.5857   1.0307128939e+02   1.5376780370e+01     0.471624    0.2093915  30.24   0.00183634    2.786    0.641
        22  -9.4700    133.7160    248.2758   1.2637560399e+02   1.1347060468e+01    0.1163665    0.1081747  75.12 0.0002749164    1.345    0.256
        23 -11.5127     18.0298    156.3002   1.3988907776e+02   4.0053682224e+01    0.3666229    0.1881144 -78.89   0.00232907    1.638    0.390
        24 -10.9009     22.9718    156.0718   1.3884733868e+02   3.9681682429e+01    0.1674021    0.1340282  63.77 0.0004187252    1.153    0.133
        25 -12.3174    143.5145    156.3160   1.1265579765e+02   2.3511631613e+01    0.3158152    0.2120156  60.57  0.001635776    1.745    0.427
        26 -15.1034    143.7375    143.4534   1.1021984077e+02   2.5779266204e+01     1.438399    0.6450498 -55.39  0.005699349    2.936    0.659
        27 -14.4796    135.8123    128.1035   1.0889050672e+02   3.0133087889e+01     2.479762    0.4631699 -49.83  0.005941128    6.945    0.856
        28 -14.6928    133.8909    146.0668   1.1288215773e+02   2.7067771469e+01     1.627775    0.5149628 -55.10  0.005279145    4.437    0.775
        29 -10.4565    177.0489    154.8796   1.0550761182e+02   1.7623000771e+01    0.1905766    0.1728292  57.81 0.0004611275    1.277    0.217
        30 -13.4681    161.2603    152.9796   1.0833264759e+02   2.0875850676e+01    0.4400744    0.3657427  42.71  0.001778201    1.123    0.109
        31 -12.5010    174.1220    148.5515   1.0483783063e+02   1.9187058860e+01    0.3639516    0.3039157 -40.26  0.001192966    1.327    0.246
        32 -12.8053     22.8063    220.0256   1.4236121122e+02   2.8318906655e+01    0.2284958    0.1363256 -71.13  0.001806287    1.847    0.458
        33 -11.5633    134.5821    243.9743   1.2583329294e+02   1.1754094236e+01    0.2219316    0.1522906 -37.84  0.001646524    2.151    0.535
        34 -12.3376     27.4461    145.3990   1.3707219695e+02   4.1443376562e+01    0.2512074    0.2308826  41.61  0.001085362    1.366    0.268
        35 -11.5102    137.9606    241.9606   1.2508960094e+02   1.1540933159e+01    0.2770639    0.1732058  65.65  0.001326371    2.023    0.506
        36 -11.3919      8.7075    138.2384   1.4069527028e+02   4.4408707422e+01    0.2986814    0.1709222 -61.23  0.001320001    1.743    0.426
        37 -11.4545    171.3672    137.8396   1.0317483714e+02   2.1490500158e+01     0.232981    0.1839888  49.98 0.0005298745    1.299    0.230
        38 -10.6427     15.9752    209.5210   1.4302593790e+02   3.0623134952e+01   0.09970481   0.08147802  48.81 0.0003679159    1.384    0.278
        39 -13.0819     11.4671    206.0594   1.4362636274e+02   3.1584672650e+01    0.3209555    0.1942891  34.42   0.00211574    1.812    0.448
        40 -12.9675    160.5706    127.9053   1.0328641924e+02   2.5359181995e+01    0.4437337    0.3566101 -53.52  0.001684527    1.426    0.299
        41 -12.7966     28.1646    126.9005   1.3522863536e+02   4.5265909769e+01    0.3653632    0.2846754  15.44  0.002523493    1.756    0.431
        42 -13.4234    128.2611    142.9787   1.1356822215e+02   2.8637213717e+01    0.5317588     0.427627  -0.54  0.002385042    1.634    0.388
        43 -11.0394    167.3941    112.5447   9.8180134034e+01   2.6675883325e+01    0.3124664     0.241546  89.99  0.001460892    2.003    0.501
        44 -11.1300    126.9465    250.6941   1.2767046353e+02   1.1953232265e+01    0.1326037   0.06779959  42.34 0.0001757243    1.412    0.292
        45 -10.8084    205.3868    110.2259   8.9994394609e+01   1.8846079297e+01    0.3032765    0.1932256  41.69 0.0008555837    1.525    0.344
        46 -13.3326    125.1571    241.2429   1.2711064547e+02   1.3368122725e+01    0.3933454    0.1512529 -53.82  0.002271429    3.418    0.707
        47 -10.5567     22.4413    205.3510   1.4176987121e+02   3.0730785874e+01    0.1029709   0.07771269 -88.07 0.0004697972    1.294    0.227
        48 -11.5546     13.0741    100.6798   1.3644998343e+02   5.2143295557e+01    0.3019986    0.1780487  36.48  0.001900719    1.920    0.479
        49 -11.3464    139.6050    199.9068   1.2005888042e+02   1.7031399774e+01    0.3579457    0.2059882  40.14  0.001581123    1.447    0.309
        50 -10.4299    144.3032     80.9985   9.4900276510e+01   3.7459852060e+01    0.2159632    0.1928423 -28.91 0.0005053052    1.089    0.082
        51 -11.8790     12.6588    242.0239   1.4470060304e+02   2.5925755457e+01    0.1281551    0.1056182  72.72  0.001130022    1.352    0.260
        52 -14.4464    151.5600     58.4615   8.6055000378e+01   3.9721814770e+01     1.371114     1.154802  11.93 0.0009400888    1.227    0.185
        53 -10.2269    160.2373    247.6485   1.2206946258e+02   7.7958022902e+00    0.2219296    0.1223993  26.39  0.001023398    1.958    0.489
        54 -13.0311    166.9452     35.7084   7.5047472762e+01   3.9211870496e+01    0.4458546    0.4203051  -5.51 0.0009410515    1.030    0.029
        55 -11.3468     13.5443     59.7998   1.3059855047e+02   6.1286917986e+01    0.2006834    0.1690471  82.96 0.0005814043    1.289    0.224
        56 -10.5192    143.0199     33.2616   7.8988189537e+01   4.5634704292e+01    0.2188146    0.2031618 -79.82 0.0008399822    1.273    0.215
        57 -11.1133     15.5248    246.8308   1.4444011433e+02   2.4986271195e+01    0.1166909   0.06085782  76.29 0.0009555871    1.547    0.354
