#   1 NUMBER                 Running object number                                     
#   2 MAG_AUTO               Kron-like elliptical aperture magnitude                    [mag]
#   3 X_IMAGE                Object position along x                                    [pixel]
#   4 Y_IMAGE                Object position along y                                    [pixel]
#   5 X_WORLD                Barycenter position along world x axis                     [deg]
#   6 Y_WORLD                Barycenter position along world y axis                     [deg]
#   7 A_WORLD                Profile RMS along major axis (world units)                 [deg]
#   8 B_WORLD                Profile RMS along minor axis (world units)                 [deg]
#   9 THETA_WORLD            Position angle (CCW/world-x)                               [deg]
#  10 FWHM_WORLD             FWHM assuming a gaussian core                              [deg]
#  11 ELONGATION             A_IMAGE/B_IMAGE                                           
#  12 ELLIPTICITY            1 - B_IMAGE/A_IMAGE                                       
         1 -12.9979    226.1075     52.6439   4.7219892530e+01   2.2719010141e+01     1.491755    0.6127592 -40.09  0.006473875    2.052    0.513
         2 -13.5642    245.5804     75.2973   5.0598988468e+01   1.5889712832e+01     1.651718    0.7391281 -42.73  0.006347213    2.026    0.506
         3 -12.3425    210.4671     32.5714   4.3563841528e+01   2.8683816924e+01    0.8335756    0.6003196 -53.49   0.00367533    1.295    0.228
         4 -11.6292    217.9797     25.9843   4.1077317511e+01   2.7718234059e+01    0.5835022    0.3810239  24.92  0.001448049    2.254    0.556
         5 -12.3801    230.1615     13.7569   3.6970443723e+01   2.6315791283e+01    0.6825359    0.5179501 -49.26  0.002812983    1.108    0.097
         6 -10.0461    124.1543      4.8165   4.5355772022e+01   5.3847766112e+01    0.2255957    0.1850342 -65.86 0.0008300863    1.289    0.224
         7 -13.4073     89.8862    249.6584   1.1038733364e+02   1.4222471946e+01     1.807887    0.3497391  35.80  0.007518398    3.320    0.699
         8 -14.5818    217.8998    229.6214   8.4832364826e+01   4.3311176177e-01      1.77623     1.029271   9.32   0.01096124    1.631    0.387
         9 -14.4820    208.5159    209.7402   8.3458840467e+01   3.9233810825e+00      1.95562     1.118682  10.13   0.01122053    1.887    0.470
        10 -15.9881    176.9396    239.5672   9.3196520984e+01   4.5016849513e+00     2.268128     1.380753  36.54   0.01044666    1.381    0.276
        11 -13.5808    157.2140    247.2150   9.7640670683e+01   6.1055126170e+00    0.8080389     0.386076  32.92  0.003242335    1.568    0.362
        12 -14.2740    141.7111    244.6680   1.0020214114e+02   8.4284242855e+00     1.238128    0.8466097  60.09  0.005777577    1.994    0.499
        13 -12.2210     62.9077    248.8891   1.1540553784e+02   1.7448628829e+01    0.7845814    0.3801107  27.54   0.00216968    1.994    0.499
        14 -11.9178     70.3081    248.6198   1.1400135120e+02   1.6660757364e+01     0.534456     0.328402  33.35  0.003705805    1.349    0.259
        15 -12.0687     48.0151    250.5523   1.1825646504e+02   1.8793274732e+01     1.060581    0.1818699  37.13  0.003028029    3.047    0.672
        16 -11.6666     41.6469    236.7475   1.1880200209e+02   2.1690486492e+01    0.4377511    0.2067938  77.32 0.0004579084    2.306    0.566
        17 -10.4436     38.8203    232.0285   1.1912674487e+02   2.2781282174e+01    0.1850735    0.1417014  56.80 0.0003095433    1.069    0.065
        18 -11.6274     30.6094    248.9928   1.2137389570e+02   2.0798302684e+01    0.5578178    0.2340181  37.62  0.002826245    1.682    0.406
        19 -12.6049     34.5815    242.5816   1.2039613135e+02   2.1441529377e+01     0.646692    0.4390216  53.79  0.004970669    1.069    0.065
        20 -10.9727     25.1422    228.3972   1.2163513633e+02   2.4764956300e+01    0.3037024    0.1619169  69.03  0.001108504    1.632    0.387
        21 -12.3845     19.8688    220.8772   1.2239203197e+02   2.6597931777e+01    0.5109628    0.2326322  54.33  0.002543131    1.623    0.384
        22 -13.9529      7.1702    239.6670   1.2535153929e+02   2.4477885190e+01     1.519393    0.8953128  79.21   0.01140357    1.542    0.352
        23 -13.8660      8.7429    207.8633   1.2420305959e+02   2.9998889256e+01    0.9419317    0.8087542  73.03  0.004699282    1.229    0.187
        24 -15.0979     29.3370    180.0538   1.1840927186e+02   3.3738018637e+01     7.582947     2.241121  73.47   0.02287995    6.177    0.838
        25 -11.4198    230.4157    197.8037   7.7878733753e+01   2.3943768306e+00    0.4834397     0.265085 -14.95  0.002825764    1.856    0.461
        26 -11.5089    228.9496    205.7751   7.9415166526e+01   1.6692304224e+00    0.2890171    0.2152093  -3.46  0.001828028    1.119    0.107
        27 -12.3500    153.7109    225.8873   9.5774764295e+01   9.3850357627e+00    0.5514022    0.4605515  22.39  0.002723925    1.080    0.074
        28 -10.8004     22.9093    208.7238   1.2129798826e+02   2.8567635205e+01    0.2029472    0.1333926  73.33 0.0005174912    1.309    0.236
        29 -10.7200     24.3645    202.5916   1.2072052576e+02   2.9611968299e+01    0.1990098    0.1702283  65.45 0.0006582712    1.156    0.135
        30 -12.1675    176.1228    197.9270   8.7525635777e+01   1.0154617582e+01    0.7078975    0.5966982  65.94  0.004506861    1.771    0.435
        31 -12.1718    188.3959    195.6923   8.4843068779e+01   8.6313590243e+00    0.6625718    0.4078425  38.99  0.002379946    1.521    0.343
        32 -11.1129     21.2127    194.3202   1.2103073994e+02   3.1545987773e+01    0.2613881    0.1333013  61.99  0.001522015    1.623    0.384
        33 -13.3687      3.5432    180.2117   1.2445201959e+02   3.5942134060e+01     1.920612    0.4944647 -85.55  0.001046515    3.607    0.723
        34 -11.4266    146.4605    185.7893   9.1646787071e+01   1.6697937964e+01    0.7185103    0.5041502 -14.85   0.00389695    1.865    0.464
        35 -10.8853     59.1990    180.9208   1.1127376065e+02   3.0310141300e+01     0.348193    0.2503235 -30.65  0.001947222    2.113    0.527
        36 -10.9368     64.7596    175.1605   1.0935019183e+02   3.0856021787e+01    0.2600356    0.2287871 -32.01 0.0006591398    1.486    0.327
        37 -13.2509    173.3762    167.6650   8.2924881104e+01   1.5305043840e+01     1.266564    0.8675821  48.89  0.004641016    1.607    0.378
        38  -9.7002     48.6173    224.9270   1.1681485616e+02   2.2985190765e+01     0.170811    0.1284353  36.48 0.0003475439    1.245    0.197
        39 -10.3984     74.8023    165.2342   1.0569066802e+02   3.1709057256e+01    0.2153589    0.2081872  54.82 0.0003503643    1.147    0.128
        40 -12.4843     61.8934    161.4883   1.0862219131e+02   3.4234063559e+01    0.4528371    0.2772153 -43.92   0.00147951    2.133    0.531
        41 -10.9799     81.7223    158.8995   1.0306407971e+02   3.2149027073e+01    0.4588217     0.348211  -0.33  0.001253055    1.880    0.468
        42 -10.8818    246.4484    156.4640   6.7952914500e+01   5.1580415015e+00    0.4372107    0.2511107  46.80  0.002485432    2.150    0.535
        43 -11.9319    190.3438    153.9140   7.6924192426e+01   1.4601580084e+01    0.8696719    0.4922042  51.32  0.004117882    2.136    0.532
        44  -9.3577     94.4481    221.6848   1.0716741998e+02   1.8077105102e+01    0.1326644    0.1122665 -50.87 0.0009385647    1.506    0.336
        45 -10.7456     83.5068    227.4861   1.0991256352e+02   1.8488336714e+01    0.3955204    0.1743181 -58.05  0.002155327    2.756    0.637
        46 -10.7218    202.0236    149.6821   7.3891744092e+01   1.3222256166e+01    0.3283593    0.2431715   4.84  0.001774946    1.392    0.282
        47 -11.0875     70.3077    145.3307   1.0428786249e+02   3.6863980750e+01    0.4420451    0.3650935 -33.94   0.00143331    1.511    0.338
        48 -11.5268     67.5257    142.5017   1.0468009556e+02   3.7910545454e+01    0.4699837    0.3527488  51.79  0.001478499    1.250    0.200
        49 -11.9350    185.5478    143.1041   7.5625395262e+01   1.7226668997e+01    0.5624853     0.403785  40.79  0.002248616    1.386    0.278
        50 -12.3347    188.1474    138.6152   7.4161274595e+01   1.7489737992e+01     0.876932    0.6134923  57.56   0.00369792    1.814    0.449
        51 -12.0642    126.0772    242.1907   1.0288119875e+02   1.0789937189e+01    0.2851556    0.2696657   6.19  0.002337604    1.289    0.224
        52 -11.9240     53.4590    241.0981   1.1675886764e+02   1.9721430143e+01    0.4577832    0.2503518  22.11  0.002328006    2.152    0.535
        53 -12.3367    247.9608     94.7359   5.4781463449e+01   1.2924531315e+01     1.001182    0.4087833 -36.66  0.004617979    2.037    0.509
        54 -12.6632    247.9689    135.6005   6.3588272452e+01   7.5735275600e+00     1.247196    0.4164633 -33.46  0.005212792    2.545    0.607
        55 -12.3582    248.1980    119.6987   6.0231376862e+01   9.6042200309e+00    0.7312452    0.4570895 -44.73  0.004000493    1.781    0.439
        56 -12.7970    248.4926    109.0665   5.7895398483e+01   1.0950142104e+01     0.943226    0.5628353 -25.74  0.004656672    1.423    0.297
        57 -11.2912     84.9651    142.4651   9.9728948220e+01   3.5414658228e+01    0.2558567    0.2456312 -42.80 0.0003928684    1.176    0.150
        58 -12.1988     30.8746    209.0441   1.1963834003e+02   2.7738864196e+01    0.3958471     0.301185 -33.50 0.0009925403    2.101    0.524
        59 -10.4330     29.7560    218.3855   1.2030592209e+02   2.6107870426e+01     0.192301    0.1326816  86.48  0.001366869    1.426    0.299
        60  -9.6691    107.6751    131.9794   9.1508473114e+01   3.4074555204e+01    0.3436269     0.222811  34.08   0.00160026    1.570    0.363
        61  -9.4941     95.8250    128.3149   9.4107387304e+01   3.6969292192e+01    0.2603085    0.2086842 -11.15  0.001297897    1.667    0.400
        62  -9.8429    197.6474    124.9119   6.9336747715e+01   1.7930113211e+01    0.2429934    0.1844031  28.47 0.0009414799    1.351    0.260
        63 -10.8530    137.1774    119.2924   8.0950313192e+01   3.1191366509e+01    0.4653453    0.3027515  41.85  0.002133226    1.517    0.341
        64 -12.1815    221.7503    117.7884   6.3653242235e+01   1.4476905027e+01    0.6956666    0.3000514 -27.00  0.002925563    2.321    0.569
        65  -8.6866    106.0090    120.0657   8.9467763625e+01   3.7084526023e+01    0.1694759    0.1650237  85.52 0.0003349311    1.015    0.015
        66  -9.2713    205.5182    110.4729   6.4590012378e+01   1.8688111778e+01    0.1386432    0.1251453 -15.15  0.000112292    1.002    0.002
        67 -12.0052    215.7689    119.2546   6.4936807030e+01   1.5367927661e+01    0.8421034    0.5036505 -10.64  0.003907139    2.099    0.524
        68 -11.4482    223.4300    104.8910   6.0433479469e+01   1.6042158406e+01     0.369138    0.2757939  24.27  0.002071779    1.489    0.329
        69 -12.3352    222.1657     90.3712   5.7154722991e+01   1.8387722449e+01     1.297227    0.3446869 -40.33  0.004372502    3.401    0.706
        70 -11.8596    213.4017     81.1856   5.6120780858e+01   2.1518635173e+01    0.7354943    0.5472922 -57.90  0.003925648    1.522    0.343
        71 -11.7273    237.9137     85.8558   5.3980492421e+01   1.5948489961e+01    0.5613449    0.1996595 -34.96  0.002340292    2.292    0.564
        72  -9.7440    201.8103     90.8040   6.0348176564e+01   2.2530656151e+01    0.1972339    0.1667644 -63.40   0.00108191    1.363    0.267
        73 -13.8301    195.0215    234.0828   8.9311777768e+01   2.8187115505e+00     0.770232    0.6624385  24.19  0.004328154    1.332    0.249
        74  -8.6515     24.5658     82.5356   1.1021958681e+02   5.7709679147e+01    0.1343819    0.1166994 -80.82 4.260501e-05    1.036    0.035
        75 -10.0708     13.2151     59.9565   1.1140792547e+02   6.4195972614e+01    0.1947125    0.1602931  83.36 0.0005596798    1.243    0.195
        76  -9.3818     40.6535     58.7948   9.7699094158e+01   6.2088935150e+01    0.2647855    0.1585387  53.77  0.001209195    2.150    0.535
        77 -11.3610    249.5008     42.4469   4.2485190997e+01   1.9162083484e+01    0.8632384    0.1800812 -34.58  0.003203504    3.101    0.678
        78 -10.3251    244.0257     35.0136   4.1164983059e+01   2.1103207654e+01    0.3851696     0.180458 -44.75  0.001679029    1.795    0.443
        79  -9.7768    135.8317     42.5220   5.8032165588e+01   4.6097640075e+01    0.2576305    0.2100717 -35.84 0.0004460664    1.222    0.182
        80 -12.1623    203.1488     38.2323   4.5920981299e+01   2.9710626716e+01    0.5263956    0.4125164  47.30   0.00195601    1.445    0.308
        81 -12.5143     63.7315    232.7144   1.1426305407e+02   1.9964348684e+01    0.4969296    0.3206856  57.71   0.00177438    1.319    0.242
        82 -10.4026     91.2750    232.6576   1.0877892055e+02   1.6675041204e+01    0.1866155    0.1622945  58.14 0.0007589828    1.178    0.151
        83 -11.6933     88.9839    228.2319   1.0886528011e+02   1.7682289865e+01    0.3262421    0.2229215  73.97 0.0003941187    1.692    0.409
