#   1 NUMBER                 Running object number                                     
#   2 MAG_AUTO               Kron-like elliptical aperture magnitude                    [mag]
#   3 X_IMAGE                Object position along x                                    [pixel]
#   4 Y_IMAGE                Object position along y                                    [pixel]
#   5 X_WORLD                Barycenter position along world x axis                     [deg]
#   6 Y_WORLD                Barycenter position along world y axis                     [deg]
#   7 A_WORLD                Profile RMS along major axis (world units)                 [deg]
#   8 B_WORLD                Profile RMS along minor axis (world units)                 [deg]
#   9 THETA_WORLD            Position angle (CCW/world-x)                               [deg]
#  10 FWHM_WORLD             FWHM assuming a gaussian core                              [deg]
#  11 ELONGATION             A_IMAGE/B_IMAGE                                           
#  12 ELLIPTICITY            1 - B_IMAGE/A_IMAGE                                       
         1 -16.0695    173.8531      5.9146   3.8447928919e+01   3.9845094312e+01     2.570707     1.090786  85.38   0.01015754    2.535    0.605
         2 -12.3947     31.9984     10.7521   7.9346384318e+01   7.3276629912e+01    0.2002177    0.1750059 -16.32 0.0003203513    1.034    0.033
         3 -13.0542    241.4974     10.9781   3.4850855778e+01   2.3513831590e+01    0.3255527    0.1032916 -26.55  0.001370181    2.756    0.637
         4 -12.8679    124.6090      7.4243   4.5170393371e+01   5.2783531032e+01    0.3625313    0.2284797 -89.57  0.001403132    1.744    0.427
         5 -10.7330     98.5137      8.4988   5.0839341261e+01   5.9513642702e+01    0.1401305    0.1327995  61.81 0.0008102767    1.036    0.034
         6 -13.4765      3.7713      8.6207   9.9718483667e+01   7.6748111927e+01    0.3281009    0.2527316 -17.76  0.001175758    1.223    0.182
         7 -11.8264     49.1693      4.4420   6.5476004239e+01   7.1264657001e+01     0.329212    0.1586614 -45.94  0.001401529    2.747    0.636
         8 -11.9318    230.1692      1.8260   3.3313098987e+01   2.6793388513e+01    0.1526751    0.1461806  49.23 0.0007053351    1.324    0.244
         9 -13.2724      6.9542      1.9825   9.3156492562e+01   7.7805452833e+01    0.5172938    0.1470663  24.86  0.002049048    3.629    0.724
        10 -11.1848    113.0060      1.5389   4.4651739090e+01   5.6402710802e+01    0.2211652    0.1285992  68.61  0.001023753    1.574    0.365
        11 -16.2190     87.4430    184.5110   1.0347814169e+02   2.5871429171e+01     1.760133     1.123997  49.89  0.009620893    1.393    0.282
        12 -16.7871    123.1273    195.7758   9.6699645138e+01   1.8364088881e+01     3.549248     1.714534  58.44   0.01401137    3.396    0.705
        13 -11.0316    144.3405    239.2394   9.7774708934e+01   8.4976319244e+00    0.1756338    0.1074778  54.13  0.001038091    2.040    0.510
        14 -15.8978     66.0203    180.7213   1.0828320640e+02   2.9599706352e+01     1.954022    0.8325084  43.62  0.009066629    1.952    0.488
        15 -11.4981    117.0419    237.0263   1.0281899863e+02   1.2490854790e+01    0.2591088    0.1341898  31.59  0.001485954    1.570    0.363
        16 -12.7579    148.0219    232.8808   9.6330225840e+01   8.8676844305e+00    0.2938159    0.1886936 -44.31   0.00112577    1.969    0.492
        17 -12.1565    146.5031    228.0766   9.6040873730e+01   9.7533012838e+00    0.2183442    0.1713734  39.42   0.00068673    1.173    0.147
        18 -12.3647    129.9762    233.4903   9.9901963407e+01   1.1262727834e+01     0.345713    0.2454957  84.04  0.002114402    2.356    0.576
        19 -12.0595    157.2004    231.3614   9.4396103646e+01   7.8089054496e+00    0.1540916    0.1235705  17.32 0.0002693761    1.123    0.110
        20 -13.0412    140.7277    228.0318   9.7163205763e+01   1.0569144645e+01    0.3279817    0.2529928 -87.64  0.002114139    2.105    0.525
        21 -11.8524    141.4528    223.4973   9.6468500280e+01   1.1131729858e+01    0.1683062    0.1272407  52.65 3.055405e-05    1.461    0.315
        22 -12.5825    135.4917    230.0512   9.8429600613e+01   1.1005297274e+01    0.2643022    0.1659236 -51.25  0.001118976    2.052    0.513
        23 -11.9076     40.2795    183.5407   1.1485427952e+02   3.2085803031e+01     2.447006     1.343573 -47.24   0.01241282    2.580    0.612
        24 -13.4187    166.0709    212.2385   9.0134947202e+01   9.2018755448e+00    0.3415805    0.2819185 -68.06  0.002237858    1.894    0.472
        25 -15.4119     83.3819    171.2240   1.0282194472e+02   2.9230622120e+01     1.698438    0.7813182  43.88  0.005358758    1.899    0.473
        26 -11.3647     24.3170    204.4546   1.1979791119e+02   2.9462582976e+01    0.2568197    0.1758826 -65.18  0.001699043    1.743    0.426
        27 -12.5632    146.1144    202.8086   9.2774427878e+01   1.3631440894e+01    0.1921202    0.1527366  47.56 0.0006623016    1.285    0.222
        28 -11.1855     19.4724    211.6406   1.2115798704e+02   2.8542916514e+01    0.3312452   0.08443238  32.99  0.001519331    2.813    0.645
        29 -11.3405     14.5400    197.7212   1.2164690572e+02   3.1720286468e+01    0.2920212    0.1930982 -86.67  0.001944754    1.469    0.319
        30 -11.5590    148.5087    199.4734   9.1796391608e+01   1.3797280867e+01     0.127652     0.106268  28.07 -2.447046e-05    1.010    0.010
        31 -12.2260    148.9575    195.3145   9.1084237894e+01   1.4401850105e+01     0.210117    0.1399818  46.63  0.001175796    1.476    0.322
        32 -12.9780    146.7529    187.9996   9.0424493283e+01   1.5973133332e+01    0.3711838    0.2976052 -48.41  0.001167427    1.464    0.317
        33 -11.2550     22.3597    191.4267   1.1958886878e+02   3.2270576838e+01    0.2058509    0.1350429 -86.85  0.001307721    1.470    0.320
        34 -10.8732     16.0504    187.8455   1.2087034779e+02   3.3600093284e+01     0.154067    0.1313894 -28.57  0.001063403    1.721    0.419
        35 -12.5228    136.7098    185.1323   9.2154160122e+01   1.8103650546e+01     0.289459    0.2054112 -42.97 0.0008877717    1.609    0.378
        36 -17.5531     62.2329    223.4432   1.1281713284e+02   2.1751186345e+01     8.890055     4.900983  89.17   0.05159412    2.195    0.544
        37 -10.5819     18.9653    183.9497   1.1999710684e+02   3.4150073612e+01    0.1586118    0.1333248 -36.54 0.0007011402    1.694    0.410
        38 -15.5707     90.8493    226.6937   1.0711862717e+02   1.7603163409e+01     0.902222    0.7266927 -85.19  0.006412003    1.491    0.329
        39 -10.3921      6.2764    177.3149   1.2271187852e+02   3.6663624934e+01    0.1036488   0.08384503 -57.27 0.0004890296    1.565    0.361
        40 -12.9647    126.9107    174.0949   9.2627353969e+01   2.1756759403e+01    0.4113247    0.2651779 -76.52  0.001912619    2.459    0.593
        41 -10.7134      2.2805    174.0959   1.2354561685e+02   3.7670965538e+01    0.1654593     0.135957  33.89 0.0003346552    1.336    0.251
        42 -12.6183    115.7470    172.1146   9.4945398808e+01   2.3996144063e+01     0.239212     0.230503  34.20 0.0003630418    1.091    0.084
        43 -11.5655    116.7877    161.7515   9.3010794566e+01   2.5912934996e+01    0.1871048    0.1537136  64.17 0.0004279451    1.298    0.229
        44 -12.2129    112.9873    162.0177   9.3994727506e+01   2.6503788797e+01    0.2341017    0.1593058  65.30  0.001131467    1.793    0.442
        45 -12.1145      7.5608    155.5420   1.2140135327e+02   4.1382005972e+01    0.2044279    0.1710976  67.24 0.0004645167    1.059    0.056
        46 -10.0932    144.6625    153.3162   8.4828406478e+01   2.2608385281e+01     0.141099    0.1104558  73.14 0.0007048085    1.699    0.412
        47 -10.8357    105.3213    153.6698   9.4535028634e+01   2.9565047854e+01    0.1480285    0.1043915  68.43 0.0004951736    1.694    0.410
        48 -11.7319    100.9069    150.6131   9.5169477510e+01   3.0974881466e+01    0.2316227    0.1968264 -46.08 0.0005764299    1.304    0.233
        49 -12.0645    106.6985    133.0799   9.0334409804e+01   3.3862759951e+01    0.2071661    0.1939433 -64.86  0.001154534    1.107    0.096
        50 -11.7350    139.1087    242.7703   9.9159089069e+01   8.7196524732e+00    0.3204139    0.1941505  11.09  0.001813489    2.138    0.532
        51 -14.5706     60.8973    205.2299   1.1172760453e+02   2.5283459882e+01    0.7772799    0.4134109  15.09  0.003561558    3.041    0.671
        52 -12.8757      2.4920    104.9574   1.1977555681e+02   5.3868618898e+01     0.337136    0.2154997 -53.00  0.001906407    1.603    0.376
        53 -11.3903     26.1090    101.1662   1.1076982280e+02   5.3133835867e+01    0.2008642    0.1660136 -54.35  0.000526426    1.229    0.186
        54 -12.7394    101.9240    240.2724   1.0610661742e+02   1.3990299706e+01    0.2274228     0.190638  -4.43   0.00110917    1.582    0.368
        55 -10.3588    124.3044     87.7297   7.4249440878e+01   4.0173055284e+01     0.151588    0.1219381  89.48 0.0002369642    1.535    0.348
        56 -10.8881     89.5490     85.4978   8.4049151155e+01   4.8025596726e+01    0.1501766    0.1461917 -80.18  8.80502e-05    1.012    0.012
        57 -13.4026     43.6892     82.9619   1.0058221678e+02   5.5919210872e+01    0.3413813    0.2717091  14.65  0.001594881    1.450    0.310
        58 -12.8397     37.6439     71.2596   1.0040619404e+02   5.9521368186e+01    0.2320952    0.2117038  12.36  0.001384434    1.210    0.174
        59 -12.4886     99.5554     62.4583   7.3346430948e+01   5.0889871350e+01    0.3925371    0.3013431 -62.73 0.0008597692    1.492    0.330
        60 -13.4424    249.8096     57.4382   4.4981969444e+01   1.6692644930e+01    0.6826807    0.1009029 -29.63  0.001987217    5.190    0.807
        61 -10.6051    117.0008     56.9177   6.6243957550e+01   4.7867006355e+01    0.1823268      0.17562 -43.25 0.0004855121    1.049    0.047
        62 -11.1334    106.1084    237.1500   1.0499277582e+02   1.3922617354e+01    0.1802163    0.1421403  56.25  0.001113316    1.270    0.213
        63 -11.1099    183.2910     35.5651   4.6454283749e+01   3.4169231289e+01    0.2615175     0.139151  75.50  0.001124331    2.023    0.506
        64 -12.1630     89.3006     26.9428   6.2171022040e+01   5.9471348176e+01    0.3872404     0.309285  -3.42  0.001536752    1.409    0.290
        65 -12.3578    241.5066     27.4536   3.8705877737e+01   2.1792946419e+01    0.2030731    0.1727075 -76.42 8.625711e-05    1.199    0.166
        66 -12.0644    239.2828     24.7074   3.8216361285e+01   2.2548145910e+01    0.2025766    0.1445348 -50.20 0.0001795653    1.180    0.153
        67 -11.8711    158.6957     26.5609   4.6947995244e+01   4.1608648470e+01    0.3710316    0.1435408  71.67  0.001318122    2.700    0.630
        68 -11.1083    116.2060    249.0109   1.0414016698e+02   1.0861786269e+01    0.1544242    0.1360117  -5.13 0.0009644412    1.433    0.302
        69 -12.3670     25.0005     15.9945   8.7106329285e+01   7.3277811856e+01    0.2091694    0.1383355 -18.42 0.0005860262    1.652    0.395
        70 -11.8523     33.8526     14.1570   8.0236970424e+01   7.2418849588e+01    0.2031178      0.17636 -12.52 0.0004032231    1.025    0.025
        71 -11.7427    151.4668    247.6114   9.7387100449e+01   6.4494782924e+00    0.2148172    0.1056139  31.74 0.0009511439    1.543    0.352
        72 -11.3153    132.3966    247.2315   1.0089893001e+02   9.0015721509e+00    0.1893126    0.1320513  53.24 0.0005499391    1.567    0.362
        73 -11.2470    143.8097    246.6007   9.8693080560e+01   7.5855735042e+00    0.1586479    0.1321522  14.16 0.0004452779    1.214    0.176
        74 -10.9582    125.0311    246.9615   1.0226566662e+02   1.0003059814e+01    0.1230404    0.1030934  35.07 0.0003196252    1.131    0.116
        75 -11.6617     99.2261    246.4450   1.0716995613e+02   1.3404565332e+01    0.2710334    0.1240731  33.58 0.0009075454    1.684    0.406
        76 -11.2591    103.6801    245.2243   1.0620275602e+02   1.3019125949e+01    0.1687725    0.1647148 -59.33  0.001393303    1.370    0.270
        77 -10.8574     97.9595     16.3462   5.4703212138e+01   5.8776351566e+01    0.2554538   0.07021472  44.19 0.0007042197    4.337    0.769
        78 -11.6410     88.9400    247.0832   1.0921094101e+02   1.4595696049e+01    0.1773698    0.1106838  53.07  0.001184285    1.409    0.290
        79 -11.0606    200.2193    246.4193   8.8636165301e+01   3.5382572306e-01    0.1401859   0.07941279  36.04 0.0003189794    1.539    0.350
