#   1 NUMBER                 Running object number                                     
#   2 MAG_AUTO               Kron-like elliptical aperture magnitude                    [mag]
#   3 X_IMAGE                Object position along x                                    [pixel]
#   4 Y_IMAGE                Object position along y                                    [pixel]
#   5 X_WORLD                Barycenter position along world x axis                     [deg]
#   6 Y_WORLD                Barycenter position along world y axis                     [deg]
#   7 A_WORLD                Profile RMS along major axis (world units)                 [deg]
#   8 B_WORLD                Profile RMS along minor axis (world units)                 [deg]
#   9 THETA_WORLD            Position angle (CCW/world-x)                               [deg]
#  10 FWHM_WORLD             FWHM assuming a gaussian core                              [deg]
#  11 ELONGATION             A_IMAGE/B_IMAGE                                           
#  12 ELLIPTICITY            1 - B_IMAGE/A_IMAGE                                       
         1  -7.0727    208.3808      9.5305   1.1859869376e+01   3.1309633392e+01    0.1311346     0.113344 -79.50 6.399408e-05    1.030    0.029
         2  -7.1408     84.4802      7.4718   3.3127551350e+01   6.1322709957e+01    0.1293162    0.1076825  24.01 0.0001132862    1.001    0.001
         3  -7.5391     99.9991      1.3769   2.6370417812e+01   5.8622278383e+01    0.1878993    0.1057901  53.07 0.0009701388    1.520    0.342
         4  -6.9878     19.3078    245.2747   9.9404310609e+01   2.1875245252e+01   0.08404016   0.07563401 -88.70 0.0002217446    1.549    0.354
         5  -8.1771    231.3193    236.8636   5.9729623203e+01  -8.4750716349e+00     0.189344    0.1406868  34.80 0.0006213172    1.301    0.231
         6  -9.0661    125.0564    235.1808   7.9566490738e+01   9.1982439975e+00    0.1911463     0.164369  73.11 0.0002430247    1.186    0.157
         7  -8.3272     51.3360    234.3586   9.3312412766e+01   2.0135656977e+01    0.1673212    0.1437685  71.89  0.001265079    1.243    0.195
         8  -8.3475    110.7950    230.4588   8.1779029385e+01   1.2329619503e+01    0.2093886    0.1703694 -79.55  0.001013464    1.349    0.259
         9  -6.9807    155.5300    229.4989   7.2856541327e+01   5.0321857903e+00    0.1298556    0.1080102  36.70 0.0008090929    1.065    0.061
        10  -7.4686    232.1439    218.8032   5.6506084262e+01  -6.3059421453e+00    0.1721279    0.1243554   3.98  0.001047587    1.294    0.227
        11  -7.2650    148.7408    215.9762   7.2238007886e+01   8.5152025255e+00     0.171842    0.1632883  42.89 0.0004900417    1.112    0.101
        12  -8.2654     52.4677    210.4370   9.1168261546e+01   2.4650004336e+01    0.2009422    0.1752188 -31.28  0.001349964    1.847    0.459
        13  -8.4213     58.2870    208.0924   8.9806257756e+01   2.4382329862e+01    0.1820247    0.1562636  48.65  0.000480605    1.310    0.237
        14  -7.5262     33.4320    207.6604   9.4615712144e+01   2.7482016208e+01    0.1771374   0.09686521  39.84 0.0006350484    1.822    0.451
        15  -7.6811     87.1980    198.1672   8.2731453256e+01   2.2358744088e+01    0.1805878    0.1680835 -89.52  0.001170922    1.183    0.155
        16  -9.7808    137.9349    183.8573   6.9353054063e+01   1.6645312435e+01    0.2707158    0.2431507 -58.80 0.0005053731    1.198    0.165
        17  -8.0313    143.7850    181.5074   6.7624715046e+01   1.6013018817e+01    0.2398637    0.2032239 -54.13 0.0007024428    1.273    0.214
        18  -6.8443    169.2563    174.7088   6.0695363457e+01   1.2348504559e+01    0.1359388    0.1148037  83.82 0.0001568348    1.489    0.328
        19  -7.6257    143.9660    174.5015   6.6295197600e+01   1.7422270108e+01    0.2220321    0.1368482  43.19 0.0003483391    1.519    0.342
        20  -8.9502     81.3716    172.1016   8.0551043670e+01   2.8966975680e+01    0.2259073     0.198916  53.11 0.0003249983    1.158    0.137
        21  -6.8790    137.2921    172.7315   6.7494870043e+01   1.9091692303e+01    0.1432637    0.1100795  72.68  0.000175082    1.509    0.337
        22  -6.9510    195.7642    161.6754   5.2366289643e+01   9.4177919137e+00     0.143392    0.1101602  -4.40 0.0002083862    1.520    0.342
        23  -8.1329    224.3823    159.1029   4.6217144165e+01   4.1355424605e+00    0.2411207    0.1990025  47.22 0.0004084404    1.326    0.246
        24  -7.8519     46.1195    156.2088   8.6850685919e+01   3.7337867836e+01    0.1820594    0.1582625 -64.06 0.0004967326    1.215    0.177
        25  -7.8139     76.7535    154.4620   7.8996277403e+01   3.3744180699e+01    0.2645018    0.1248318  41.87  0.001148951    2.109    0.526
        26  -7.2928    246.4996    151.9960   4.0766604199e+01   1.1260961131e+00    0.2047862    0.1229893 -30.70 0.0003664491    1.534    0.348
        27  -7.3241    236.7887    148.4961   4.1668557918e+01   3.5152991626e+00    0.1702254    0.1375244  60.35 0.0003109233    1.554    0.357
        28  -7.7224     90.7208    147.9585   7.4312663568e+01   3.3114837713e+01    0.1951557    0.1699668 -70.42 0.0002754018    1.088    0.081
        29  -7.3250     48.8548    147.3954   8.5009549883e+01   3.9087716832e+01    0.1631096        0.129  11.27 0.0009432675    1.747    0.428
        30  -8.9927    150.4390    138.9440   5.7333221426e+01   2.3691829354e+01    0.3642006    0.2748122 -23.66 0.0009726571    1.607    0.378
        31  -8.6313     35.7308    131.1167   8.6156249529e+01   4.4342792288e+01    0.3253259    0.1796401 -80.76 0.0007950804    1.777    0.437
        32  -8.7713     71.9540    127.6555   7.5567152757e+01   4.0819762391e+01    0.3315692    0.2462268  16.92  0.001713547    1.741    0.425
        33  -7.5176    128.9715    123.6946   5.9068155185e+01   3.1638084822e+01     0.209931    0.1953333  50.94 0.0002700364    1.077    0.072
        34  -7.9202     68.0533    118.9879   7.4972833227e+01   4.3432462399e+01    0.2070702    0.1894607 -64.83 0.0003698238    1.020    0.019
        35 -10.4143     57.0496    117.0827   7.7815029632e+01   4.5319802441e+01    0.2264942    0.2149456 -52.92  0.001422586    1.114    0.102
        36  -7.4511    108.0158    105.1919   6.0091831524e+01   4.0028641827e+01    0.1945756    0.1916876  89.59            0    1.045    0.043
        37  -6.6795     85.7074     89.7136   6.2592871352e+01   4.7499487559e+01    0.1427072    0.1093412 -16.31 0.0001975348    1.541    0.351
        38  -7.1962    135.0038     83.0059   4.6389262218e+01   3.8969104666e+01    0.1801245    0.1722361  39.58            0    1.039    0.038
        39  -8.2123    201.7551     81.0633   3.1505477267e+01   2.2983772017e+01    0.2365696    0.2093095  64.31 0.0004172355    1.145    0.127
        40  -6.7561    219.3138     80.3002   2.8408150234e+01   1.8888231923e+01    0.1437824    0.1150737  18.32 0.0001634528    1.610    0.379
        41  -8.1090    128.0644     79.9844   4.7296103760e+01   4.1138882038e+01    0.2167117    0.2153623 -17.59  0.001178267    1.035    0.034
        42  -7.5862     96.7159     79.5670   5.6204893269e+01   4.7710062555e+01    0.1824426    0.1415461  52.16 0.0002222047    1.448    0.309
        43  -7.4678    214.2889     77.9651   2.8607662728e+01   2.0466201643e+01    0.1959784    0.1791386 -46.29 0.0002534451    1.052    0.049
        44  -7.3448    239.9792     72.2280   2.3456495512e+01   1.5428370005e+01    0.1706302      0.11534  64.68  0.000506019    1.585    0.369
        45  -8.9302     99.0736     67.3922   5.1626302332e+01   4.9673601458e+01    0.2942772    0.2307594 -31.87  0.001528833    1.239    0.193
        46  -6.5047    167.5192     60.5026   3.2104912377e+01   3.5014278509e+01    0.1517342    0.1452867  45.90 0.0001232656    1.053    0.050
        47  -7.4425     96.7766     51.5686   4.6910108899e+01   5.2964787733e+01    0.1838122    0.1358439  55.09 0.0004031545    1.569    0.363
        48  -8.2367    147.9508     44.1628   3.1040008671e+01   4.2445306739e+01    0.2224766    0.2062874 -33.29 0.0003437439    1.138    0.121
        49  -8.0554     98.8240     27.1293   3.7076687107e+01   5.6169940955e+01     0.197679    0.1476095  18.69   0.00107446    1.335    0.251
        50  -8.3412    184.9616     22.8846   1.8171261248e+01   3.5711521896e+01    0.2078362    0.1979616 -61.74 0.0003207969    1.113    0.101
        51  -7.2473    135.7376     20.6200   2.5686603542e+01   4.8453029603e+01    0.1860082    0.1267998  70.39 0.0004789801    1.506    0.336
        52 -10.0900    100.5106    246.4662   8.5441148254e+01   1.1124571672e+01    0.2175518    0.1991091  76.62 0.0005447229    1.248    0.199
        53  -7.3040     51.4569    248.0566   9.4263836306e+01   1.7643857513e+01    0.1465581    0.0942058 -79.78 0.0008801623    1.545    0.353
