#   1 NUMBER                 Running object number                                     
#   2 MAG_AUTO               Kron-like elliptical aperture magnitude                    [mag]
#   3 X_IMAGE                Object position along x                                    [pixel]
#   4 Y_IMAGE                Object position along y                                    [pixel]
#   5 X_WORLD                Barycenter position along world x axis                     [deg]
#   6 Y_WORLD                Barycenter position along world y axis                     [deg]
#   7 A_WORLD                Profile RMS along major axis (world units)                 [deg]
#   8 B_WORLD                Profile RMS along minor axis (world units)                 [deg]
#   9 THETA_WORLD            Position angle (CCW/world-x)                               [deg]
#  10 FWHM_WORLD             FWHM assuming a gaussian core                              [deg]
#  11 ELONGATION             A_IMAGE/B_IMAGE                                           
#  12 ELLIPTICITY            1 - B_IMAGE/A_IMAGE                                       
         1 -11.1458    192.7534     54.1804   6.4457552832e+01   2.9791476628e+01     2.730544     1.709401 -22.15  0.008627345    1.905    0.475
         2 -13.4369    208.7782     56.2326   6.3081695519e+01   2.5965768439e+01     9.625916    0.4527036 -33.19   0.01986627    9.761    0.898
         3 -15.4810    222.6699     90.2431   6.9338575618e+01   1.8304614750e+01     2.926416      2.11763  47.61   0.01119481    1.614    0.381
         4 -15.6963    244.0005     94.1899   6.7648222057e+01   1.3947918808e+01     3.018718    0.8958189 -36.76   0.01267783    2.625    0.619
         5 -15.3861    218.3716     68.8489   6.4990631708e+01   2.2224877169e+01     10.02497          nan -40.47   0.02155142    8.936    0.888
         6 -15.5267    214.8116     26.8720   5.5459357733e+01   2.8369615757e+01     2.462663     1.571316 -35.53    0.0142883    1.439    0.305
         7 -15.6414    246.6271     11.1594   5.0040623896e+01   2.3689282779e+01     1.702683    0.9909918  75.67   0.01088228    1.865    0.464
         8 -15.8211    243.8217     67.1557   6.1990015785e+01   1.7620433707e+01      2.16126     1.066792 -76.37  0.009111041    3.850    0.740
         9 -14.7116    247.7089     19.2933   5.1656679730e+01   2.2630764577e+01     1.149219    0.3646744  76.92  0.005350808    3.451    0.710
        10 -16.2863    243.5150     29.8253   5.4098625672e+01   2.2252003099e+01     1.912591     1.230897  41.09   0.01109855    2.500    0.600
        11 -16.2837    244.5328     50.2104   5.8337592916e+01   1.9644814026e+01     1.304852    0.7694235 -49.37  0.007854679    1.377    0.274
        12 -15.7941    246.7671     38.6913   5.5744742548e+01   2.0621951023e+01     1.204828    0.8601353  37.84  0.007515111    2.171    0.539
        13  99.0000    164.8864     21.2532   5.8656004187e+01   4.0744563630e+01     1.235075    0.6565972 -15.49  0.005345105    2.604    0.616
        14 -13.5166    133.6269     71.2980   7.9789878721e+01   4.1386977471e+01     4.199162      2.45671  65.92   0.01715129    1.913    0.477
        15 -14.6531    134.7381     23.0086   6.3348070001e+01   4.8378361062e+01     5.312981     4.001606 -44.17   0.02827596    1.359    0.264
        16 -10.3594    159.8180      3.4938   5.3817593712e+01   4.3840120933e+01    0.3585995     0.242685 -39.37 0.0008409044    1.464    0.317
        17  -9.6050    173.6867     19.7547   5.7266505177e+01   3.8708097575e+01    0.4225283    0.2629887 -29.72  0.001699399    1.681    0.405
        18 -10.1031    190.0958      6.8174   5.2322149398e+01   3.6095115295e+01     0.189547    0.1522933 -50.38 0.0003677503    1.154    0.134
        19 -11.7804    184.5841     10.1955   5.3630638434e+01   3.7064840355e+01    0.2562062    0.1943685 -58.79 0.0003666241    1.136    0.120
        20  -7.9379    192.4658     11.4593   5.3354821860e+01   3.5071605209e+01    0.4545079    0.2295638 -14.15  0.002017418    2.918    0.657
        21  -9.4773    189.2605     10.6821   5.3395382721e+01   3.5903738151e+01    0.1856347    0.1746675   6.18  0.000808963    1.413    0.292
        22  -9.6167    198.9216      9.2246   5.2322513002e+01   3.3809782052e+01    0.3161902    0.1548716 -80.93 0.0008695144    2.036    0.509
        23  -8.9883    171.0493      9.6746   5.4629992482e+01   4.0422627440e+01    0.1891519    0.1831381 -38.49 0.0003816086    1.254    0.202
        24 -10.0508    165.8774      4.9719   5.3719845466e+01   4.2170790962e+01    0.4107865    0.2769046 -18.59  0.001537313    1.791    0.442
        25  -9.0365    178.6156      7.0282   5.3242720058e+01   3.8821217416e+01    0.1855902    0.1195485 -41.87 0.0005907913    1.440    0.306
        26  -8.0755      2.0000      5.0312   1.1529118286e+02   7.8742586666e+01    0.1908298   0.06261956 -58.60 0.0008062951    2.969    0.663
        27  -9.2968    175.0618      1.8221   5.2071097405e+01   4.0182612407e+01    0.1852393    0.1488765 -68.77 0.0003152409    1.049    0.047
        28  -8.6229    170.7999     89.3062   7.7112343135e+01   2.9279634686e+01    0.2764589    0.2539387 -71.62 0.0007548057    1.090    0.083
        29  -9.7265    179.1443    151.2777   8.9951078124e+01   1.6345971459e+01     0.494997    0.4012625  54.31  0.002475677    1.462    0.316
        30  -9.6844    199.4313    147.9781   8.5419535105e+01   1.3370459584e+01    0.4361896    0.2447938 -20.96  0.001993851    2.177    0.541
        31 -10.1113     66.8654    145.0961   1.1853640239e+02   3.7704722574e+01     0.478955    0.2425287  39.48  0.001820711    1.806    0.446
        32  -9.0343     55.9264    142.1185   1.2167020254e+02   3.9980844838e+01     0.258844    0.2122287 -55.79 0.0004854744    1.288    0.224
        33  -9.3906    187.0051    135.1398   8.5006109646e+01   1.7771399062e+01    0.6018073    0.2236356 -44.92 0.0006861337    2.742    0.635
        34  -9.8113    182.7513    134.4485   8.5668890891e+01   1.8692281085e+01    0.6140737    0.3410011 -30.15  0.002747844    1.929    0.482
        35  -9.3426    198.3018    136.6640   8.3268029446e+01   1.5448816396e+01    0.2693274    0.2450652  56.65 0.0007244374    1.306    0.234
        36 -10.8657    189.9187    130.2026   8.3384464874e+01   1.8087102026e+01    0.7084911    0.5050485 -75.48  0.003305605    2.352    0.575
        37  -9.1191    187.5942    125.2192   8.2705508217e+01   1.9398549238e+01    0.4804619    0.2171666 -33.83  0.001953082    2.262    0.558
        38  -7.7589    133.3230    142.6577   9.8573317338e+01   2.6675404709e+01    0.1538757    0.1196219  78.31 0.0007050622    1.729    0.422
        39  -7.5741    172.4514    133.0116   8.7406984859e+01   2.0933925723e+01    0.2131593    0.1357312 -39.59  0.000877856    1.535    0.348
        40 -10.0876    195.7643    140.7468   8.4583919113e+01   1.5214237258e+01    0.6327632    0.3363428  37.52  0.002477922    2.012    0.503
        41  -8.4466    172.6391    127.8946   8.6215933389e+01   2.1849333402e+01    0.2612199    0.1909861  33.39  0.001317138    1.446    0.309
        42  -8.2008    165.6260    126.0632   8.7256746035e+01   2.3604693125e+01    0.3421905    0.1355729 -42.46  0.001254688    2.484    0.597
        43  -8.2451    151.0397    117.9975   8.8576828743e+01   2.8227659652e+01    0.2254157    0.2197714  82.09 0.0003815053    1.065    0.061
        44  -9.3024    168.0115    114.3795   8.3991794604e+01   2.5325442280e+01    0.3816721    0.2719493 -20.42   0.00180537    1.678    0.404
        45  -8.1614    159.0777    108.7795   8.4492719862e+01   2.8308194494e+01    0.2979977    0.2205804 -72.46  0.000950647    1.765    0.433
        46  -9.2431    134.8522    108.1599   9.0035671573e+01   3.3775660260e+01    0.3432365    0.2786723  89.49  0.001633091    1.510    0.338
        47  -9.0338    177.2655    105.5295   8.0012994250e+01   2.4983873669e+01    0.2643225    0.2405526 -16.57 0.0002541046    1.147    0.128
        48  -7.8575    170.4831    106.4856   8.1558655338e+01   2.6263349237e+01    0.2989303     0.139175 -39.84  0.001184745    2.075    0.518
        49  -9.6328    183.4131    102.5840   7.8166724958e+01   2.4199302713e+01    0.3776843    0.2971618 -20.46 0.0007204807    1.392    0.282
        50  -8.5691    180.0318     97.6841   7.7564249569e+01   2.5771977599e+01    0.3625923    0.1889953 -41.08 0.0005824712    1.803    0.445
        51  -7.9329    173.4415    103.5106   8.0241843431e+01   2.6165965136e+01    0.2490202    0.1961653  23.54 5.356374e-05    1.533    0.347
        52  -8.6371    176.2414    100.7665   7.9027336931e+01   2.6051162007e+01    0.3006006    0.2722974 -77.78   0.00073925    1.182    0.154
        53  -8.5882    165.4941    107.0026   8.2694464247e+01   2.7247455542e+01    0.2638398    0.2145469  52.42 0.0004855557    1.265    0.209
        54  -9.9995    144.6518    104.2443   8.6595404201e+01   3.2398815279e+01    0.5021208    0.3277692  51.55  0.001644297    1.541    0.351
        55  -9.1400    162.6637     93.8399   7.9887534783e+01   3.0316983782e+01    0.3384086    0.2642247  63.12  0.001704542    1.346    0.257
        56  -7.9598    166.7323    102.6475   8.1345625797e+01   2.7786465610e+01    0.2405191      0.20177 -34.86 0.0006619259    1.185    0.156
        57 -10.3066    168.2330     96.9325   7.9586377165e+01   2.8498841935e+01    0.4246058    0.3265204 -14.73 0.0002610691    1.599    0.375
        58  -9.6445    131.6735    102.9998   8.9492582479e+01   3.5570305738e+01    0.3458487    0.2269428  47.15 0.0006399468    1.499    0.333
        59  -8.1239    103.8073    101.1611   9.6993969857e+01   4.2075942468e+01    0.2257578    0.2101133  73.10 0.0004137825    1.092    0.084
        60 -10.1843    122.6526     99.3450   9.0919559985e+01   3.8372701441e+01    0.4379905    0.3146721  45.75  0.001998967    1.364    0.267
        61  -8.9448    202.3030    168.0487   8.8841408768e+01   9.6602427182e+00    0.2446323    0.1648133  16.47 0.0007649219    1.574    0.364
        62 -10.6135    171.3980     51.8900   6.6746069809e+01   3.5166188794e+01     0.751282     0.385074  86.31  0.001709555    2.782    0.641
        63  -8.8478    200.7654    164.7628   8.8494824158e+01   1.0422716595e+01    0.2888271    0.1716191  62.26  0.001168526    3.832    0.739
        64  -6.9491    215.6306    163.2756   8.5619623279e+01   8.3581734553e+00    0.1100384     0.100989 -84.66 0.0007005922    1.680    0.405
        65 -10.7865    166.8309     59.7788   6.9708674702e+01   3.5103882009e+01    0.7602851    0.7164537  19.90  0.002343105    1.265    0.209
        66  -9.7049    106.6585     87.2407   9.2121081685e+01   4.4583147900e+01    0.3405079    0.2913645 -45.99 0.0008768064    1.205    0.170
        67 -15.7095    233.2634     73.6731   6.4442694685e+01   1.8675444383e+01      1.93699    0.9924182  82.97  0.008757092    3.211    0.689
        68  -7.6168     55.4950     79.9981   1.0918701647e+02   5.6157462217e+01    0.2225679    0.1455697 -57.92 0.0005498642    1.526    0.345
        69  -8.3883     62.0836     78.8395   1.0597305477e+02   5.5386728051e+01    0.3642963    0.2224945  32.97  0.001594653    1.646    0.393
        70  -8.1666    168.5175     75.0649   7.3705176549e+01   3.2245196797e+01    0.2873298    0.2022171  80.06  0.001365026    1.646    0.393
        71 -10.5965    161.3115     50.0329   6.7765113417e+01   3.7930846898e+01     0.804455    0.2738374  53.32  0.001805891    2.920    0.658
        72  -9.6836    182.0187     71.2795   7.0439527149e+01   2.9711366904e+01    0.2352846    0.1913759 -40.60 0.0003170007    1.174    0.148
        73  -8.7956    175.4077     94.2088   7.7527391673e+01   2.7389176887e+01    0.3274465    0.2287785 -53.92  0.001088831    1.482    0.325
        74  -7.0319    177.5183     65.5493   6.9606086477e+01   3.1650978693e+01    0.1809035    0.1380764 -25.86 9.311157e-05    1.444    0.308
        75  -7.9344     43.9869     95.3030   1.1800353780e+02   5.3841753956e+01    0.2024581    0.1941446  42.26 0.0004436057    1.062    0.059
        76  -8.5563    177.5695     60.2094   6.8143954709e+01   3.2452969508e+01     0.399093    0.2606968  42.25 0.0004495374    1.879    0.468
        77 -11.4266    181.3054     53.9390   6.5897230574e+01   3.2487548186e+01    0.4172216    0.2745808 -55.20  0.001174355    1.467    0.318
        78  -7.8205    173.8512     47.4757   6.5142433422e+01   3.5194727921e+01    0.1975712    0.1314156  64.53 0.0009840898    1.491    0.329
        79  -9.9860    172.0636     41.1074   6.3575967035e+01   3.6502754891e+01    0.2220232    0.1907208 -87.81 0.0003043519    1.081    0.075
        80  -9.4655    189.6095     38.2007   6.0640870632e+01   3.2659237549e+01    0.1876831    0.1488249 -30.31 0.0004481073    1.346    0.257
        81  -9.2210    185.6595     33.2981   5.9762423343e+01   3.4207945124e+01    0.3662916    0.1637774 -52.18  0.001576858    2.153    0.535
        82 -10.0437    195.5184     31.5711   5.8295525368e+01   3.2108423881e+01    0.2200107    0.1867622 -70.80 0.0005686496    1.032    0.031
        83 -11.0069    192.1376     32.8186   5.8955437463e+01   3.2740394405e+01    0.2164295    0.1769398 -50.51            0    1.113    0.102
        84 -10.2745    192.6597     29.2116   5.7960109093e+01   3.3054039317e+01    0.2267503    0.2081113 -39.94 0.0004548037    1.217    0.178
        85  -8.9440    177.7556     32.4248   6.0406732721e+01   3.6221910776e+01    0.2366175    0.2044259 -64.94  0.001203908    1.036    0.035
        86  -9.2540    169.7129     30.4594   6.0801056798e+01   3.8449612334e+01    0.2289772    0.2089741 -31.79 0.0006178067    1.244    0.196
        87  -8.2551    197.2115     27.0616   5.6978590392e+01   3.2254791173e+01    0.1700177    0.1230334 -57.85 0.0004677655    1.192    0.161
        88  -9.8501    185.0987     26.7061   5.8039992793e+01   3.5135873473e+01    0.2143426    0.1688831 -36.91 0.0005776917    1.286    0.223
        89  -9.0169    189.2406     25.5308   5.7319724477e+01   3.4288718499e+01    0.1656324    0.1493874 -45.24 0.0002563338    1.186    0.157
        90  -8.5927    202.8812    161.7171   8.7528154495e+01   1.0573116270e+01    0.2269947    0.1816962  55.95  0.001338127    1.694    0.410
        91  -8.1443    185.7880     20.7641   5.6370329862e+01   3.5651285643e+01    0.1055802   0.09824853  46.24 0.0006514365    1.349    0.259
        92  -7.7231    181.3026     19.8788   5.6549824405e+01   3.6828848023e+01    0.1538085    0.1188762 -26.19 0.0005672705    1.456    0.313
        93  -7.7309    227.4251    160.4702   8.3177791023e+01   7.0303878120e+00    0.1223716   0.09957736 -14.47 9.265219e-05    1.018    0.017
        94  -9.9412    230.6602    246.5685   9.6754799685e+01  -4.3575461401e+00     0.243227    0.1427196 -24.07  0.001741427    1.563    0.360
        95 -14.7338    225.9223     35.8232   5.6663870063e+01   2.4996810224e+01    0.6185445    0.4484031  56.29  0.003071835    1.689    0.408
        96 -13.9111    205.8933     75.6593   6.8129967926e+01   2.3798570732e+01     1.444079     1.211324  78.32  0.008718941    1.291    0.225
        97  -9.1382    222.4910    243.5044   9.7661303230e+01  -3.1697025774e+00     0.182608   0.08377147  27.15  0.001109947    1.827    0.453
        98 -10.0747    244.2471    246.4193   9.4592661092e+01  -5.6878793043e+00    0.1847853   0.09967497  23.77 0.0007451665    1.580    0.367
        99  -8.3018     45.7094    159.7549   1.2716076512e+02   3.6729129992e+01    0.2381798   0.08394835  38.03 0.0008972682    2.365    0.577
       100 -10.1109     58.5497    152.7184   1.2229933470e+02   3.6912697951e+01    0.4750976    0.2303999 -72.90  0.001927504    2.225    0.551
       101  -9.3724     52.5821    155.3209   1.2451243148e+02   3.7020100734e+01    0.2558793    0.1667603  42.26  0.001031403    1.396    0.284
       102  -8.7000     52.5025    151.5100   1.2406095547e+02   3.8000850644e+01    0.2130886    0.1353345 -89.60 7.907135e-05    1.728    0.421
