#   1 NUMBER                 Running object number                                     
#   2 MAG_AUTO               Kron-like elliptical aperture magnitude                    [mag]
#   3 X_IMAGE                Object position along x                                    [pixel]
#   4 Y_IMAGE                Object position along y                                    [pixel]
#   5 X_WORLD                Barycenter position along world x axis                     [deg]
#   6 Y_WORLD                Barycenter position along world y axis                     [deg]
#   7 A_WORLD                Profile RMS along major axis (world units)                 [deg]
#   8 B_WORLD                Profile RMS along minor axis (world units)                 [deg]
#   9 THETA_WORLD            Position angle (CCW/world-x)                               [deg]
#  10 FWHM_WORLD             FWHM assuming a gaussian core                              [deg]
#  11 ELONGATION             A_IMAGE/B_IMAGE                                           
#  12 ELLIPTICITY            1 - B_IMAGE/A_IMAGE                                       
         1 -13.1846     30.0275     59.2329   9.9285146808e+01   6.2990099580e+01     1.148191    0.8562443  29.23  0.001847179    1.466    0.318
         2 -10.2620     46.8054     16.6183   7.2350712541e+01   6.8247896975e+01    0.2786219    0.1760242 -21.21 0.0008031125    1.612    0.380
         3 -11.5429     41.7501     21.2028   7.7254907057e+01   6.8479715073e+01    0.5971634    0.3195574  32.63  0.002430863    1.693    0.409
         4 -12.5582    216.2733     13.7910   3.7475202522e+01   2.9754552364e+01    0.6124191    0.3621877  80.31  0.001174857    1.610    0.379
         5 -13.5085    186.3445      7.0394   3.8276544717e+01   3.6914644365e+01    0.9487764    0.5093303 -75.39   0.00491614    1.917    0.478
         6 -10.8292     66.5272     11.0083   6.1261434455e+01   6.5039274851e+01    0.4115281     0.171728  53.16  0.001809356    2.112    0.527
         7 -11.7673     43.6514      8.5392   6.9476176333e+01   6.9787669851e+01    0.3400668    0.2322879  44.89  0.000994001    1.465    0.318
         8 -11.4258     57.2704      6.7417   6.2538462877e+01   6.7376249626e+01    0.4627781    0.3854877 -35.17  0.002023371    1.520    0.342
         9 -11.4801    165.4575      1.7610   3.8814863932e+01   4.2225320980e+01    0.4182692    0.1513054  66.66   0.00137698    2.286    0.562
        10 -10.2242    109.5212      8.5417   4.8745658046e+01   5.5325163463e+01    0.1339622    0.1148341  59.73 0.0004546983    1.017    0.016
        11 -10.2076    104.2377    225.4438   1.0642059298e+02   1.3600914800e+01    0.2271882    0.1876811 -57.23  0.001226551    1.412    0.292
        12 -10.3187      7.5765    250.6875   1.2957417118e+02   1.9663540603e+01    0.1885699   0.08255785  30.18   0.00107205    1.989    0.497
        13 -11.4353     95.8237    223.7814   1.0820639358e+02   1.5079631243e+01    0.4462746    0.3082953 -44.23  0.002473324    1.671    0.402
        14 -10.8481    232.2525    223.5653   7.9064157578e+01  -3.5409238817e+00    0.2118279     0.100603  32.19  0.001149048    2.116    0.527
        15 -11.1784    239.7003    215.5244   7.6403808798e+01  -3.3217720924e+00    0.3400793    0.1075383 -37.52  0.001517185    2.894    0.654
        16 -10.3638    233.2817    219.6447   7.8218934919e+01  -3.1296680025e+00    0.1009932   0.09091876 -26.68 0.0004341278    1.661    0.398
        17  -9.6633     21.7582    218.9792   1.2511569534e+02   2.4678186373e+01    0.1551983   0.09353928 -81.19 0.0008947885    1.646    0.392
        18 -10.1390    211.4144    217.7684   8.1881760330e+01  -1.5842952364e-01    0.2239093    0.1105379 -40.45  0.001136069    2.142    0.533
        19 -10.6384    149.3161    222.4538   9.5580651860e+01   7.7217798076e+00    0.4192554    0.1673909 -48.67  0.001766089    2.862    0.651
        20 -11.0722    230.4603    213.9729   7.7738675676e+01  -2.0061867299e+00    0.2313823   0.09883436 -31.56 0.0007137301    2.076    0.518
        21 -10.3661    217.9018    211.9674   7.9659484773e+01  -1.4117467054e-01     0.164847    0.1635108  38.60  0.001139958    1.764    0.433
        22 -10.1843    236.3060    209.9752   7.6021317349e+01  -2.1557474660e+00    0.1770657    0.1271264 -14.43   0.00113306    1.084    0.078
        23 -10.1833    116.2717    209.0568   1.0130537998e+02   1.5153093810e+01     0.394821     0.123498 -54.79  0.001389953    3.581    0.721
        24 -11.5848     50.2404    201.8547   1.1700730805e+02   2.5534632106e+01     0.497261     0.265098  54.39  0.002382926    1.900    0.474
        25 -10.3124    112.4929    197.9981   1.0057490723e+02   1.8030846643e+01    0.1917124     0.128065  87.99 0.0008106325    2.618    0.618
        26 -12.1508    159.8494    191.7751   8.8004359775e+01   1.1775692993e+01    0.7035146     0.534216  79.15  0.003253671    2.586    0.613
        27  -9.5299    133.3174    195.6665   9.5000627465e+01   1.5270935965e+01    0.1406866    0.1110794  62.44 0.0004523385    1.692    0.409
        28  -9.7057    215.4474    193.9491   7.6858799486e+01   2.9328398894e+00     0.165353    0.1096281 -55.03 0.0008083016    2.594    0.615
        29 -10.0942     34.3302    186.8448   1.1970252995e+02   3.0720179206e+01    0.2626356    0.1160586 -85.13  0.001084467    2.601    0.615
        30 -10.2941    183.0370    182.7841   8.1168739618e+01   9.7010868114e+00    0.3637302    0.1813922 -37.27  0.001622086    1.941    0.485
        31  -9.8889    191.9830    178.4897   7.8462017075e+01   9.0318165278e+00    0.1776289    0.1205979  57.59 0.0008100393    2.505    0.601
        32  -9.5705     28.7559    176.4541   1.2025191112e+02   3.3760822472e+01    0.1621039    0.1281937   1.44 0.0004731641    1.533    0.348
        33  -9.3796     12.5139    176.5230   1.2460979754e+02   3.5121106746e+01     0.128256    0.1094679  74.19 0.0001295084    1.040    0.039
        34  -9.4732    159.3405    175.6456   8.5036023191e+01   1.5010709448e+01    0.1419114    0.1192001  76.03 0.0007040928    1.811    0.448
        35  -9.3948     76.3194    175.0064   1.0675850732e+02   2.8621103147e+01    0.2280238    0.1173975  88.57 0.0007037467    4.194    0.762
        36 -10.5091     38.4330    174.7849   1.1742202062e+02   3.3231210969e+01    0.1925948    0.1150113 -59.21 0.0007170998    1.639    0.390
        37 -10.5926     34.7701    173.9790   1.1835892203e+02   3.3795581463e+01     0.213434    0.1284004  51.19  0.001058068    1.647    0.393
        38 -10.0199      2.5477    173.0574   1.2699013293e+02   3.6674572122e+01     0.194191   0.07941068  71.52 0.0008085119    2.676    0.626
        39 -11.3167     44.7676    170.2839   1.1513525911e+02   3.3682909062e+01    0.5548487     0.237571 -78.51  0.002134512    2.717    0.632
        40 -11.6242     55.2481    167.9305   1.1181504204e+02   3.3082549897e+01    0.5007397    0.2996044  79.52  0.001804335    2.189    0.543
        41  -9.7216    168.3157    169.6381   8.1760354035e+01   1.4642752395e+01    0.1386168    0.1199745  87.74  0.000704187    1.761    0.432
        42 -10.4973    149.1886    198.0464   9.1604765491e+01   1.2273553707e+01    0.2125026    0.1734446  89.18  0.001087187    1.998    0.500
        43  -9.8081    138.8103    164.9734   8.7884144742e+01   2.0835679103e+01     0.236773     0.185099 -86.07 0.0009282805    1.988    0.497
        44 -10.2274     79.1939    163.3672   1.0410447614e+02   3.1071229375e+01    0.3212346    0.1778121  89.73  0.001084974    3.468    0.712
        45 -10.0981     92.9745    160.9745   9.9652885557e+01   2.9581235821e+01    0.3128271     0.169266  66.81 0.0009534196    4.087    0.755
        46 -11.2588    107.3178    158.8202   9.5121506966e+01   2.7754433912e+01    0.6509341    0.2819674  47.22  0.002241105    2.730    0.634
        47 -10.4456     22.3837    159.2893   1.2043470579e+02   3.8584636147e+01     0.364795    0.1675503  64.03  0.001476127    2.685    0.628
        48 -11.3745    118.5412    157.4741   9.1713309423e+01   2.6127295405e+01    0.4307711    0.3331864 -39.47  0.001119717    1.313    0.238
        49 -10.6857    167.4805    157.4740   7.9387707857e+01   1.7189387999e+01     0.312729    0.2392172  87.15   0.00138529    2.408    0.585
        50 -10.1518    218.3941    155.1878   6.8697826098e+01   8.7972739105e+00    0.1913559    0.1122235 -43.36 0.0009358919    1.695    0.410
        51 -10.2418     51.8634    160.0263   1.1175291835e+02   3.5473142119e+01    0.2489606    0.1989613  37.17  0.000887563    1.247    0.198
        52  -9.6383     23.4772    153.5454   1.1953471421e+02   3.9949764146e+01    0.1344596    0.1207883  83.53 0.0001055288    1.046    0.044
        53  -9.9928    189.8201    150.5684   7.3092781707e+01   1.4461832123e+01    0.2517001    0.1927765 -73.90  0.001194923    2.198    0.545
        54  -9.6378     98.3253    150.6591   9.6107565895e+01   3.1228856210e+01    0.1590956    0.1202877  69.33 0.0007051192    1.731    0.422
        55 -10.9432    107.3356    145.9303   9.2474542258e+01   3.0825327879e+01    0.5882858    0.3330022  66.14  0.001803524    3.995    0.750
        56 -10.3708     55.6008    145.6968   1.0846447517e+02   3.8705253937e+01    0.4291492    0.2178486  65.54  0.001466185    3.379    0.704
        57  -8.7910    195.6525    146.3082   7.1004947694e+01   1.4195925540e+01    0.1337041    0.1145965 -77.93 0.0004318516    1.704    0.413
        58 -10.0708    148.4475    145.3008   8.1199830302e+01   2.3277029620e+01    0.3244599    0.2313842  75.34  0.001300346    2.497    0.600
        59 -10.0348    124.5244    143.0269   8.6947898041e+01   2.8362664720e+01     0.217768    0.1431232 -75.07 0.0008101813    2.606    0.616
        60 -10.0884    181.6021    141.7694   7.2825383139e+01   1.7620725306e+01    0.2091085    0.1314053 -47.99 0.0009487337    1.698    0.411
        61 -11.9453     98.6730    128.3035   9.1138527377e+01   3.6614932869e+01     1.057325    0.6169767  63.58   0.00360316    3.123    0.680
        62 -10.0737    132.1715    132.0049   8.2280611173e+01   2.9367544273e+01    0.2531407    0.1879983 -75.79  0.001076009    2.000    0.500
        63 -11.2834     93.5936    121.7476   9.1184845186e+01   3.9106832833e+01    0.8590459    0.2589361  40.07  0.001079893    3.277    0.695
        64 -11.2060     43.5055    122.3713   1.0860927752e+02   4.6154989622e+01    0.8624117    0.4605514  79.35  0.002998935    3.455    0.711
        65 -10.7924     83.2468    131.9021   9.6874644136e+01   3.8344372129e+01    0.4129606    0.2832174 -76.95  0.001568401    1.915    0.478
        66  -9.9716     58.9694    124.4802   1.0352787529e+02   4.3771094851e+01    0.3077033    0.1738444  73.19  0.001033307    3.478    0.713
        67 -11.0649     27.7874    121.9451   1.1416342150e+02   4.7769049105e+01    0.7064748    0.3127857  74.05  0.002052799    5.188    0.807
        68 -11.9272    193.2943    118.2222   6.5059795276e+01   1.9703058145e+01    0.6135623    0.4174197 -64.25  0.002577083    2.101    0.524
        69 -10.1994     71.1415    120.2508   9.8376782461e+01   4.3151580260e+01    0.3531668    0.2398556  80.21  0.001436458    2.321    0.569
        70 -11.0902    141.5524    115.0214   7.5537945487e+01   3.1099760000e+01    0.7715897    0.3081918 -41.16  0.002653438    2.500    0.600
        71 -10.5709    108.4076    112.9210   8.4267448407e+01   3.8414846993e+01    0.6808149    0.2638196 -57.38  0.001894951    4.082    0.755
        72 -10.9922     78.6484    112.3486   9.3893319614e+01   4.3948743569e+01    0.5467277    0.3217933 -84.03  0.001699129    4.025    0.752
        73 -11.9111    159.7595    111.6132   7.0283867749e+01   2.7885577256e+01    0.6280954    0.3583037 -52.00  0.002321613    2.019    0.505
        74 -10.3401     92.0913    111.9523   8.9217285737e+01   4.1729997332e+01    0.4937228    0.2627837 -63.98  0.001741167    2.678    0.627
        75 -11.5335     14.8220    109.5857   1.1709845889e+02   5.1928027477e+01    0.7133723    0.4218342 -87.38  0.003418329    1.835    0.455
        76 -10.0617     71.6367    115.6056   9.7139899442e+01   4.4245038504e+01    0.3104492     0.207247 -19.01 0.0007546506    1.903    0.474
        77 -12.3845    140.8368    104.8481   7.3003576017e+01   3.3346983748e+01    0.5350934    0.4726488 -80.66  0.002701878    1.373    0.272
        78 -11.9246     44.8048    100.5924   1.0374072908e+02   5.1600016184e+01     0.814561      0.49749 -87.85  0.003302636    2.563    0.610
        79 -11.8129    150.3859    103.5721   7.0327984527e+01   3.1499783072e+01    0.3936275     0.268053 -71.01  0.001591284    2.322    0.569
        80 -11.8776    127.4448    100.9865   7.5451663686e+01   3.7065493386e+01    0.5088217    0.2947634 -44.19  0.002093593    1.748    0.428
        81 -10.9364    174.0455    110.4140   6.6905488260e+01   2.5065291838e+01    0.4063464    0.2770099 -46.06  0.001115519    1.467    0.318
        82 -12.5650    109.2479     99.3915   8.0275797188e+01   4.1269645029e+01     1.154165    0.6745242  63.71  0.004001664    2.980    0.664
        83 -10.6157     94.6108     97.2419   8.4346484729e+01   4.4668778373e+01    0.3556838    0.2038959 -60.92  0.001336782    2.377    0.579
        84 -11.0415     62.9872     95.9440   9.5433072046e+01   5.0379497597e+01    0.4450432    0.2636705 -81.89  0.001515017    3.538    0.717
        85 -12.9252    169.7584     91.3276   6.2842587001e+01   2.9457193691e+01    0.5723344    0.3430374 -42.08   0.00156732    1.621    0.383
        86 -10.7087     20.8954     99.7575   1.1317577853e+02   5.4033158249e+01    0.6447195    0.2930068  76.89  0.001846963    5.712    0.825
        87 -10.2085      4.4856     91.5146   1.1853869285e+02   5.7084535998e+01    0.2425982    0.1172021 -87.41  0.001033742    2.430    0.588
        88 -10.7163     34.3986     87.2262   1.0495522328e+02   5.6027002249e+01    0.8183138    0.2004619 -56.52  0.002693547    3.175    0.685
        89 -11.3889     87.2276     87.0808   8.3854885912e+01   4.8331195758e+01    0.5441936    0.3348797  53.15  0.002244942    2.027    0.507
        90 -11.0895     46.5366     82.8176   9.8585683084e+01   5.5745980469e+01    0.6233764     0.402593  74.84  0.002285978    3.095    0.677
        91 -10.9966    104.3486     83.0880   7.6897204578e+01   4.5727872411e+01    0.4238584    0.3017319 -62.69  0.001857325    1.879    0.468
        92  -9.6064    140.6749     83.3452   6.6951125892e+01   3.7535854893e+01    0.1567802    0.1210056 -77.17 0.0007050369    1.742    0.426
        93 -10.8559     23.9144     80.1024   1.0792489186e+02   5.8704011869e+01    0.4738287    0.2312113 -76.20  0.001886089    2.729    0.634
        94 -10.3424      8.7293     80.3657   1.1485488053e+02   5.9643508417e+01    0.2471398    0.1570329 -81.79   0.00126672    1.718    0.418
        95  -9.3198    152.3385     78.3187   6.2842839122e+01   3.5710460619e+01    0.1543915     0.115637  17.60 0.0007049381    1.708    0.415
        96  -9.5848      1.5518     77.9249   1.1765974133e+02   6.0569713990e+01    0.2030916    0.1075875 -65.24  0.001016276    1.571    0.364
        97 -10.9557     62.2802     71.8356   8.8545285178e+01   5.6008479002e+01    0.6150852    0.1890833 -50.78  0.001957326    3.436    0.709
        98 -11.1583     82.2333     73.0398   8.1131820957e+01   5.2245849735e+01    0.4157192     0.279247 -73.61  0.001606058    2.883    0.653
        99  -9.9008     95.0000     71.9945   7.6310370926e+01   4.9895440775e+01    0.2468628   0.08619424 -41.35  0.000801608    2.937    0.659
       100 -10.5581     51.4145     70.4244   9.2753414369e+01   5.7940984061e+01     0.353378     0.251615 -76.87  0.001479052    2.229    0.551
       101 -11.0634     42.1950     63.2579   9.4632735385e+01   6.0728153873e+01    0.3492913    0.3091404 -56.49 0.0009139882    1.315    0.240
       102 -11.4301    220.5698    248.3227   8.5158333814e+01  -5.4481907423e+00    0.4072857    0.2440338  27.93  0.002599716    1.586    0.369
       103 -11.8115     20.8227     51.1291   1.0150058279e+02   6.5614450079e+01    0.6420259    0.3262952 -46.53  0.003152608    1.670    0.401
       104 -10.3608    196.7640     67.1656   5.2050794799e+01   2.7348594383e+01    0.3264565    0.1805615  54.60  0.001316454    1.890    0.471
       105 -12.1671    238.8623     64.6212   4.6414753397e+01   1.9220736759e+01    0.4258212    0.2700002  89.68  0.002412661    1.989    0.497
       106 -12.0070    231.2982     60.0653   4.6216948212e+01   2.1254598660e+01    0.4888547    0.2689775 -58.82  0.001550785    1.903    0.474
       107  -9.8424    115.8206     72.9715   7.0225266678e+01   4.5156995983e+01     0.250926    0.1781049 -65.81  0.001083088    2.002    0.501
       108 -11.3936      9.1499     55.8203   1.0921857713e+02   6.5420014195e+01    0.4879465    0.4247675 -88.53  0.003082326    1.463    0.317
       109 -10.2258     54.0254     53.9400   8.5782582900e+01   6.0974908476e+01     0.403602     0.203811 -59.26  0.001460222    3.498    0.714
       110 -10.4011     41.3653     53.6090   9.1665279024e+01   6.2861028819e+01    0.3660812    0.1906576  41.25  0.001614884    2.294    0.564
       111  -9.8500    161.6520     53.2618   5.3820264522e+01   3.7414009942e+01    0.2604607    0.1699028  76.81 0.0008401571    1.713    0.416
       112 -10.9290    149.3222     52.9123   5.5955760414e+01   4.0439962094e+01    0.2475777    0.1936446  76.18  0.000523134    1.335    0.251
       113 -10.2456     91.8046     49.9296   6.9451870728e+01   5.4492709012e+01    0.3966159     0.155184 -44.41  0.001397707    3.074    0.675
       114 -10.0065    154.0545     48.2160   5.3675370527e+01   3.9945926889e+01    0.2078165    0.1811666  41.90 0.0004403968    1.202    0.168
       115 -10.8749     10.2433     43.8298   1.0511344855e+02   6.7981180400e+01    0.4204268     0.185648   6.03  0.001594174    2.469    0.595
       116 -10.5782      4.5297     41.4771   1.0776533352e+02   6.8826413035e+01    0.3137072    0.2802037 -72.11  0.001396449    1.404    0.288
       117 -11.4293     74.6840     43.2621   7.2842634152e+01   5.9150931513e+01    0.6193415    0.4199088  75.72  0.002506183    3.127    0.680
       118 -10.8541     38.0073     40.2730   8.8132046384e+01   6.5893749976e+01     0.282968    0.2268113   0.30  0.001673522    1.091    0.084
       119  -9.5663     41.9874     36.2333   8.4316969045e+01   6.6056004702e+01    0.1716795    0.1030537  29.85 0.0004248963    1.578    0.366
       120  -9.7012     47.9890     35.0426   8.0781211720e+01   6.5333375404e+01    0.2178346    0.1450049  -4.38 0.0007791104    1.647    0.393
       121 -10.3271    109.2636     31.8597   5.7584747445e+01   5.3000775532e+01    0.3603373    0.2435732 -74.12  0.001636811    2.267    0.559
       122 -10.8231    103.8315     30.2117   5.8331860453e+01   5.4498814498e+01     0.501829    0.2609969  63.73  0.001076269    1.998    0.500
       123 -10.2705     73.4041     32.5085   6.8760138396e+01   6.1017691721e+01    0.2730464    0.2058003  80.98  0.001319529    2.262    0.558
       124 -11.4011     22.1690    248.5928   1.2661023715e+02   1.8716932527e+01    0.2326109    0.1934287   4.44  0.001678153    1.598    0.374
       125  -9.1358     70.3004    246.3297   1.1633133997e+02   1.3962466419e+01     0.113462   0.09061061 -12.74 0.0007031576    1.644    0.392
       126 -10.0473     39.5519     14.9547   7.5100820411e+01   6.9701058429e+01    0.2934413    0.1748848  -2.37 0.0009960668    1.960    0.490
       127 -12.1995    204.2393     21.3060   4.0128478604e+01   3.1517647157e+01    0.3759263     0.210086  82.36  0.001795294    1.763    0.433
       128 -11.2919    239.6825     20.5713   3.7263528190e+01   2.4403311405e+01    0.2539921    0.1823121  88.85 0.0005690109    1.352    0.260
       129 -10.4283    222.6535     16.5379   3.7605001319e+01   2.8165223072e+01    0.2893159    0.1787983  57.87  0.001556787    1.859    0.462
       130  -9.9495     32.9912    242.4410   1.2405855733e+02   1.8826723746e+01     0.177507   0.09467168  33.57 0.0008493254    1.578    0.366
       131 -10.0776     89.3608     18.2688   5.7395970546e+01   5.9233618940e+01    0.2859401    0.1794767  67.29  0.001409187    1.724    0.420
       132 -10.5302     30.5423     17.9764   8.1728105190e+01   7.0652314174e+01    0.1856066    0.1141251 -32.01 0.0005556441    1.584    0.369
       133 -10.0109    197.6555    247.3368   8.9306291181e+01  -2.6449863700e+00    0.1068016   0.08989072  38.62 0.0007049202    1.771    0.436
       134 -10.4298      7.9873    240.6972   1.2910448217e+02   2.1516282207e+01    0.1580185    0.1230424  49.93 0.0007214819    1.080    0.074
       135 -10.4413     19.7571    236.3856   1.2650082749e+02   2.1297889417e+01     0.152634    0.1028603  18.92 0.0009524306    1.686    0.407
       136 -10.1601    109.0220    232.7953   1.0621623277e+02   1.1538645946e+01    0.1992186    0.1881058  12.61 0.0008029591    1.132    0.117
       137 -10.6033     12.8455    227.6539   1.2752638381e+02   2.3679436614e+01    0.2139106    0.1405113  77.88 0.0006174097    1.391    0.281
