#   1 NUMBER                 Running object number                                     
#   2 MAG_AUTO               Kron-like elliptical aperture magnitude                    [mag]
#   3 X_IMAGE                Object position along x                                    [pixel]
#   4 Y_IMAGE                Object position along y                                    [pixel]
#   5 X_WORLD                Barycenter position along world x axis                     [deg]
#   6 Y_WORLD                Barycenter position along world y axis                     [deg]
#   7 A_WORLD                Profile RMS along major axis (world units)                 [deg]
#   8 B_WORLD                Profile RMS along minor axis (world units)                 [deg]
#   9 THETA_WORLD            Position angle (CCW/world-x)                               [deg]
#  10 FWHM_WORLD             FWHM assuming a gaussian core                              [deg]
#  11 ELONGATION             A_IMAGE/B_IMAGE                                           
#  12 ELLIPTICITY            1 - B_IMAGE/A_IMAGE                                       
         1 -17.0034     11.8300    100.4023   1.1975795191e+02   5.3407903508e+01     6.160932    0.9963292 -64.53    0.0223946    3.483    0.713
         2  99.0000     91.3703     14.2882   6.5173499970e+01   5.9862480369e+01     6.659815     3.144576  59.71   0.02492819    2.513    0.602
         3 -13.1470    172.9866     43.8552   5.7666537918e+01   3.6434610761e+01     1.362047     1.034112   9.49  0.004170713    1.680    0.405
         4 -12.8802    190.9211     13.0972   4.5722853048e+01   3.5588650651e+01    0.9216962    0.8778883 -41.02  0.004131834    1.141    0.123
         5 -11.2166     15.9728    219.0665   1.2899121258e+02   2.7307842452e+01     0.245877    0.1592278 -72.12  0.001711972    1.610    0.379
         6  -9.5645    140.9646    249.5178   1.0949519093e+02   5.1007058923e+00    0.2211559    0.1367513  46.64  0.000603469    1.254    0.202
         7 -18.7854     58.9757    231.0344   1.2232988087e+02   2.0145945567e+01     4.794872       3.1596  39.91   0.02414104    1.605    0.377
         8 -12.7044    151.1726    195.6154   1.0016436232e+02   1.2262462140e+01    0.6991261    0.3776044  42.56  0.003328467    1.650    0.394
         9 -11.7990    153.9022    186.4005   9.8045713327e+01   1.3471908423e+01    0.4623951    0.3048986 -73.21  0.001762576    2.235    0.553
        10 -12.3671    139.7936    198.1228   1.0291162759e+02   1.3857495975e+01     0.517366    0.2869236 -51.00  0.001827504    2.021    0.505
        11 -10.7338    222.4752    187.9784   8.4776755032e+01   3.6701047976e-01    0.2242245    0.1755648  48.50  0.000398445    1.452    0.311
        12  -9.9159      6.9083    198.2186   1.2946036900e+02   3.2220473238e+01     0.134463    0.1058973  69.73 0.0004078416    1.198    0.165
        13  -9.9157    242.4024    186.1881   8.0889245386e+01  -2.8243611431e+00    0.1704562     0.113528 -38.98 0.0005503159    1.675    0.403
        14  -9.9377    222.9344    183.0108   8.3723948044e+01   1.0293828717e+00    0.1615063    0.1404317   9.13 0.0004274762    1.007    0.007
        15 -11.4799    189.5532    178.5555   8.9244359878e+01   8.0313024264e+00    0.5233396    0.3699134 -59.32  0.001545649    1.897    0.473
        16 -10.4989    149.0727    180.8855   9.8105992287e+01   1.5445557460e+01    0.2199043    0.1835152  70.11 0.0005513749    1.283    0.221
        17  -9.1773     76.1198    178.2756   1.1377350003e+02   2.8413846399e+01    0.1760411     0.140803  67.75 0.0002458392    1.100    0.091
        18 -10.7312    159.1716    195.8495   9.8560699718e+01   1.0748670344e+01    0.2473117    0.2011828  56.64 0.0007354431    1.217    0.179
        19  -9.9638    195.8864    174.6186   8.7203826489e+01   7.4779518370e+00    0.2679637    0.2061328 -43.41  0.001436974    1.418    0.295
        20  -9.3613    185.4918    170.4864   8.8462696783e+01   1.0261277175e+01    0.2375938    0.1357498 -52.61 0.0009208462    2.157    0.536
        21 -10.5263    230.7267    169.3145   7.9540855463e+01   1.7017896444e+00    0.3650522    0.1488095 -49.13   0.00122216    4.205    0.762
        22  -9.0718     60.0388    167.0839   1.1599030200e+02   3.3101990322e+01    0.1428137      0.12062  72.37 -0.001320134    1.089    0.081
        23 -10.3251    124.7950    163.2683   1.0035538143e+02   2.3672930016e+01     0.264116    0.2214399  82.60 0.0008218415    1.242    0.195
        24 -11.4209    120.2716    158.7325   1.0058044539e+02   2.5504987977e+01    0.4423744    0.2595608 -54.76  0.001096224    1.729    0.422
        25  -8.6864    210.9744    162.9846   8.1860068810e+01   6.4956265571e+00    0.1655031    0.1502919  13.63            0    1.020    0.020
        26 -11.7294    113.3176    152.5484   1.0109113059e+02   2.8160002375e+01    0.5795012    0.3553856  86.62  0.002290643    2.643    0.622
        27 -10.9452    101.3608    156.7250   1.0473325905e+02   2.9307058337e+01    0.2730256    0.2645873 -58.44 0.0003992765    1.186    0.157
        28 -11.9718    105.4354    151.0539   1.0273441314e+02   2.9901917852e+01    0.6301717    0.4535635 -36.63  0.001737264    1.746    0.427
        29 -11.9709    133.7893    146.8980   9.5034457331e+01   2.5524564331e+01      1.36785    0.3463699 -55.36  0.003243873    6.042    0.834
        30  -8.5966    235.2779    215.6675   8.7576984878e+01  -5.5596336539e+00    0.1011474   0.09902404  73.99 0.0004191186    1.604    0.377
        31  -9.6058    150.6214    245.4147   1.0728871112e+02   4.1687368329e+00    0.1854504     0.146617 -47.21 0.0007585386    1.617    0.382
        32 -12.4853     91.2082    150.4653   1.0613467968e+02   3.2423311395e+01     0.330919    0.2885115 -30.43 0.0007650797    1.462    0.316
        33 -10.7638    221.1944    192.5267   8.5880368488e+01  -7.7746846947e-02    0.2097411    0.1765102  32.70 0.0003173078    1.166    0.142
        34  -9.0770     22.7623    157.3628   1.2337828819e+02   3.9435864811e+01    0.1242379   0.07131503  78.36 0.0003646554    1.595    0.373
        35 -10.6769    143.7383    146.9174   9.2684967436e+01   2.3507734774e+01    0.5580236     0.266442 -64.31  0.001749471    3.713    0.731
        36 -11.5323    113.4084    137.2325   9.8030983362e+01   3.1644001080e+01    0.4593281    0.3861437 -26.79  0.002376017    1.451    0.311
        37 -11.4893    103.3166    136.5816   1.0047918491e+02   3.3624097387e+01    0.2649791    0.2512079  68.13  0.000381667    1.076    0.071
        38  -9.0584     85.9798    134.5115   1.0459564534e+02   3.7005623601e+01    0.1948176    0.1389991  42.58 -0.0001330028    1.474    0.322
        39  -8.5905     56.0102    134.0000   1.1242278397e+02   4.1319012757e+01    0.1879223   0.07603217  33.02 0.0006943342    2.793    0.642
        40 -10.5493    118.6722    129.0392   9.4903277667e+01   3.2527405946e+01    0.2910573    0.2544328 -25.73 0.0008217969    1.327    0.246
        41  -9.4043    160.3057    128.8384   8.4692647115e+01   2.3810495822e+01    0.2555905    0.1988575 -65.80  0.001187378    1.493    0.330
        42 -10.8802     72.2674    127.4793   1.0695227520e+02   4.0733568476e+01    0.3748918    0.3179222  71.20   0.00125471    1.200    0.167
        43 -10.8180     26.4831    128.3037   1.1937054762e+02   4.5778115298e+01    0.3966551    0.2253715  23.50  0.002177127    2.309    0.567
        44 -10.4351    188.7226    155.7457   8.4708743267e+01   1.2306878513e+01    0.4975964    0.2671588  45.36  0.001734749    1.814    0.449
        45  -9.7151     80.3450    125.8096   1.0442756593e+02   3.9948088640e+01    0.3062879     0.214465  76.50  0.001004438    1.720    0.419
        46 -11.3660    134.5610    123.1572   8.9484279563e+01   3.0637817148e+01    0.5339195     0.340724 -57.11   0.00229606    1.672    0.402
        47 -10.4109    107.1946    124.6447   9.6917106302e+01   3.5713806190e+01    0.2575038     0.232751 -35.50 0.0004654252    1.208    0.172
        48  -9.9260     84.6922    122.4306   1.0254865616e+02   4.0081462404e+01    0.2441747    0.2303434 -62.82 0.0002642882    1.083    0.077
        49  -9.3933    113.0020    118.5170   9.3947504314e+01   3.6042819418e+01    0.2226294    0.1983815 -58.41 0.0003771143    1.076    0.071
        50 -10.3883    167.7671    113.8399   7.9217704060e+01   2.5209622524e+01    0.4492511     0.328932  89.97  0.001890487    1.986    0.497
        51 -10.8156    134.5620    105.9437   8.5075071982e+01   3.4429319722e+01    0.5626764    0.1510783 -45.75  0.001567103    3.665    0.727
        52  -8.5008    155.7123    112.7207   8.1688514584e+01   2.8229920819e+01    0.1528989     0.125304   5.71 0.0002318038    1.520    0.342
        53 -10.6703    130.1050    110.6687   8.7474730634e+01   3.4353805189e+01    0.3054594    0.2253399 -38.63  0.001005012    1.385    0.278
        54 -11.2251    117.8926    109.7330   9.0457041675e+01   3.7087926810e+01     0.333289    0.2799882   9.15  0.001292849    1.475    0.322
        55  -8.8691     88.8953    109.8516   9.8583547607e+01   4.2381150337e+01    0.1890331     0.162508 -88.31 0.0003440973    1.239    0.193
        56  -9.3232    212.0103    108.6434   6.8938878439e+01   1.5850876279e+01    0.2004215    0.1869433  44.00 0.0003235645    1.121    0.108
        57  -9.3246    126.3086     96.6577   8.4670557939e+01   3.8230114743e+01    0.1596844    0.1234484 -82.01 0.0007044019    1.693    0.409
        58 -10.9671    233.0438    197.4026   8.4670190537e+01  -2.8026497801e+00    0.2880072     0.240476 -86.89  0.001636643    2.291    0.563
        59  -9.3350    148.1909     82.7760   7.5035682643e+01   3.6094861790e+01    0.2187331    0.1876483   8.18 0.0006310845    1.343    0.255
        60  -9.8146    108.8489     75.8354   8.3314645905e+01   4.6269378899e+01    0.2053851    0.1842689 -89.49  0.001076054    1.322    0.243
        61 -10.9466    115.2698     69.0009   7.9258130514e+01   4.6288459376e+01    0.2656256    0.2487014 -25.47 0.0002279029    1.027    0.026
        62 -12.7911    159.9014     58.4808   6.4819988069e+01   3.7564337147e+01    0.7269017    0.5912459 -46.10 0.0009588698    1.252    0.201
        63 -11.6506     12.3953    243.2133   1.3070849267e+02   2.3329571129e+01    0.1666213    0.1451807 -87.39  0.001183787    1.578    0.366
        64  -9.7255     40.4522    200.7744   1.2340015551e+02   2.8242963061e+01    0.1501985    0.1273136  55.09 -5.920687e-06    1.323    0.244
        65 -11.4375    177.6940     36.7662   5.4666161439e+01   3.6189534702e+01    0.4145609    0.3245103  30.03 0.0008937625    1.481    0.325
