#   1 NUMBER                 Running object number                                     
#   2 MAG_AUTO               Kron-like elliptical aperture magnitude                    [mag]
#   3 X_IMAGE                Object position along x                                    [pixel]
#   4 Y_IMAGE                Object position along y                                    [pixel]
#   5 X_WORLD                Barycenter position along world x axis                     [deg]
#   6 Y_WORLD                Barycenter position along world y axis                     [deg]
#   7 A_WORLD                Profile RMS along major axis (world units)                 [deg]
#   8 B_WORLD                Profile RMS along minor axis (world units)                 [deg]
#   9 THETA_WORLD            Position angle (CCW/world-x)                               [deg]
#  10 FWHM_WORLD             FWHM assuming a gaussian core                              [deg]
#  11 ELONGATION             A_IMAGE/B_IMAGE                                           
#  12 ELLIPTICITY            1 - B_IMAGE/A_IMAGE                                       
         1 -12.6000     75.2303     51.9260   7.8250420888e+01   5.7127783800e+01     1.470286    0.9008629 -51.03  0.006988189    1.950    0.487
         2 -13.1810     42.5562     45.6900   8.8564521647e+01   6.3029765573e+01     1.131163    0.6263477  44.19 0.0007354973    2.493    0.599
         3 -13.6724    117.3096     41.6389   6.1626121878e+01   5.0262641405e+01     1.300106     1.065493   5.30  0.002881484    1.299    0.230
         4 -12.3221     60.4251     47.2152   8.1928858362e+01   6.0340362978e+01     1.199754    0.5309359 -46.37  0.005197522    2.304    0.566
         5 -10.3476    147.6124     16.0869   4.6489876037e+01   4.6073726071e+01    0.5782563    0.3582026  37.33  0.002851116    1.773    0.436
         6 -12.5918    162.3552     28.7397   4.8097830942e+01   4.1023482624e+01    0.8441077    0.3974997  46.71  0.001007095    2.214    0.548
         7 -11.8619    137.2878     23.2864   5.0706132874e+01   4.7844405000e+01     1.206925    0.5537052  57.26  0.005227285    1.927    0.481
         8 -12.2898    132.0687     15.0377   4.8839713713e+01   4.9971147101e+01     1.587163    0.5696283  58.00  0.006372417    2.328    0.570
         9 -10.2623     46.9297     19.0308   7.5414946998e+01   6.6768971442e+01    0.3423615    0.2721287 -20.36  0.001550455    1.181    0.153
        10 -11.7163      5.3716     35.1249   1.0180266499e+02   6.8367401680e+01    0.9317591     0.450782 -42.63 0.0007428068    1.533    0.348
        11  -9.8579     31.9464     12.1454   7.8833328302e+01   6.9736233319e+01    0.1877307    0.1547531  22.11 0.0005654026    1.368    0.269
        12 -11.4378     14.1157     23.4982   9.3065733668e+01   6.9846128038e+01    0.4801619    0.4427394  42.55  0.002141655    1.689    0.408
        13 -11.8399     35.9322     18.7678   8.0185087081e+01   6.8304803001e+01    0.6603929    0.4063237 -27.48   0.00246799    1.402    0.287
        14 -12.1450     49.0604     12.8469   7.1528092429e+01   6.7252971924e+01    0.6829236    0.2932203  42.13  0.003347458    2.334    0.572
        15 -11.5888     20.2355     21.9600   8.9283707251e+01   6.9557311328e+01     1.205065    0.2077964 -44.75  0.004195957    4.463    0.776
        16 -12.1475     22.9583     11.4803   8.2968987994e+01   7.0883112650e+01    0.5984723    0.3902652 -14.23  0.003885451    1.298    0.230
        17 -12.4485     17.1676     12.2532   8.6382438757e+01   7.1369603426e+01     0.767396    0.4661089 -24.85    0.0033022    1.332    0.249
        18 -11.1179     78.7964     34.4049   7.0124776962e+01   5.9320133147e+01    0.7588432    0.4963704 -12.73  0.003903964    1.643    0.391
        19 -12.4261    104.6987     13.0809   5.3873164482e+01   5.6539659405e+01    0.5811067    0.4196931 -17.53  0.001830474    1.463    0.316
        20 -10.8274    114.7204      3.4928   4.7964867726e+01   5.5107322900e+01    0.4446466    0.2873416  50.35  0.001088758    1.327    0.247
        21 -11.0288    106.4895      1.9420   4.9045563482e+01   5.7114252151e+01    0.6319076    0.2877793  67.99  0.001842797    2.299    0.565
        22 -11.2965    105.9188     20.7475   5.6610076469e+01   5.5473038425e+01     0.451299     0.348279 -25.27  0.001115177    1.363    0.266
        23 -10.9357    240.1199     31.6980   3.9431370529e+01   2.2161407473e+01    0.4617469    0.3226148 -36.75  0.002214551    1.373    0.272
        24 -10.9195    214.6286     23.1094   3.9870581595e+01   2.8945552937e+01    0.4432629    0.3426231   8.92  0.002445728    1.903    0.475
        25 -10.5049     86.9182      7.3114   5.6003589262e+01   6.0917761749e+01    0.5838451    0.3545997  52.43  0.003188737    1.507    0.337
        26 -11.2672     90.8780     21.1644   6.0813305966e+01   5.8663951756e+01    0.5902365    0.3683062 -19.92  0.002114068    1.648    0.393
        27 -11.5412     86.1463     14.2398   5.9235289931e+01   6.0398579187e+01    0.7132418    0.4231016  13.12  0.002522881    1.985    0.496
        28 -11.1651    154.9971     24.9725   4.8122572967e+01   4.3293310965e+01     1.011873    0.6503669  48.59  0.005070293    1.514    0.339
        29 -10.8477    178.8362     21.0397   4.3439916865e+01   3.7809875704e+01     0.595733    0.2630157  47.66  0.001843496    2.496    0.599
        30 -12.0209     68.1576     17.9797   6.6667128862e+01   6.3442017852e+01     0.515708    0.4335761  26.94   0.00196014    1.137    0.121
        31 -12.0482    238.2537     16.1630   3.6134668006e+01   2.4441368345e+01    0.7340686    0.3921635  73.48  0.003177508    1.829    0.453
        32 -11.3106    165.1508     17.9298   4.4398016992e+01   4.1539402380e+01    0.4749601    0.2706379  42.31  0.001539358    1.956    0.489
        33 -10.5508    226.2384     15.6169   3.7007325804e+01   2.7154660667e+01     0.372632    0.2251484 -48.53  0.001540309    1.465    0.317
        34 -11.3819    192.8178      7.3358   3.8101666552e+01   3.5833249355e+01    0.6360604    0.4291305  15.23  0.003119325    2.277    0.561
        35  -9.7324    141.6635     12.0796   4.6149371769e+01   4.7925679927e+01     0.216168     0.198011  15.80 0.0003620912    1.183    0.155
        36 -12.1803    245.8522      6.2088   3.3438959681e+01   2.3931022978e+01    0.6847948    0.5273278 -58.31  0.003126286    1.081    0.075
        37 -10.5666    237.2975      4.9550   3.3765405030e+01   2.5886495155e+01    0.2582744    0.1936589 -36.85  0.001666502    1.377    0.274
        38 -10.7918    232.5167      7.4510   3.4659181054e+01   2.6659867872e+01     0.365535    0.2091739 -64.83  0.001368334    1.602    0.376
        39 -10.1591    228.0276      3.4897   3.4116802769e+01   2.8066455943e+01    0.2795097    0.2211464 -38.30  0.001826567    1.325    0.245
        40 -10.9581    218.7774      3.2691   3.4776460710e+01   3.0163256461e+01    0.3316126    0.2506273 -35.19  0.001073809    1.396    0.284
        41 -10.4546    223.4839      1.9874   3.4119886507e+01   2.9231901959e+01    0.3390327     0.195399  72.89  0.001107062    1.616    0.381
        42  -9.5769    191.8406     16.4974   4.0615536379e+01   3.5120800066e+01     0.422009    0.2028587  43.15  0.001777014    2.738    0.635
        43 -11.3194    211.8641      9.7470   3.6889051016e+01   3.1081460118e+01    0.4947951    0.3290252   6.38  0.001751387    2.537    0.606
        44  -9.2140     94.3001     12.2372   5.6131195290e+01   5.8895344422e+01    0.1592912     0.148353  80.62 0.0005263588    1.330    0.248
        45  -9.2346      3.9994     12.3317   9.3676591819e+01   7.2476594460e+01    0.1947644    0.1246495  30.59  0.001286691    2.022    0.505
        46  -8.5263      5.3153      9.3312   9.1527554352e+01   7.2851962820e+01     0.234662   0.09276387 -21.28  0.001031085    3.350    0.701
        47  -9.7332     66.1407     10.3666   6.3823628849e+01   6.4669083807e+01    0.2766503    0.1819828  48.59 0.0009410324    1.569    0.363
        48 -10.6486     63.6402      6.7104   6.2937346541e+01   6.5499619153e+01    0.3135814    0.2287886  28.60  0.001318716    1.175    0.149
        49  -9.9359    168.8636      9.7591   4.1484724831e+01   4.1443076181e+01    0.3537326    0.1640331  48.73  0.001560973    2.211    0.548
        50  -9.2096    163.4548     10.0477   4.2272466103e+01   4.2750616979e+01    0.2440792    0.1802545 -51.65  0.000979817    1.421    0.296
        51  -8.8511    162.9415      6.0649   4.1152227328e+01   4.3247178832e+01    0.1548783     0.142412  84.36 0.0008281326    1.041    0.039
        52  -9.5949     78.4876      7.5094   5.8505316236e+01   6.2611179777e+01    0.2271565    0.1596149  48.88 0.0006417084    1.351    0.260
        53 -11.2890     75.4185      3.3112   5.7495501722e+01   6.3601397527e+01    0.6961384    0.3097318  43.29  0.003148039    1.908    0.476
        54 -11.0626     41.1768      4.8414   7.0803050790e+01   6.9386226448e+01    0.4451942    0.2345771  -6.66  0.002298463    2.185    0.542
        55  -9.3266      1.1290      7.3502   9.3017056999e+01   7.3470086376e+01    0.1922383   0.05402488 -45.88 0.0007121182    2.765    0.638
        56 -10.0952    183.5489      4.9065   3.8419329254e+01   3.8307447495e+01    0.3960966    0.2340361 -28.93  0.001902068    1.817    0.450
        57 -10.0618    152.5991      7.1056   4.2865755139e+01   4.5699711689e+01    0.5212477    0.1718674  66.98  0.002005936    2.633    0.620
        58 -10.9374    176.7135      5.6513   3.9373309399e+01   3.9903338150e+01    0.4287938    0.2190109  82.18  0.001255264    1.968    0.492
        59  -9.3093    169.8259      3.0445   3.9428961993e+01   4.1826342194e+01    0.2641062    0.1374955 -57.14  0.001225278    2.183    0.542
        60  -8.8840     31.2384      5.9240   7.5957090665e+01   7.0635534230e+01    0.1385858   0.08336315 -28.18 0.0003528733    1.496    0.332
        61 -12.1105    134.0625      2.4728   4.4151736116e+01   5.0611588448e+01    0.4247932    0.2601599  63.81  0.001245314    1.423    0.297
        62 -10.6449    142.4986      2.6421   4.2904652471e+01   4.8554653343e+01     0.468081    0.2461163  52.68  0.001706108    1.677    0.404
        63  -8.1945    122.2938      5.3422   4.7201001229e+01   5.3185013589e+01     0.139413   0.08635763  33.84   0.00021843    1.658    0.397
        64  -8.5313    126.6491      4.7261   4.6188559557e+01   5.2203855751e+01    0.1408688    0.0834076  40.59 0.0003625886    1.635    0.388
        65 -10.1301    207.7593      2.5983   3.5524057025e+01   3.2763110237e+01    0.2284772     0.201848  84.74  0.000723289    1.121    0.108
        66 -10.2752    204.4752      1.4780   3.5533994196e+01   3.3638257258e+01     0.297005    0.1960635  67.79  0.001009394    1.423    0.297
        67  -9.7395    158.2846      2.3391   4.0631815791e+01   4.4718293078e+01    0.3699245    0.1694959  48.79  0.001673104    2.139    0.532
        68 -11.1971      2.9720      1.8915   8.9178835494e+01   7.4150832192e+01    0.3715205    0.1668335  12.16  0.002081878    2.457    0.593
        69  -9.9538     12.7927      1.8447   8.3412006924e+01   7.3277148638e+01    0.2920133    0.1393088  21.05  0.001692033    2.116    0.527
        70  -9.2004    151.9245      1.2706   4.1137109937e+01   4.6365950793e+01    0.2539751    0.1081436  76.97 0.0008141826    2.405    0.584
        71  -9.3452    123.0991      1.1200   4.5523527986e+01   5.3334289936e+01    0.3288696   0.08401489  68.55  0.001040074    4.107    0.757
        72  -9.2767     82.1577      1.2319   5.4609170161e+01   6.2426099611e+01    0.1632224   0.09705301  59.02 0.0003329819    1.687    0.407
        73 -10.6934     33.4898    144.4910   1.1416381853e+02   4.1305989091e+01    0.4148156    0.2380561  51.52  0.002070303    1.875    0.467
        74 -10.0887    142.8745    249.4023   1.0322755066e+02   3.5107931487e+00      0.18662    0.1676227  80.08    0.0013115    1.323    0.244
        75  -9.9234    133.0752    140.7484   8.6832339741e+01   2.6970362331e+01    0.3464865     0.228947 -49.58  0.001243717    1.490    0.329
        76 -11.3489     18.8315    122.5289   1.1528532840e+02   4.7952502373e+01     0.313444    0.1671519 -67.44 0.0002730611    1.482    0.325
        77 -11.0578     22.7209    127.1664   1.1480732077e+02   4.6513124166e+01    0.2723809    0.2055511  37.85 0.0002821884    1.545    0.353
        78 -12.0577     23.4943    135.1540   1.1564034602e+02   4.4504530516e+01    0.9869713    0.4196908  45.42  0.004564502    2.593    0.614
        79 -11.7664     30.0046    132.8161   1.1354355946e+02   4.4493698222e+01    0.4474477    0.3349252  84.07 0.0003903709    1.308    0.235
        80  -9.7106    216.3023    137.0166   6.7813502239e+01   1.0359633153e+01    0.3890952    0.1898228 -34.90  0.001598052    1.929    0.482
        81  -9.8284     80.2224    136.9974   1.0014892628e+02   3.7323383435e+01    0.4772546    0.2813258 -25.87  0.001811545    2.991    0.666
        82 -10.5551     67.3899    135.7896   1.0351819971e+02   3.9476948155e+01    0.3576975    0.2375969 -45.00 0.0007980153    1.555    0.357
        83 -10.3581     47.3991    135.8504   1.0914542346e+02   4.1959545839e+01    0.4994318    0.1699591 -60.23  0.001388866    2.385    0.581
        84 -10.1176     40.2707    137.9878   1.1144558672e+02   4.2209303794e+01    0.2215203    0.1819047  61.37 0.0004000706    1.283    0.220
        85 -10.3201     92.8780    129.4457   9.5024789780e+01   3.7147004780e+01    0.4550415    0.2937081 -76.74  0.001933103    1.999    0.500
        86 -10.3328     74.2472    132.6281   1.0097647009e+02   3.9290811315e+01    0.3155613    0.2247156 -37.67  0.001555041    1.577    0.366
        87  -9.7924     61.8756    132.0059   1.0439145025e+02   4.1151581826e+01    0.4556912    0.3174292 -36.56  0.002293872    1.669    0.401
        88  -9.6897     39.0989    132.9193   1.1101774904e+02   4.3579459886e+01    0.2346242    0.2009976  27.74  0.001010273    1.404    0.288
        89  -9.2532    103.9452    130.7665   9.2233016906e+01   3.4898122173e+01    0.2055547    0.1917082  50.35 0.0003374116    1.118    0.105
        90 -11.1473     10.6691    127.3025   1.1818321613e+02   4.7405629862e+01    0.5536076    0.2060009 -59.46  0.001037133    2.079    0.519
        91 -10.0595     82.2104    125.1082   9.7131745309e+01   3.9939357312e+01    0.4992689    0.3358076 -23.22  0.001719189    2.121    0.528
        92 -10.2049    240.4972    127.5827   6.1538270876e+01   7.3009769282e+00    0.3505137    0.2953047 -83.36  0.001816643    1.600    0.375
        93  -9.1834    224.0165    126.9542   6.4109024278e+01   1.0623591482e+01    0.2209392      0.16557 -60.83 0.0005387253    1.625    0.385
        94 -10.1146      4.6323    121.4115   1.1917162018e+02   4.9216152553e+01    0.3785112    0.1911899 -67.97  0.002004177    1.500    0.333
        95 -11.9698      2.2945    111.7412   1.1869041355e+02   5.1653457655e+01    0.5376145    0.3128806  62.75  0.001034761    2.035    0.509
        96 -11.5130      3.8025    105.5888   1.1744791764e+02   5.3022874939e+01    0.5222293    0.3984694  85.25   0.00276115    1.313    0.238
        97 -10.8117     54.9437    123.7902   1.0489302251e+02   4.4059397558e+01    0.5570177    0.4087846   6.98  0.002912353    1.831    0.454
        98  -9.5389     49.7859    122.9584   1.0627160825e+02   4.4875442628e+01    0.2774687    0.2009361 -12.64  0.000967925    1.920    0.479
        99 -11.2543     45.5126    120.2383   1.0705805550e+02   4.6025846497e+01     0.682092    0.3829274  86.22  0.002849575    2.644    0.622
       100 -11.9647    104.2049    122.3410   9.0194463466e+01   3.6867031813e+01     0.441407      0.40441 -36.00 0.0007823929    1.106    0.096
       101  -9.8374     70.7845    121.4305   9.9707228045e+01   4.2550152986e+01    0.3758311    0.2443519 -21.11  0.001392474    2.322    0.569
       102 -11.2284     33.0721    119.4350   1.1065004006e+02   4.7486833094e+01    0.8097667    0.3447288 -54.34  0.001311009    1.953    0.488
       103 -11.6108      9.6608     97.0189   1.1434498947e+02   5.4698227950e+01    0.6023421    0.5011362  89.47  0.001527883    1.251    0.201
       104 -12.1266      7.2152     88.6525   1.1378834555e+02   5.6797934651e+01    0.5369096     0.434964  43.73  0.002276782    1.540    0.351
       105 -11.4843     42.0432     93.8035   1.0283917452e+02   5.2791701928e+01    0.3900888     0.294333  85.98  0.000255996    1.671    0.402
       106 -11.7644     35.5055     93.0597   1.0491541269e+02   5.3620674008e+01     1.330398    0.8428232  83.70  0.005822308    2.369    0.578
       107 -11.7078     17.1042    100.9907   1.1257545240e+02   5.3263644124e+01    0.2782756    0.2143968 -55.07 0.0003896172    1.112    0.101
       108 -12.7931     25.4103    106.7868   1.1089763994e+02   5.1236681106e+01     1.251902     0.974904  -8.81  0.006354966    1.619    0.382
       109 -11.9223     22.5337     94.9046   1.0970659774e+02   5.4303911417e+01    0.6197755    0.3589008   5.42  0.003216958    2.349    0.574
       110 -12.3203     18.2214     89.8754   1.1022667105e+02   5.5806408231e+01    0.7485933    0.3712897 -41.77  0.001864904    1.904    0.475
       111 -11.3748     22.5724    114.0579   1.1295626970e+02   4.9710097322e+01    0.4189754    0.2628908   1.58  0.001723902    2.273    0.560
       112 -11.1980     28.3110    113.1313   1.1105920560e+02   4.9455164613e+01    0.3898267    0.2801211   4.57  0.001851237    1.840    0.456
       113 -12.0184     44.2916     85.2558   1.0001971819e+02   5.4541380307e+01    0.7292218     0.472914  31.92  0.003896847    1.767    0.434
       114 -10.8982     37.6438     86.1131   1.0259539923e+02   5.5034883060e+01    0.3422856    0.2747483  37.03  0.001012275    1.479    0.324
       115  -9.9818      2.8526    126.3895   1.2021359021e+02   4.8143197075e+01    0.3256487    0.2041271  77.59  0.001906905    1.593    0.372
       116  -9.5189    186.0013    118.9932   6.9293918737e+01   2.0222321427e+01    0.3421029    0.1761743  49.29  0.001346456    2.041    0.510
       117  -9.1166     13.5537    118.9483   1.1632743644e+02   4.9210377435e+01    0.1827387   0.09983968 -69.54 0.0002764013    1.437    0.304
       118  -9.3711    210.4773    117.9977   6.4350541314e+01   1.5052460016e+01    0.2213425    0.1156341 -55.73 -1.284912e-05    2.587    0.613
       119 -12.0094     18.6775    106.2853   1.1293744368e+02   5.1884339102e+01    0.3589689    0.1991167 -56.36 0.0001541272    1.448    0.310
       120  -9.6863    113.6977    115.8624   8.5930524559e+01   3.6591366375e+01    0.2599221    0.2196301  20.49  0.000695265    1.335    0.251
       121  -9.7643     94.8789    111.9481   9.0326201216e+01   4.1010356794e+01    0.3709165    0.2396539  32.80  0.001668557    1.715    0.417
       122 -10.6386    107.4400    111.8807   8.6662924804e+01   3.8724141397e+01    0.6142851    0.3709455 -68.76  0.002358305    2.362    0.577
       123 -10.9173    102.6104    109.6171   8.7463211218e+01   4.0159315685e+01    0.6517541    0.5606105 -12.22  0.003074815    1.319    0.242
       124  -9.3618     67.2477    114.2318   9.9227036107e+01   4.4809511008e+01    0.4207382    0.2506356 -62.24  0.001946416    1.582    0.368
       125  -9.5516     65.6808    110.6832   9.8923459864e+01   4.5888320946e+01    0.4394095    0.2163627  27.34  0.001829391    2.459    0.593
       126  -9.4784    126.9811    113.5050   8.1706914176e+01   3.4440336589e+01    0.2338989    0.1565363  42.93 0.0007257521    1.546    0.353
       127  -9.8439     48.8410    112.3561   1.0454758212e+02   4.7588976199e+01     0.239359    0.2302194  68.62   0.00107562    1.168    0.144
       128 -11.1370    170.3107    110.4654   7.0398658602e+01   2.5477905876e+01    0.4626476    0.3700553 -33.76  0.001464265    1.233    0.189
       129 -10.3985     90.2633    104.4266   8.9778209898e+01   4.3580950987e+01    0.3832239    0.3206664  -2.57  0.001081471    1.405    0.288
       130 -10.4749     85.9847    103.9602   9.0967832369e+01   4.4414443838e+01    0.4666021    0.3221259 -20.19  0.001409868    1.919    0.479
       131  -9.4380     58.5157    108.3039   1.0065000532e+02   4.7411285826e+01    0.2587158    0.1295437 -63.67 0.0007025971    1.934    0.483
       132 -10.0978    120.4120    109.3456   8.2367909372e+01   3.6736805220e+01    0.3513478    0.2297788 -40.37  0.001529972    1.508    0.337
       133 -10.2113    157.2657    106.6531   7.2308619128e+01   2.9247834130e+01     0.397603    0.3066763  -5.64  0.001442387    1.673    0.402
       134 -10.7603    143.8065    106.1251   7.5388869187e+01   3.2409260819e+01    0.3738516    0.3113254 -75.89  0.001549281    1.430    0.300
       135 -11.8836    145.3992    100.5497   7.3445724782e+01   3.3222289539e+01    0.5922379    0.5004736 -30.00  0.002185507    1.199    0.166
       136 -11.5305     79.3063    108.2955   9.4124464168e+01   4.4466181664e+01    0.7277879    0.3762074  34.70  0.001209119    2.125    0.529
       137  -9.5544     63.8305    104.9200   9.8186381011e+01   4.7530400584e+01    0.2437222    0.1821101 -76.04  0.001244787    1.487    0.327
       138  -8.7749     45.5381    105.5450   1.0421640536e+02   4.9612670748e+01    0.1381717    0.1171057 -55.34 0.0001172096    1.026    0.025
       139 -10.0265     57.1891    102.6716   9.9808926680e+01   4.8936228259e+01    0.3959289    0.1789542 -54.64  0.001617169    1.885    0.470
       140  -9.8540     58.5047     97.7616   9.8217201952e+01   4.9937569229e+01    0.4344593    0.1929536  28.72  0.001786847    2.629    0.620
       141  -8.9938     82.4258    102.5064   9.1694995293e+01   4.5339748891e+01    0.1486195    0.1347734 -45.95 0.0001036133    1.012    0.012
       142  -9.9345     50.7328    101.5457   1.0166524535e+02   4.9989027866e+01    0.3682709    0.1921694 -49.81  0.001268498    1.652    0.395
       143 -11.1199     52.2579     95.8123   9.9837465118e+01   5.1172660457e+01    0.5581902    0.3042209 -72.88  0.002000518    2.372    0.578
       144 -10.2000    210.1376     98.8657   5.9665486474e+01   1.8592286199e+01    0.6435807    0.4049565  -1.26  0.002395201    3.041    0.671
       145  -9.4908    120.7694    101.1842   8.0023278351e+01   3.8478555751e+01    0.2222853    0.1858328 -10.67  0.001072234    1.375    0.273
       146  -8.4416     74.6887    101.6983   9.3928824314e+01   4.6742162125e+01     0.147679    0.1075542 -24.50 0.0002117367    1.607    0.378
       147 -11.5828     67.1949     95.3297   9.4728077446e+01   4.9333860485e+01    0.4622609    0.4385098  -8.94  0.001567216    1.124    0.111
       148 -11.0287     90.1081     89.2544   8.5620665387e+01   4.7056775151e+01    0.8549159    0.4742094 -25.48  0.003192636    2.668    0.625
       149  -9.9612     80.7020     98.4376   9.1168221428e+01   4.6566409883e+01    0.2870555    0.2599408  22.24 0.0007973598    1.198    0.165
       150  -9.5921     77.2726     96.6609   9.1790611691e+01   4.7521684558e+01    0.2530223    0.2066706 -17.98 0.0006838542    1.357    0.263
       151 -10.2530     82.7757     93.4086   8.9136912528e+01   4.7382250402e+01    0.3353519     0.253983  15.08 0.0008946158    1.570    0.363
       152 -11.0685     76.6346     92.9877   9.1003528921e+01   4.8466175857e+01    0.5354246     0.403717  14.34  0.001534526    1.577    0.366
       153 -10.0368    117.6754     93.5060   7.8674062232e+01   4.0788389231e+01    0.3679676    0.2859677 -14.73  0.001455108    1.529    0.346
       154 -10.9143    124.5463     93.5581   7.6800707502e+01   3.9318475239e+01    0.6251941    0.3741245  44.36  0.001929532    1.722    0.419
       155 -11.6001    120.6768     86.6965   7.5808833550e+01   4.1580374053e+01    0.6839297     0.437173 -51.03   0.00296799    1.650    0.394
       156 -10.7965    101.1505     91.2784   8.2813848232e+01   4.4579553549e+01    0.5709663    0.3860153  53.96  0.002587746    1.739    0.425
       157 -10.2660    104.6836     86.8687   8.0441497907e+01   4.4843536755e+01    0.4230075    0.2981823 -23.23  0.001923853    1.639    0.390
       158 -10.9012    113.6418     83.5782   7.6823830460e+01   4.3710834105e+01    0.4083225     0.345726 -42.68  0.001317604    1.153    0.133
       159  -9.2534    138.1632     92.9719   7.3071192256e+01   3.6427403544e+01    0.3156573    0.2088896  19.04  0.001238293    2.235    0.552
       160  -9.2923    200.5373     88.8566   5.8743646164e+01   2.2547842553e+01    0.3141947    0.1967121 -76.11  0.001216571    2.594    0.614
       161 -10.5058    183.6395     86.2409   6.1110570948e+01   2.6994731085e+01    0.6866663    0.2941816 -46.22  0.002458733    2.381    0.580
       162  -9.9427     66.5846     88.6869   9.3164131492e+01   5.0950589624e+01    0.3302467    0.2257928 -14.04  0.001201905    1.919    0.479
       163 -10.3532     67.3252     81.9862   9.1021054592e+01   5.2346699258e+01    0.4553863     0.376071 -17.99  0.002536737    1.249    0.200
       164 -10.9081     79.0401     82.4025   8.7171490019e+01   5.0442920016e+01    0.7348194    0.5291664 -72.98  0.003450491    1.944    0.486
       165 -11.0366     72.6656     78.8017   8.8236167450e+01   5.2238232674e+01    0.4874859    0.3118726 -46.03  0.001490275    1.422    0.297
       166 -10.1773     76.0188     75.2909   8.6003073670e+01   5.2454412113e+01    0.2763479    0.2477985  50.58  0.001196351    1.313    0.238
       167 -10.4346    109.0006     80.9430   7.7342195161e+01   4.5208832368e+01    0.4400251    0.3449589 -11.47  0.001908441    1.473    0.321
       168 -10.4475    165.6404     83.4751   6.3938702659e+01   3.1820186673e+01    0.4285524    0.3545054 -58.78  0.001452545    1.276    0.217
       169 -11.3663    142.7661     84.0140   6.9277134394e+01   3.7153730399e+01    0.5278528    0.3935167  41.83 0.0009267675    1.381    0.276
       170 -11.6465    122.8085     68.8102   6.9576656029e+01   4.4588249140e+01    0.6549577    0.5164416  37.38  0.001724357    1.286    0.223
       171 -10.3493    127.6844     83.0586   7.2806737635e+01   4.0781857840e+01    0.3695283    0.2974145 -48.63  0.001333526    1.264    0.209
       172 -10.6979    127.3752     77.3593   7.1115355645e+01   4.1963567070e+01    0.4851836    0.3002641 -48.89 0.0009301808    1.716    0.417
       173 -11.4174     58.0802     77.6939   9.3029088100e+01   5.4577987694e+01     0.613764    0.3214193 -64.82 0.0003515997    2.574    0.612
       174 -12.5683     52.3323     73.7083   9.3957303636e+01   5.6185883898e+01    0.6294405    0.3360774 -59.74 0.0006283229    2.010    0.502
       175 -11.2325     47.0823     74.5390   9.6144551123e+01   5.6635355446e+01    0.3998355    0.2168061 -57.06  0.001910379    1.737    0.424
       176  -9.7518    102.7706     80.2595   7.8974835249e+01   4.6601469581e+01    0.3940954    0.2102327 -31.67  0.001454327    2.117    0.528
       177 -10.2658    104.0282     75.2929   7.7012617549e+01   4.7354249961e+01    0.3885154    0.3205948 -58.87  0.001251381    1.380    0.276
       178 -10.9013    152.5634     91.5703   6.9174799814e+01   3.3386583732e+01    0.6083975    0.4829778  72.95  0.002541862    1.487    0.327
       179 -10.4578    232.9435     77.6911   5.0982119983e+01   1.7136117760e+01    0.4082073    0.1917897 -35.49  0.001570052    1.916    0.478
       180 -11.8638     14.0728     74.6666   1.0863946633e+02   5.9576319587e+01    0.4850702    0.3200357 -65.20  0.001811921    1.309    0.236
       181 -10.3822     14.9292     67.3600   1.0664815816e+02   6.1141360738e+01    0.3227659    0.2504415 -20.50  0.001488254    1.342    0.255
       182  -9.8255    174.9415    246.8646   9.6795208620e+01  -1.0400777991e+00    0.2423125    0.1452406  38.82  0.001399667    1.399    0.285
       183  -9.8801     94.4877     76.2064   8.0235446244e+01   4.9028510199e+01    0.6217768    0.3711936  27.63  0.002671375    2.011    0.503
       184 -11.2875     85.6147     73.3338   8.2160256087e+01   5.1234426549e+01     0.935205    0.5778501  30.44  0.004316833    1.785    0.440
       185 -11.1718     80.0267     67.9445   8.2250714729e+01   5.3291345141e+01    0.5743728    0.4674412  16.10    0.0031395    1.289    0.224
       186 -11.5667     91.2401     62.7540   7.6768138901e+01   5.2269372685e+01     1.078544    0.4649507  44.94  0.004233215    2.433    0.589
       187 -10.9986     87.6907     57.7703   7.6156679535e+01   5.3851592436e+01     0.648371    0.2622817 -34.76  0.002000604    2.540    0.606
       188 -10.7097     91.9545     57.5148   7.4688216793e+01   5.3087738763e+01    0.3169778    0.2988078  50.57  0.001073367    1.225    0.184
       189  -8.6641     33.4657     78.4786   1.0226264653e+02   5.7180768611e+01    0.1320442    0.1096894 -48.67 0.0001027621    1.020    0.020
       190 -11.1196     22.4972     67.1949   1.0361299718e+02   6.0627384524e+01    0.7653157    0.4342093 -71.67  0.001244157    2.053    0.513
       191 -10.8660     12.8673     47.6244   1.0223295543e+02   6.5437633372e+01     1.125283    0.2105201 -38.38  0.003105802    6.797    0.853
       192 -12.1106     21.4564     46.7634   9.8124503473e+01   6.4961946743e+01    0.5257567    0.3867547 -36.20  0.002706418    1.072    0.067
       193 -11.3801    127.8063    242.1201   1.0523038505e+02   7.0195466469e+00    0.3408849    0.3320013  21.81  0.002464609    1.206    0.171
       194 -11.1597     33.8093     58.2714   9.6504562586e+01   6.1520368534e+01    0.4055859    0.2387291 -20.96  0.001202494    1.925    0.481
       195 -11.7070     26.6989     55.9948   9.8760569334e+01   6.2654414998e+01    0.9669122    0.6035509 -30.74  0.004277041    1.472    0.321
       196 -11.0152     20.5573     55.5055   1.0121016278e+02   6.3265720085e+01    0.3437509     0.281008 -89.42  0.001031561    1.720    0.418
       197 -12.1558     48.5473     60.3061   9.1232036842e+01   5.9466729901e+01    0.7337516    0.5701216  39.35  0.002902726    1.553    0.356
       198 -11.2829     41.0788     57.1561   9.3178307104e+01   6.0980853191e+01    0.4281985     0.321018  59.64  0.001507979    2.115    0.527
       199 -11.8287      1.8431     70.9499   1.1250002053e+02   6.1102355342e+01    0.5650929    0.1646754 -65.83   0.00118742    2.617    0.618
       200 -12.5738      6.2894     62.8786   1.0904880153e+02   6.2643847063e+01    0.8321849    0.4313858 -26.57  0.004518196    2.073    0.518
       201 -11.8281     40.5323     70.6054   9.7501344377e+01   5.8220891980e+01    0.5811931    0.2948374 -48.44  0.001647104    1.625    0.385
       202 -11.5185     32.1296     71.9953   1.0110711306e+02   5.8751688280e+01    0.5876747    0.2824248  25.11  0.002025654    2.398    0.583
       203  -9.9620    184.4748     61.4887   5.4069182129e+01   3.0975137009e+01    0.2639849    0.2197687 -29.99  0.001054004    1.239    0.193
       204 -10.3363     64.1952     75.0998   9.0068928964e+01   5.4297840948e+01    0.4181914    0.3118962  20.63  0.001081014    1.480    0.324
       205  -9.1190    113.3248     75.3172   7.4306616026e+01   4.5429117214e+01    0.1561175    0.1176841   3.56 0.0007044359    1.671    0.402
       206  -9.3282    151.4698     73.5481   6.4075993587e+01   3.7038587056e+01    0.2299427    0.1392204  43.45 0.0006155904    1.723    0.419
       207  -9.9003    161.9745     70.7772   6.0982040932e+01   3.4975211352e+01    0.3309363    0.2712394  85.77 0.0009499553    1.399    0.285
       208 -12.2020    186.5543     70.4598   5.6219150371e+01   2.9021752194e+01      1.01085    0.6452662 -39.91   0.00347832    1.499    0.333
       209 -10.6555    171.2746     67.1341   5.8060187393e+01   3.3309978377e+01    0.7115735    0.3994874 -38.03  0.003031712    1.735    0.424
       210  -9.0596    128.4313     63.7446   6.6449010709e+01   4.4211001693e+01    0.2826177     0.152499 -30.66  0.001143528    1.959    0.490
       211 -11.4525    220.1339     66.3500   4.9944008043e+01   2.1749418567e+01    0.6206267    0.3901498  56.20  0.002646704    1.701    0.412
       212  -9.0298    208.0273     68.4802   5.2214846339e+01   2.4210604915e+01    0.2143485      0.14071  59.93  0.001027523    1.589    0.371
       213  -9.7816    192.4343     65.6468   5.3899054180e+01   2.8377801580e+01    0.2845792    0.2244141 -63.88 0.0007618606    1.317    0.240
       214 -10.4852     59.5001     63.9531   8.8241233319e+01   5.7287109431e+01    0.4485044    0.2351494 -37.86  0.001392152    1.765    0.433
       215 -10.1666     57.3057     61.2935   8.8180068996e+01   5.8126582005e+01    0.2477753    0.1924309 -27.15 0.0005582927    1.161    0.139
       216  -9.7606     53.0887     66.0330   9.1329707275e+01   5.7720647874e+01    0.2811896    0.1886203  40.25  0.001212831    1.762    0.432
       217 -11.4172    234.3473     61.2223   4.6876731278e+01   1.9358773081e+01    0.5122619    0.4303434  84.58  0.002025756    1.241    0.194
       218  -9.3359    202.2460     64.4381   5.2026980667e+01   2.6212735082e+01     0.306345    0.2055519 -85.21 0.0007202729    1.881    0.468
       219  -9.9469    198.4623     62.9477   5.2209665814e+01   2.7349965760e+01    0.3947478    0.2361309 -62.37  0.001611237    2.022    0.505
       220  -9.7433    106.1163     64.1328   7.2675835351e+01   4.9052985065e+01    0.3471305    0.2249999 -38.54  0.001618468    1.510    0.338
       221 -10.9068    106.1579     58.4852   7.0705603895e+01   5.0048721085e+01    0.4669953    0.3379876  53.20  0.001369457    1.495    0.331
       222 -10.1923    159.0590     62.2849   5.9017102264e+01   3.7113008274e+01    0.5265329    0.2306015  45.98  0.001935058    2.402    0.584
       223 -11.8959    124.9281     27.9917   5.4885527453e+01   5.0273938080e+01    0.6726421     0.383704  50.13  0.002668267    1.597    0.374
       224 -11.7859    120.6758     57.4049   6.6315464101e+01   4.7059120412e+01     1.137619    0.6921703  53.63  0.004840496    1.686    0.407
       225  -9.7938     67.9929    240.4934   1.1652618916e+02   1.5958565226e+01    0.1766608   0.09896726  41.12  0.001028848    1.582    0.368
       226  -9.5171    148.6016     60.9756   6.0809962766e+01   3.9885904002e+01    0.4864677    0.1845798  62.83  0.001510039    3.455    0.711
       227 -10.7103    136.1781     55.4280   6.1813398748e+01   4.3775162847e+01    0.8827294    0.4287826 -36.77  0.003207776    2.054    0.513
       228 -11.6677    145.8516     46.7231   5.6824590986e+01   4.2755111452e+01     1.132021    0.4818066 -24.05  0.003994165    2.940    0.660
       229  -9.8005     67.6947     31.9809   7.3018642656e+01   6.1651655879e+01    0.5663423    0.5241488 -77.67  0.003544486    1.624    0.384
       230 -10.3006     66.8620     54.7660   8.2314397553e+01   5.7982859213e+01    0.3728262    0.2301364 -52.68  0.001799603    1.892    0.472
       231  -8.3620    221.6703    239.3431   8.7009109764e+01  -6.9669284477e+00    0.1044543    0.0945233  55.61 0.0007051014    1.748    0.428
       232 -11.0998     60.7598     36.3110   7.7455115600e+01   6.2124798496e+01    0.4081969    0.2326733 -33.52  0.001050718    1.624    0.384
       233 -11.5477     58.0343     30.2240   7.5937128566e+01   6.3490778215e+01    0.4369433    0.2906506  -5.29  0.001504046    1.586    0.369
       234 -11.6426     48.8753     30.1815   7.9646909473e+01   6.4858190882e+01    0.6001727     0.283643  30.70   0.00249794    2.203    0.546
       235  -8.3615    219.6732     57.2842   4.7746264106e+01   2.3223811463e+01    0.1446155   0.09699378 -66.69 0.0003481673    1.604    0.377
       236 -11.4748    156.6685     52.9944   5.6632644936e+01   3.9162871821e+01     1.002901    0.4373983 -44.25  0.003777395    2.418    0.586
       237 -10.3692    162.1791     44.9346   5.3099337841e+01   3.8969337287e+01    0.5119335    0.4086161  12.67  0.002627326    1.541    0.351
       238 -10.8330    138.0292     33.5110   5.4041612459e+01   4.6454025856e+01     0.541822    0.3574784 -60.42  0.001783268    1.963    0.491
       239  -9.3441    172.3817    238.7869   9.6116946275e+01   5.5829752151e-01     0.160949    0.1124761 -26.54 0.0009436098    1.695    0.410
       240 -11.1205    155.6919     42.2377   5.3451240851e+01   4.0957067919e+01    0.3971186    0.3647532  58.84  0.001106715    1.049    0.047
       241 -11.7599    153.0769     35.9689   5.1947542857e+01   4.2439375779e+01    0.2894214    0.2767885 -66.99 0.0003701148    1.077    0.071
       242 -11.2775    148.5676    237.4760   1.0056808616e+02   4.5397884067e+00    0.5092821    0.2622602  36.26  0.002604031    1.685    0.406
       243  -9.7677    167.7550    238.0018   9.6896119160e+01   1.4089880460e+00    0.1470865    0.1070192 -42.51 0.0008883846    1.608    0.378
       244 -10.3450    144.9077     25.6823   5.0096660319e+01   4.5709212090e+01    0.5650967    0.2837511  76.84  0.002253223    2.532    0.605
       245 -10.9195    198.7038    232.6138   9.0141023603e+01  -2.6365249549e+00    0.3922134    0.3209844  18.07  0.002592148    1.007    0.007
       246  -9.7435    187.6251     55.4275   5.1854392578e+01   3.1132343014e+01    0.2779654    0.2411625  59.51  0.001293227    1.172    0.146
       247 -10.1341     22.7278     37.1537   9.4202047110e+01   6.6685820716e+01    0.5228496    0.3551347  51.14  0.002908361    2.566    0.610
       248  -9.9960    248.4965     52.4969   4.3287865381e+01   1.7599574376e+01    0.3058427    0.1528776 -62.76 0.0008353231    2.342    0.573
       249  -9.7137    244.7983     51.1877   4.3376142483e+01   1.8558933000e+01    0.2081434    0.1759614 -56.87 0.0005945772    1.004    0.004
       250 -11.0004    240.4914     49.8070   4.3514623840e+01   1.9669877160e+01    0.3708475    0.2882042 -34.66  0.001006934    1.275    0.216
       251  -9.6263    211.3381     53.0816   4.7775756468e+01   2.5772933229e+01    0.2414013    0.1907932  56.34   0.00132133    1.354    0.262
       252 -10.7353    201.4045     50.2511   4.8390033617e+01   2.8542364161e+01    0.7666787    0.3584799 -23.88  0.002776294    2.697    0.629
       253 -10.4345    199.7945     44.9923   4.7215776412e+01   2.9671120456e+01    0.5161995    0.2531632  87.70  0.001853576    3.261    0.693
       254 -10.8742    174.1203     48.1252   5.1977021471e+01   3.5542765070e+01    0.5727534    0.4538934  76.28  0.003004211    1.281    0.219
       255  -9.4616    176.7527     43.5998   5.0225166191e+01   3.5523345055e+01    0.3381061    0.1762659  71.79  0.001400977    2.106    0.525
       256 -10.1465     91.2766     47.9069   7.1368099512e+01   5.4857484273e+01    0.3148929    0.2140194 -40.42  0.001061537    1.515    0.340
       257  -9.9102      2.2571     48.6877   1.0726543347e+02   6.5851459964e+01     0.216907    0.1831485 -34.80  0.001469459    1.149    0.130
       258  -9.2049    193.5044     46.0841   4.8387858404e+01   3.1046406789e+01    0.2381129    0.1814127 -77.11 0.0006422999    1.382    0.276
       259 -10.6438    136.2270     45.7767   5.8577608674e+01   4.5229773890e+01    0.6611941    0.2068333  58.36  0.002128632    3.263    0.694
       260 -10.1346    140.0257     43.5603   5.7007150692e+01   4.4627784964e+01    0.3603542    0.2553386  52.28  0.001508229    1.344    0.256
       261  -9.3576    227.3762     36.6272   4.1817303540e+01   2.4341417879e+01    0.2724063    0.2033145 -72.50  0.001065805    1.268    0.212
       262  -9.1333    101.5145     44.5174   6.6984365162e+01   5.3306802506e+01    0.1955671    0.1370979  58.94 0.0007208066    1.649    0.393
       263 -11.1521     94.4697     41.3054   6.7855770048e+01   5.5251359356e+01    0.6927953    0.3232591  50.39  0.002929568    2.201    0.546
       264 -10.3920    247.3763    231.6075   8.1220448983e+01  -9.5421736236e+00    0.2091302       0.1657 -21.96 0.0009508863    1.350    0.259
       265  -9.6268     23.7954    231.8064   1.2396508459e+02   2.2893609279e+01    0.1582141    0.1255362  74.15 0.0009281526    1.117    0.105
       266  -9.1171    163.7949    243.5980   9.8456797683e+01   1.1696610721e+00    0.1806882   0.09744865  45.24 0.0009481841    1.689    0.408
       267  -9.6536    108.4820    229.9809   1.0759235583e+02   1.2152336829e+01    0.1723724     0.122984 -64.37 0.0006034195    1.567    0.362
       268 -11.8126     26.3379     27.9690   8.8859844635e+01   6.7959664470e+01    0.4859358    0.3901941  16.89  0.002620442    1.360    0.264
       269  -9.4544     15.2344    233.7399   1.2557232979e+02   2.3410993394e+01      0.20132    0.1204152 -75.73   0.00105937    1.584    0.369
       270  -9.9309    234.1606    223.0800   8.2038761841e+01  -6.6144638189e+00    0.1973317    0.1385139   3.40 0.0007938778    1.282    0.220
       271  -8.8497    209.3336    223.3299   8.6602817411e+01  -2.9344797985e+00    0.1331123   0.08627645   4.89 0.0007052058    1.724    0.420
       272  -9.0356     63.3229    222.3207   1.1582091020e+02   2.0095363519e+01    0.1076704   0.09531722 -33.26 0.0002607401    1.675    0.403
       273  -9.2925      9.6430    217.7777   1.2570222341e+02   2.7095637383e+01    0.1581106   0.08017798  86.82 0.0006930254    1.645    0.392
       274 -10.2055     86.2865     31.0103   6.6284304024e+01   5.8360331771e+01    0.3802494    0.2348453 -12.58  0.001175111    1.819    0.450
       275 -10.1857     82.2333     40.3943   7.1394798322e+01   5.7783040193e+01    0.3036618    0.2258555  52.87  0.001269019    1.582    0.368
       276 -10.3563    164.9126    212.3039   9.3478737533e+01   6.1421469015e+00    0.2782136    0.1928661  44.64  0.001046228    1.370    0.270
       277  -9.6095     77.0000     42.3943   7.3967751103e+01   5.8427276078e+01    0.3247569    0.1617246 -38.81  0.001469482    1.969    0.492
       278  -8.9376    217.6630     39.3130   4.3529382338e+01   2.6208238605e+01    0.1461922   0.09042894 -65.04 0.0007046176    1.690    0.408
       279  -9.6217    193.7988     39.0079   4.6423626339e+01   3.1936880160e+01    0.2212268     0.187466  73.43 0.0003687992    1.145    0.127
       280 -11.1937    176.8162     36.2833   4.8093731103e+01   3.6482672952e+01    0.3691054    0.3323692 -11.17  0.001363235    1.267    0.211
       281  -9.5996    133.1422     37.0410   5.6277292608e+01   4.7180453468e+01    0.3976783    0.2738245 -72.80   0.00182019    2.087    0.521
       282  -9.6531    206.8311     37.0338   4.4230175071e+01   2.9053141006e+01    0.2291917    0.1902564  77.91 0.0006497067    1.171    0.146
       283  -9.4321     94.8210     36.1615   6.5743727507e+01   5.5927388985e+01    0.2323512    0.1806475  58.97  0.001258668    1.490    0.329
       284 -10.1898    231.5506     38.7317   4.1880366583e+01   2.3130964111e+01    0.4908007    0.2048971 -53.50  0.002056908    2.429    0.588
       285  -9.5871    153.0663    207.8346   9.5211489779e+01   8.9950532156e+00     0.210237    0.1780756  58.42 0.0009468851    1.265    0.209
       286  -9.5400     61.0532    206.7847   1.1478839424e+02   2.3620173753e+01    0.2052362    0.1614811 -89.06 0.0005801393    1.146    0.128
       287 -10.2562    238.2261    204.5506   7.7966519841e+01  -4.6394509194e+00    0.2421034     0.161613 -28.86  0.001419659    1.402    0.287
       288 -11.4124      6.6813    195.0196   1.2493059160e+02   3.2108693029e+01    0.7663075    0.1331227 -69.12   0.00294574    3.970    0.748
       289 -12.0914    106.0226     32.8112   6.1274287445e+01   5.3996200505e+01    0.5369105    0.3126033  22.29  0.001991762    2.229    0.551
       290 -12.2341    113.5680     25.2836   5.6491572532e+01   5.3233989872e+01     0.840592    0.3946723  49.78  0.003075046    1.903    0.475
       291 -12.0884      4.8943    184.2214   1.2459667678e+02   3.4614045175e+01    0.5981879    0.4280628  77.69  0.003126643    1.104    0.094
       292 -10.6607    198.2344     29.1545   4.3220017645e+01   3.2112419591e+01     0.510133    0.3998456 -32.91  0.002285026    1.335    0.251
       293  -9.4395    199.9926     24.4997   4.1794559588e+01   3.2246692231e+01    0.2226916      0.18331  26.65  0.000427269    1.576    0.365
       294  -9.1393    186.6604     32.6750   4.5657369723e+01   3.4503024493e+01    0.2368877    0.1473099  47.49  0.000559989    1.751    0.429
       295 -10.5788    189.5781     27.5033   4.3850733268e+01   3.4419211641e+01    0.4092732    0.2974474  17.35  0.001615765    1.961    0.490
       296  -9.1410    216.6124     32.2256   4.1898700013e+01   2.7370123951e+01    0.1698721    0.1263171 -22.53  0.000400627    1.564    0.361
       297  -9.1272     36.4678     32.0068   8.5836827434e+01   6.6167960088e+01    0.1805161    0.1458658   5.13 0.0006546415    1.187    0.157
       298 -11.0700    176.7368     30.1573   4.6334843019e+01   3.7269741584e+01    0.4107517    0.2177893  48.21   0.00183025    1.987    0.497
       299  -9.6553    221.8035     29.6751   4.0732543501e+01   2.6493111961e+01    0.2064877    0.1714566 -31.69 0.0005911991    1.308    0.236
       300  -9.1298     99.5040     30.4745   6.2146200855e+01   5.5711779172e+01    0.2150254    0.1727506  55.15 0.0007213081    1.315    0.240
       301  -9.8715     97.9040     26.7947   6.1127804492e+01   5.6516652393e+01    0.2624743    0.2132843 -32.79 0.0009442909    1.329    0.247
       302 -10.0687    230.6505     27.5697   3.9369010354e+01   2.4755637501e+01    0.3369571    0.1723014 -39.13  0.001635796    1.742    0.426
       303 -10.2895    211.3691     18.7787   3.9135232954e+01   3.0207807691e+01    0.2237904    0.1939603 -83.14 0.0002611983    1.039    0.038
       304 -10.5327    245.5869    200.9158   7.6002562076e+01  -5.2175348530e+00    0.2129708    0.1515083  16.20 0.0006928756    1.299    0.230
       305 -11.3812    183.0497     25.2848   4.4082226932e+01   3.6286298081e+01     0.545789    0.2957255  50.34  0.002471825    1.917    0.478
       306  -9.4579    250.5483     25.9684   3.7275511542e+01   2.0663463698e+01    0.1917977    0.1082449 -35.72  0.001042012    1.636    0.389
       307  -8.4120    206.2565     25.6556   4.1388765801e+01   3.0612202741e+01    0.1399255    0.0871797 -59.56 0.0003420631    1.589    0.371
       308  -9.3916     86.1405     23.8764   6.3358428921e+01   5.9307869178e+01    0.1953424    0.1493973  22.77 -0.0006383859    1.216    0.178
       309  -8.6229    207.2803    201.3370   8.3062799687e+01   7.7413727327e-01    0.1363029   0.09423435  -1.30 0.0005393964    1.618    0.382
       310 -10.7449    234.1577    197.0583   7.7268561081e+01  -2.9174880903e+00    0.4180441    0.2964033   3.57  0.001691343    1.378    0.274
       311  -8.6785    195.3063    199.6454   8.5085748482e+01   3.0893847731e+00    0.1265528     0.110329  86.32 0.0007041654    1.717    0.418
       312  -9.3679     45.0249     24.5242   7.8780664387e+01   6.6256111561e+01     0.196918    0.1514961 -31.69 0.0006276845    1.297    0.229
       313  -8.8493     83.5372    195.9862   1.0868527638e+02   2.2853990822e+01    0.1888881    0.1242606 -67.14 0.0006447854    1.510    0.338
       314  -9.8128     59.6303     23.9730   7.2546893014e+01   6.4132674011e+01     0.213969    0.1597943  -3.10 0.0004300806    1.221    0.181
       315 -10.1594     60.3001     19.8631   7.0412742703e+01   6.4568509241e+01    0.2710772    0.2217292 -47.85   0.00127234    1.712    0.416
       316  -9.4130    246.3047    193.6645   7.4493473286e+01  -4.2815467374e+00    0.1125953    0.1005705 -52.93 0.0007039182    1.668    0.400
       317  -9.1384    223.5222     22.0584   3.8752139150e+01   2.7024436233e+01    0.1999639    0.1512293  83.12 0.0006497286    1.252    0.201
       318  -9.9545    170.0124    191.4911   8.8758123758e+01   9.0502377400e+00    0.3919634    0.2152235  29.14  0.001233568    2.005    0.501
       319  -9.5369     74.5225     19.5374   6.5187766361e+01   6.2087043315e+01    0.2275804    0.1664839  10.10 0.0006024044    1.311    0.237
       320 -10.0746    239.8502    184.4766   7.3806021678e+01  -1.9061282073e+00    0.2414782    0.1802762  -9.45 0.0006156015    1.220    0.180
       321 -10.3386    250.1537    178.3389   7.0820704677e+01  -2.5944977581e+00    0.4324298    0.1498578 -31.29  0.001708178    2.780    0.640
       322  -9.5142    212.0415    181.6451   7.8318199820e+01   3.2261537413e+00    0.2308257    0.1019591  23.26 0.0007044879    4.437    0.775
       323 -10.2038     52.0726    173.6926   1.1315596824e+02   3.2217519182e+01     0.473139    0.2091199 -87.16  0.001795473    3.149    0.682
       324  -9.7220     28.0530    175.9847   1.1895643765e+02   3.4345151603e+01    0.2024394     0.154417  80.29  0.001294791    1.101    0.092
       325 -10.2721    186.3676     15.2503   4.0906111612e+01   3.6586683910e+01    0.2472519    0.2109235  86.71 0.0004654478    1.057    0.054
       326  -8.8002      1.6160     20.7733   9.8566241423e+01   7.1217997360e+01     0.114795   0.06327067 -22.62 0.0006885648    1.620    0.383
       327 -10.3263    189.0198     42.3200   4.7999448065e+01   3.2663475821e+01    0.3111378    0.1721726 -41.50  0.001085973    1.739    0.425
       328  -9.7956    231.0742    175.4183   7.3523298680e+01   9.6875491157e-01    0.3986256      0.12556  41.15   0.00146685    3.305    0.697
       329 -10.0428    247.7488    173.9289   7.0330631241e+01  -1.5408068874e+00    0.4347275    0.1647271  28.82  0.001497593    4.283    0.766
       330  -9.2296     57.4973    174.5358   1.1197175886e+02   3.1345181358e+01    0.1328005    0.1149973  89.26 4.588748e-05    1.024    0.024
       331  -9.7954     39.5160    173.4965   1.1608279694e+02   3.3718222277e+01    0.2232823    0.1765172 -77.14 0.0007664355    1.122    0.109
       332 -10.8173     35.6988    170.4027   1.1664453844e+02   3.4857058904e+01    0.3956514    0.2005016 -78.61  0.001689116    1.778    0.437
       333 -11.7054      9.5154    166.9657   1.2234066683e+02   3.8119390033e+01    0.5297362    0.3328769 -79.59  0.002241943    1.264    0.209
       334 -11.2570     13.7017    159.8405   1.2076894244e+02   3.9426638724e+01    0.4534749    0.2159543 -70.99  0.001468244    1.679    0.404
       335  -8.9457    197.9895    168.0205   7.8250394305e+01   8.2242164660e+00    0.1760542    0.1593707 -15.07 0.0007760004    1.037    0.035
       336  -9.5324    188.9557    164.0059   7.9234250919e+01   1.0724872524e+01    0.2767794    0.1835414 -25.67 0.0008823719    1.646    0.392
       337  -9.4520    152.2090    166.5936   8.7825996438e+01   1.7431540815e+01    0.1991611    0.1401396  30.14 0.0003608774    1.516    0.340
       338 -10.2493     18.9779    164.9715   1.2000689629e+02   3.7768454041e+01    0.2833364    0.2538692 -44.81  0.001513473    1.439    0.305
       339 -10.2192    205.1410    162.9967   7.5756350499e+01   7.7870568477e+00     0.574114    0.2531674  51.38  0.001973318    2.852    0.649
       340  -9.4517    208.4822    160.5134   7.4568479455e+01   7.6034569637e+00    0.2693813    0.1795933 -35.71  0.001083504    1.420    0.296
       341 -10.4080     28.0549    161.6008   1.1752951068e+02   3.7715013685e+01    0.4320969    0.1858888 -62.81  0.002072844    1.965    0.491
       342  -9.3055     79.0291    160.0728   1.0458329953e+02   3.1853639296e+01    0.2306706    0.1598831  76.12 0.0009557778    1.650    0.394
       343  -9.5113    215.2525    158.3678   7.2811859704e+01   6.7078806785e+00    0.2756977    0.1609782 -27.47 0.0008741064    1.751    0.429
       344  -9.0387    223.7598    156.9905   7.0942758727e+01   5.3658603271e+00    0.1905663    0.1091308 -35.77   0.00088072    1.603    0.376
       345 -10.2354      9.2495    156.1264   1.2148528745e+02   4.0657412064e+01    0.3075858    0.1526091 -61.28  0.001658824    1.767    0.434
       346 -10.9934     22.1486    155.4508   1.1831801843e+02   3.9730817666e+01    0.4305793    0.3421883  44.76  0.002065814    1.401    0.286
       347 -11.7403     15.5475    147.6613   1.1914408037e+02   4.2154852471e+01    0.5517829    0.3214858  41.34  0.002804194    1.856    0.461
       348 -11.7554     13.0728    138.7418   1.1883200050e+02   4.4483909993e+01     1.509635    0.6710269  86.74  0.006629791    2.580    0.612
       349 -11.2108     21.2781    150.6915   1.1803033807e+02   4.0944990381e+01    0.2116018    0.1604013  80.12 0.0001858185    1.196    0.164
       350 -11.6498     23.7256    148.6270   1.1718767666e+02   4.1223188551e+01    0.3122225    0.2003395 -56.22   0.00063771    1.494    0.330
       351 -10.3137    104.4028    154.1707   9.7007326996e+01   2.9194857947e+01    0.3604129    0.3234877 -28.11   0.00195177    1.273    0.214
       352 -10.9734     31.6868    153.4241   1.1572758357e+02   3.9316672893e+01    0.4583525    0.2929892  81.80    0.0025067    1.542    0.351
       353 -10.1611      3.4687    152.6273   1.2255039281e+02   4.1911259671e+01    0.3566996     0.164078  76.92  0.001734408    2.277    0.561
       354 -11.1326      3.8503    147.5348   1.2201795267e+02   4.3075578434e+01    0.4559398    0.2627092  56.28  0.002092508    1.782    0.439
       355 -11.6475      3.1709    140.6855   1.2156118632e+02   4.4735091274e+01    0.6601223    0.3654934  82.19   0.00364731    1.709    0.415
       356  -9.8683     72.2286    151.9594   1.0501784277e+02   3.4814025511e+01    0.4900252    0.1857174  49.47  0.001756151    3.110    0.678
       357 -11.1991     45.8543    148.0719   1.1138750793e+02   3.9123013220e+01    0.7253583    0.3957062 -60.92  0.003598833    1.591    0.372
       358 -10.7705     63.0635    150.7194   1.0723698886e+02   3.6370523563e+01    0.4050826    0.3202453  -6.57   0.00150251    1.805    0.446
       359  -9.7792    214.9047    150.8393   7.1214557230e+01   8.1257717625e+00    0.2554798    0.2136862  69.20  0.001193267    1.595    0.373
       360  -9.7595    234.5712    150.0116   6.7513384111e+01   4.5881878447e+00    0.3008656    0.1860215 -12.85  0.001370202    2.017    0.504
       361  -9.6252    239.8207    146.8402   6.5933741336e+01   4.1762920569e+00    0.2082349    0.1710467 -11.10 0.0006006908    1.160    0.138
       362 -10.8736    249.5326    142.6191   6.3442306968e+01   3.1555540689e+00    0.6194473     0.250232 -37.25  0.002609597    2.122    0.529
       363  -9.5255    107.8208    146.0599   9.4499566329e+01   3.0530854425e+01     0.226263    0.1969702  88.26 0.0003774947    1.216    0.178
