#   1 NUMBER                 Running object number                                     
#   2 MAG_AUTO               Kron-like elliptical aperture magnitude                    [mag]
#   3 X_IMAGE                Object position along x                                    [pixel]
#   4 Y_IMAGE                Object position along y                                    [pixel]
#   5 X_WORLD                Barycenter position along world x axis                     [deg]
#   6 Y_WORLD                Barycenter position along world y axis                     [deg]
#   7 A_WORLD                Profile RMS along major axis (world units)                 [deg]
#   8 B_WORLD                Profile RMS along minor axis (world units)                 [deg]
#   9 THETA_WORLD            Position angle (CCW/world-x)                               [deg]
#  10 FWHM_WORLD             FWHM assuming a gaussian core                              [deg]
#  11 ELONGATION             A_IMAGE/B_IMAGE                                           
#  12 ELLIPTICITY            1 - B_IMAGE/A_IMAGE                                       
         1 -13.2486     59.1492     63.3215   9.1422918591e+01   5.7528053748e+01     1.793746      0.90304 -25.81  0.007105025    2.851    0.649
         2 -13.9876      7.2212     46.3146   1.0755507105e+02   6.6008465757e+01    0.9720528     0.882903 -62.32  0.007317828    1.280    0.219
         3 -15.0115      5.9326     69.1908   1.1344527363e+02   6.1208143716e+01     1.289797    0.6035261 -62.81  0.005028557    1.615    0.381
         4 -12.0263    232.5590      2.1347   3.5636533346e+01   2.6797772379e+01    0.3875105    0.2283331  66.71  0.001695627    1.678    0.404
         5 -15.4122    218.4549     16.3145   4.0167449712e+01   2.8541295868e+01     1.991511     1.647136 -30.20    0.0121424    1.334    0.250
         6 -13.8653    189.1637     26.2722   4.6073822296e+01   3.4590252472e+01     1.561445    0.7078046 -56.75  0.005988881    2.751    0.637
         7 -13.7292    187.7559     12.1713   4.2298310935e+01   3.6514462466e+01     1.069243    0.5838931 -45.51  0.005156856    1.824    0.452
         8 -13.4822    131.7707     32.7135   5.7964811821e+01   4.8301378903e+01     1.061351    0.5094182 -34.61  0.004470422    2.126    0.530
         9 -14.3841    121.8103     37.5782   6.2050413404e+01   5.0033361732e+01     1.080196    0.5429723  36.12  0.003472944    2.286    0.562
        10 -13.4154      2.6712     10.7014   9.7351352437e+01   7.2886474793e+01    0.7644127    0.3158899 -52.23  0.004113547    2.278    0.561
        11 -13.2679      8.0178      2.7151   9.0381069839e+01   7.3732738190e+01    0.4860795    0.3847516  33.24  0.002307643    1.864    0.464
        12 -13.2596     16.9114     10.4664   8.9298907504e+01   7.1786973547e+01    0.3363035    0.2906744 -53.57 0.0009456673    1.784    0.439
        13 -15.9537     14.0677     20.4517   9.5355468346e+01   7.0422370417e+01     1.849604    0.9283528 -29.66  0.009482027    1.731    0.422
        14 -14.5702     24.3454     13.9271   8.7080523873e+01   7.0524559213e+01    0.7294065     0.453564  19.67  0.002200636    1.625    0.385
        15 -13.2247    139.6841     22.0354   5.2569815517e+01   4.7629765818e+01    0.7103044    0.3264209  62.24  0.002294109    2.015    0.504
        16 -14.6152    166.6141     30.1095   5.0493968256e+01   3.9871754658e+01      1.14616    0.8769614  58.29   0.00378838    1.234    0.189
        17 -14.8187    147.1645     29.9513   5.3853670489e+01   4.4834105349e+01     1.383742    0.8485642  58.97  0.004516749    1.511    0.338
        18 -12.7070     71.5138     17.8574   6.8702425633e+01   6.3155247856e+01    0.4884647    0.3514559 -32.67   0.00227882    1.476    0.323
        19 -15.4458     97.7611     12.3856   5.8254020317e+01   5.8493968648e+01     1.652684    0.7488534  51.89  0.006087233    1.945    0.486
        20 -11.9024     60.0597     16.9159   7.2484199758e+01   6.5261904532e+01     0.319958    0.1726285 -32.81  0.001678352    1.804    0.446
        21 -14.4661     42.4465      4.0098   7.3272586460e+01   6.9579515030e+01     1.137388     0.611828 -20.48  0.005367028    1.720    0.419
        22 -11.6333    153.1993      8.7618   4.5810592076e+01   4.5586795886e+01    0.2340705    0.2112841  73.06 0.0006724219    1.027    0.026
        23 -11.5386     68.1735      5.2639   6.3873883801e+01   6.5173722633e+01    0.2342509    0.1518616 -45.96  0.001252705    2.254    0.556
        24 -12.5379    118.5851      2.9177   4.9669995119e+01   5.4602178649e+01    0.5141246    0.2866747  85.57    0.0022529    2.551    0.608
        25 -12.5094     79.2103      2.2410   5.8906500386e+01   6.3332344393e+01    0.5827399     0.202719  47.79  0.002541484    2.368    0.578
        26 -12.1954     61.7071      1.9804   6.4494648251e+01   6.6669205735e+01    0.2957028    0.2061489  51.84  0.001282543    1.617    0.382
        27 -15.0216    212.4680     41.0827   4.7111256195e+01   2.6914906662e+01     2.707379    0.8283427  72.26  0.008176235    4.403    0.773
        28 -12.3059     49.0060      3.4938   7.0186673173e+01   6.8642203489e+01    0.2324745    0.1617592  37.42 0.0006206108    1.431    0.301
        29 -12.9326    164.4977    195.4553   9.3501848736e+01   9.5759551165e+00    0.5471393    0.3166919 -64.41  0.002303404    2.781    0.640
        30 -13.3872     28.4155    246.1737   1.2596526010e+02   2.0432886950e+01    0.4380906    0.2534832  66.89  0.003060044    1.299    0.230
        31 -12.0449      2.8471    249.7828   1.3021284037e+02   2.2447887801e+01    0.2527318    0.1480997  54.63  0.001760952    1.296    0.228
        32 -13.7406      8.9284    245.5877   1.2909376724e+02   2.2584276858e+01    0.6874015    0.3282504  59.84  0.003305095    1.510    0.338
        33 -12.4732    201.0338    192.0439   8.5443318640e+01   3.4988743284e+00    0.3510409    0.2788102  -7.05  0.001472917    1.286    0.223
        34 -11.9209     98.1571    187.5104   1.0679539968e+02   2.2854898678e+01    0.3032866    0.1963436 -11.14  0.001102009    4.325    0.769
        35 -12.0393     49.1029    181.5233   1.1709226432e+02   3.1099426064e+01    0.3571479    0.2323417 -55.58   0.00203003    1.691    0.409
        36 -13.3687    197.1035    179.5337   8.3775389291e+01   6.3501000781e+00    0.7239459    0.4624434 -68.76   0.00283401    3.384    0.704
        37 -12.5319     85.3130    180.5088   1.0874279127e+02   2.6408073694e+01    0.2971535    0.1937106  80.01   0.00147891    1.743    0.426
        38 -13.3792    123.9471    166.5566   9.7344957498e+01   2.3034064622e+01     0.608796    0.4023628 -81.96  0.002650814    2.124    0.529
        39 -12.0860     77.3644    156.9458   1.0716910836e+02   3.3061563652e+01    0.4008484    0.2971323  32.56  0.001504839    1.527    0.345
        40 -13.4040     73.9175    153.4231   1.0748700601e+02   3.4403035819e+01    0.6560742    0.4767734  38.40  0.002512083    1.472    0.321
        41 -12.1050    111.9242    156.5349   9.8394602079e+01   2.7499978644e+01    0.4223032    0.2346433 -84.51  0.001361392    3.867    0.741
        42 -12.7425    208.8799    154.6668   7.6198530964e+01   8.4833833358e+00     0.647301    0.3928085  42.78   0.00301587    1.674    0.403
        43 -12.4658     42.0735    207.3449   1.2093637019e+02   2.6350453741e+01    0.2806189    0.1521222  78.39  0.001367053    1.762    0.432
        44 -11.4035     56.0102    156.0111   1.1240881737e+02   3.6179817349e+01    0.2063292    0.1513521 -41.88 0.0008528247    1.679    0.404
        45 -11.8655     85.8876    152.8440   1.0432042764e+02   3.2750151844e+01    0.4525766    0.2307515 -50.65  0.001956898    1.974    0.493
        46 -11.2630    133.1138    152.7195   9.2408001920e+01   2.4376496061e+01    0.2376223    0.2017224 -67.27 0.0002448303    1.234    0.190
        47 -11.8414    103.1709    150.1569   9.9391618939e+01   3.0537174564e+01    0.4061729    0.2686252 -36.01  0.001797753    1.898    0.473
        48 -11.8607     24.2622    150.5378   1.1961911691e+02   4.0898122017e+01    0.3051652      0.23534 -66.63  0.001972248    1.219    0.180
        49 -11.1032     60.3183    149.3047   1.1035402748e+02   3.7243441130e+01    0.1320029     0.100171 -38.51 0.0004215928    1.629    0.386
        50 -11.3989     88.8007    140.1833   1.0124825656e+02   3.5328835705e+01    0.2003985    0.1755867 -28.43  0.001084929    1.354    0.261
        51 -13.1770    246.2858    133.4685   6.4839711977e+01   4.8402204622e+00    0.4965359     0.400889 -45.65  0.002835742    1.289    0.224
        52 -14.9060    230.2913    129.0245   6.6451899434e+01   8.6922564678e+00     1.303366     1.062077  61.98  0.007073326    1.485    0.327
        53 -12.3037     45.1909    134.9299   1.1222499697e+02   4.2534934874e+01    0.3178838    0.2236032  73.15  0.001747648    1.513    0.339
        54 -13.4031    120.3510    102.2849   8.3569142043e+01   3.8399124465e+01    0.6932209    0.3462438  40.09  0.002648081    2.127    0.530
        55 -14.4546    105.7294    121.8156   9.2659480463e+01   3.6798226249e+01     1.609228       1.1275  38.21  0.007577026    1.510    0.338
        56 -15.0535    106.5089    105.8712   8.8440384197e+01   4.0362456470e+01     1.719595      1.38819  10.96  0.007517487    1.523    0.344
        57 -11.0025     59.4428    125.5100   1.0666194078e+02   4.3144806333e+01    0.1394222    0.1213597 -66.64 2.645195e-05    1.028    0.028
        58 -12.1735    181.1927    121.1981   7.3876192630e+01   2.0779212061e+01    0.3364705    0.2581203 -67.41   0.00153918    1.621    0.383
        59 -12.3493     28.0804    122.3729   1.1515442981e+02   4.7271737370e+01    0.2748716    0.1680455 -77.48  0.001494572    1.431    0.301
        60 -12.8249     77.3091    117.3856   9.9808497878e+01   4.2644530616e+01    0.5396846    0.3937856 -76.57  0.002693523    1.490    0.329
        61 -13.1747     85.1983    115.3973   9.7033630114e+01   4.1890937603e+01    0.6944308    0.3604728  30.45  0.002138164    2.304    0.566
        62 -11.9431      4.1033    119.7525   1.2152539916e+02   4.9689690518e+01    0.4565825    0.1751947  15.12  0.002106813    3.757    0.734
        63 -13.8028     17.6386    111.2459   1.1660039401e+02   5.0778564059e+01    0.8934304    0.5764199 -49.74  0.005270862    1.461    0.315
        64 -13.9269     10.7454    103.1122   1.1752105925e+02   5.3173598180e+01    0.8225828    0.6376554 -69.13  0.005475162    1.007    0.007
        65 -13.3244      2.2523     97.2557   1.1932943745e+02   5.5035263944e+01    0.7818508    0.2299009 -73.96  0.003190658    2.847    0.649
        66 -12.0766     36.8655     93.1875   1.0736271075e+02   5.3441557550e+01    0.3688897    0.2245541   6.82  0.001440906    2.280    0.561
        67 -13.6372     20.5623     96.3063   1.1335249538e+02   5.4093091012e+01    0.8709463    0.4645862 -72.72  0.004523246    1.659    0.397
        68 -13.7687     28.8319     92.3931   1.0989947376e+02   5.4353260790e+01      0.98791    0.6955097  85.24  0.005540921    1.700    0.412
        69 -11.7624    176.6980    110.6507   7.2108064974e+01   2.3909313824e+01    0.3517177    0.2675095   6.79  0.001558923    1.744    0.427
        70 -12.4682     87.9924    109.3814   9.4775116594e+01   4.2864566774e+01    0.4046199    0.3094722 -55.24  0.002054025    1.222    0.181
        71 -11.2637     45.9115    110.6457   1.0792724559e+02   4.8353996788e+01     0.252009    0.1605425 -53.55  0.001325392    1.367    0.269
        72 -11.6660    223.1121    109.8616   6.3096923599e+01   1.3508444468e+01    0.2314378    0.1977701 -60.11 0.0008757288    1.267    0.211
        73 -11.6971     32.4728    105.1604   1.1109887461e+02   5.1012375579e+01    0.2453333    0.1548851  49.14  0.001164027    1.877    0.467
        74 -12.4541    135.8499    103.2352   7.9702193362e+01   3.4852176712e+01    0.7805344     0.277391  47.71  0.002487248    2.903    0.656
        75 -11.2481     64.6621    102.2712   1.0027512074e+02   4.8080448362e+01    0.2514095    0.2014258  63.17 0.0004302267    1.475    0.322
        76 -11.8666     62.0111     98.5184   1.0024356436e+02   4.9322923470e+01    0.3692023    0.2930709  85.32  0.001627614    1.534    0.348
        77 -13.5297    249.1150     97.0062   5.6063623303e+01   1.0195430600e+01     0.794035    0.2182812 -38.05  0.002730754    2.986    0.665
        78 -11.0837     48.5164    101.4775   1.0527359116e+02   5.0267248018e+01    0.4520958    0.2729522  66.51  0.002042337    2.491    0.599
        79 -12.3995     52.5341     98.1040   1.0323419188e+02   5.0605905020e+01    0.4775912    0.3093457   3.77  0.001977901    2.236    0.553
        80 -12.3192     49.4240     94.6062   1.0347005079e+02   5.1791604814e+01    0.4490399    0.3348312 -87.15   0.00189047    1.602    0.376
        81 -12.6886    136.9737     95.6857   7.7274708922e+01   3.6198674893e+01    0.5022878     0.378391  65.53  0.001651313    1.558    0.358
        82 -11.0105     25.5645    127.2496   1.1652959182e+02   4.6320491925e+01    0.1858748   0.09477884 -61.28 0.0009000423    1.602    0.376
        83 -11.3843     42.9122     91.0573   1.0485779746e+02   5.3334306350e+01    0.2728241    0.1750474 -72.44  0.001061917    1.623    0.384
        84 -11.9773     90.0762     88.3525   8.8526428045e+01   4.7335805239e+01    0.4486476    0.3210972  51.46  0.002174509    1.605    0.377
        85 -13.9045    242.2857     84.1426   5.3968024367e+01   1.3655679727e+01    0.5402231    0.4208105 -85.84  0.002939291    1.526    0.345
        86 -13.7190    237.1880     80.4476   5.3772255429e+01   1.5337301628e+01    0.5671875     0.361356  75.58  0.002640644    1.964    0.491
        87 -12.4258    149.6291     85.1195   7.1043992745e+01   3.5377267186e+01    0.5843537    0.3733178  29.15  0.002353428    2.025    0.506
        88 -12.8826    132.1592     85.8924   7.5626590509e+01   3.9299641516e+01    0.3512934    0.2646357  35.14  0.001470393    1.414    0.293
        89 -13.0851    135.7009     79.9490   7.2893087409e+01   3.9662979801e+01    0.7258117    0.3898067  47.09   0.00290133    1.874    0.466
        90 -11.0644     34.4408     86.8429   1.0683180906e+02   5.5148669572e+01    0.2087628      0.15536 -33.46 0.0009185157    1.372    0.271
        91 -13.2824    188.4969     84.2251   6.2569069175e+01   2.6063721932e+01    0.7992083    0.3500582  42.74  0.002677671    2.715    0.632
        92 -13.5275    164.1881     71.4684   6.3695960698e+01   3.4326811134e+01     1.552383    0.5163109  46.46  0.004814689    3.192    0.687
        93 -12.9316    160.0404     68.3117   6.3609936898e+01   3.5905927967e+01    0.6806115    0.4424658 -49.54  0.002145339    1.638    0.389
        94 -13.7688    160.6128     81.0444   6.7323060980e+01   3.3489715505e+01    0.9494143    0.6602038  23.58  0.003158104    1.915    0.478
        95 -14.6136    169.3409     77.2866   6.4356269687e+01   3.2020808092e+01      1.47514    0.6368605  52.16  0.005342743    2.294    0.564
        96 -13.2775     65.9731     49.1741   8.3904596919e+01   5.9277591967e+01     0.498282    0.4732333 -88.91  0.003105636    1.436    0.304
        97 -11.3613    209.6616    249.6775   9.3561198360e+01  -6.1832486342e+00    0.1223832   0.07557549  12.12 0.0007050719    1.717    0.418
        98 -13.8094     61.0204     75.5478   9.4516022916e+01   5.4686337270e+01    0.6487924    0.3925068 -41.73  0.001167554    1.488    0.328
        99 -13.6882    213.1918     78.3971   5.6766176306e+01   2.1119707705e+01     1.119685    0.6263475  77.59  0.004389442    2.593    0.614
       100 -13.0505    216.7771     73.4893   5.4946174689e+01   2.1073798223e+01    0.7264575     0.446684 -76.97  0.003000409    2.394    0.582
       101 -12.0792    114.1127     80.2008   7.8807574959e+01   4.4407209276e+01    0.4006576    0.3262127 -50.19  0.001157972    1.258    0.205
       102 -11.4341    121.7437    112.4097   8.5913234591e+01   3.5845299499e+01    0.2099254      0.15063  32.47 0.0005794148    1.545    0.353
       103 -13.6796     86.0660     66.4457   8.2968981044e+01   5.2647259735e+01     1.748435    0.9310222 -21.06  0.005149433    3.099    0.677
       104 -13.1096     70.6299     75.9275   9.1257627023e+01   5.3229250066e+01    0.5350902    0.4190111 -14.07  0.001229862    1.409    0.290
       105 -12.2018     77.1447     73.8454   8.8380657223e+01   5.2654744144e+01    0.3224448    0.2873235 -37.93 0.0009698548    1.046    0.044
       106 -12.5421     16.7890     79.3315   1.1148495620e+02   5.8283633717e+01    0.2992509    0.1767939 -71.69  0.001017592    1.550    0.355
       107 -14.1186    170.9704    243.0763   9.9677165636e+01   6.4512476810e-01    0.9335458    0.5273751  34.63  0.005243863    1.483    0.326
       108 -12.3369     23.2540     71.7239   1.0745179822e+02   5.9526200110e+01    0.2164937    0.1893451 -46.49 0.0004042482    1.093    0.085
       109 -11.7696     40.3988    243.6578   1.2380531034e+02   1.9520508439e+01    0.2437925    0.1185227 -85.72  0.001459192    2.001    0.500
       110 -12.4774     16.8263     71.2780   1.0977599660e+02   6.0090100906e+01    0.3837898    0.2288872  21.77  0.001662557    2.028    0.507
       111 -12.9336     54.9567     82.0480   9.8477663094e+01   5.4030445096e+01    0.5779927    0.3590696 -38.05  0.002164379    1.555    0.357
       112 -13.9653    199.1811     69.7768   5.6716368934e+01   2.5901237057e+01       1.0265    0.6299813  40.74   0.00330822    1.935    0.483
       113 -11.8808    199.8796     62.2306   5.4541528431e+01   2.6929703918e+01    0.3809223     0.264987 -34.62 0.0008918813    1.409    0.290
       114 -12.4284    242.1140     71.5410   5.0985814483e+01   1.5647598501e+01    0.4204068    0.2686892 -69.49  0.002015934    1.913    0.477
       115 -13.3726    133.8527     65.7426   6.8832019456e+01   4.2734327513e+01    0.7507309    0.6763498  -6.04  0.002511658    1.158    0.137
       116 -12.3264     38.1600     68.3381   1.0090641875e+02   5.8951486408e+01    0.5442116    0.2203267  30.35  0.002441427    2.777    0.640
       117 -11.7594    100.4018     64.9947   7.7894130762e+01   5.0212366433e+01    0.4298486    0.2640861 -22.19  0.001839928    1.979    0.495
       118 -13.9411    178.0625     57.7598   5.6919244513e+01   3.3091677604e+01    0.9122303    0.6939516 -42.51  0.002626139    1.300    0.231
       119 -12.2352     79.6905     61.0448   8.3270536329e+01   5.4816641678e+01    0.4261866    0.3756057  19.56  0.001772415    1.158    0.136
       120 -12.7731     81.4092     54.6615   8.0404303193e+01   5.5716389404e+01    0.6444629    0.4461663  29.85  0.003148296    1.507    0.337
       121 -11.8678     24.4750     59.9573   1.0398987179e+02   6.1988954388e+01    0.2779648    0.1847556 -47.63 0.0007957266    1.192    0.161
       122 -14.6504    119.8117     54.6286   6.8694643533e+01   4.7897907680e+01    0.9392979    0.6667742  34.73  0.002233443    1.458    0.314
       123 -12.0090    230.5913     55.3634   4.8493645411e+01   2.0627947864e+01    0.4274076    0.1740287  71.15  0.001613283    3.003    0.667
       124 -13.3205    248.2779     51.8268   4.5635959184e+01   1.7194025528e+01    0.6751034    0.4037934 -32.78  0.003465792    1.577    0.366
       125 -12.8582    135.6260     50.2850   6.3225549215e+01   4.4876707221e+01    0.5577039    0.3412905  30.30  0.002347913    2.017    0.504
       126 -13.5405    103.1700     50.6917   7.1971710613e+01   5.2191703878e+01    0.7285104     0.497843 -58.39 0.0008087581    2.027    0.507
       127 -12.2912     98.1873     50.9858   7.3587834527e+01   5.3170529548e+01    0.6216487    0.3472993 -52.23  0.002191763    2.391    0.582
       128 -11.6897     25.0340     48.0080   1.0022660379e+02   6.4409184842e+01    0.5055007    0.1671304 -34.37  0.001864364    3.749    0.733
       129 -13.6647     96.6779    238.7986   1.1325245167e+02   1.2944506259e+01    0.5709963    0.3598534  46.15  0.002568641    1.300    0.231
       130 -13.4702     91.1328    232.1428   1.1363753589e+02   1.4954759171e+01    0.4501323    0.2534724  83.60  0.002320109    2.318    0.569
       131 -12.1288    147.3435    239.0082   1.0360586201e+02   5.0462500136e+00    0.1651193    0.1523883  48.34 0.0009047912    1.134    0.118
       132 -12.1205     14.4260    223.8381   1.2715024300e+02   2.6046623933e+01    0.4122362    0.2063715  64.72  0.001810535    1.573    0.364
       133 -11.5882     24.8862    217.5779   1.2492606959e+02   2.6190166610e+01    0.5249339    0.3518793 -88.86   0.00365521    1.252    0.201
       134 -13.8299     25.7114    227.3776   1.2537188867e+02   2.4195677464e+01    0.5952246     0.350621 -66.36  0.003917015    1.842    0.457
       135 -12.9547    109.7644     42.4031   6.6993353517e+01   5.2082888991e+01    0.5472662     0.246548  47.69  0.001334772    2.120    0.528
       136 -12.6416    113.4858     38.0040   6.4332660009e+01   5.1891805457e+01    0.3962057     0.318394  46.46  0.002144142    1.198    0.165
       137 -10.3798     55.5075     41.3933   8.4970269539e+01   6.2217164362e+01    0.1310173    0.1096295 -12.91 0.0001062599    1.040    0.038
       138 -13.7496    242.3809     35.1844   4.2380491357e+01   2.0729755620e+01     0.793044    0.5190797  77.28  0.002884717    1.566    0.361
       139 -12.4983     75.8642     37.4111   7.5665753096e+01   5.9631383222e+01    0.3349308    0.2401015  37.56 0.0008198305    1.407    0.289
       140 -12.2727     69.5577     36.7644   7.7677707159e+01   6.0821140691e+01    0.4038735    0.2176333  33.38  0.000950326    1.913    0.477
       141 -11.7355     58.5945     35.2973   8.1267802075e+01   6.2801202991e+01    0.4676316    0.2168937  34.71  0.002178985    2.248    0.555
       142 -12.2978     46.2135     33.9591   8.5818097116e+01   6.4757073714e+01     0.468738    0.2706818 -26.35  0.002485506    1.653    0.395
       143 -13.4283     20.8942    225.3723   1.2610345225e+02   2.5090384508e+01    0.3768533    0.2835418  63.73  0.002637622    1.138    0.121
       144 -13.2681    237.0509    230.3970   8.5673850784e+01  -7.8246171963e+00    0.2942828    0.2059977  39.08  0.001885757    1.531    0.347
       145 -12.6163      1.7557     21.7691   1.0236520529e+02   7.1034896633e+01    0.2405813    0.1316383 -53.02 0.0007095122    1.545    0.353
       146 -12.3764     57.3148    246.8341   1.2109493485e+02   1.6896820116e+01    0.3504056    0.1147648  40.96  0.001739471    2.456    0.593
       147 -13.1777     65.8650    223.4720   1.1767255005e+02   2.0126585047e+01    0.6663941    0.5317425  43.74  0.004546071    1.327    0.246
       148 -14.0031     62.9218    214.5723   1.1744118266e+02   2.2279848167e+01    0.7193936     0.407485  59.94  0.004077255    1.562    0.360
       149 -12.7349     94.6339    218.6587   1.1150805934e+02   1.6981906512e+01    0.3030403    0.2084561  63.72  0.001700938    1.342    0.255
       150 -12.0113    185.7033    213.5962   9.2323459046e+01   2.6915525027e+00      0.20699    0.1688405 -68.97  0.001197828    1.791    0.442
       151 -13.6510      8.9852    210.8161   1.2742085845e+02   2.9129075821e+01    0.8666735    0.5151343  70.00  0.005886667    1.293    0.227
       152 -11.0633     89.1410     30.1521   6.8233223907e+01   5.8187865605e+01     0.200263    0.1628512  13.64 0.0002680463    1.160    0.138
       153 -12.9759     56.4152     27.6116   7.8842195891e+01   6.4340539865e+01    0.5802817    0.2905676  43.52    0.0019321    2.262    0.558
       154 -12.9166     67.8360     24.5023   7.3041606503e+01   6.2939167694e+01    0.6522281    0.3353957  37.79  0.003220077    1.896    0.472
       155 -12.5653    120.3646     26.6361   5.8329761863e+01   5.1788696191e+01    0.5589761    0.3478458  56.48  0.002709378    1.522    0.343
       156 -10.8879     98.0531     27.4604   6.4450191600e+01   5.6703121064e+01    0.2102484    0.1278433  50.36  0.001029588    1.590    0.371
       157 -12.2585     29.8301     31.8138   9.2265375360e+01   6.7021884804e+01    0.4516747    0.2373865   2.18  0.001834725    2.649    0.623
       158 -12.0841     46.4767     20.9176   7.9965357487e+01   6.6781651033e+01    0.3109726    0.2221709 -13.98  0.001153114    1.223    0.182
       159 -13.0111     16.7678    195.6433   1.2504783194e+02   3.1502189187e+01    0.8517561    0.2479167 -69.58  0.003934881    2.813    0.644
       160 -11.3153     53.5255     20.1872   7.6640830880e+01   6.5859285900e+01    0.3082522    0.1470347  23.95  0.001384674    2.586    0.613
       161 -14.4154     29.9317    169.3642   1.2017175146e+02   3.5984385904e+01     1.190155    0.6391993  61.69  0.004124228    1.824    0.452
       162 -13.9228     22.4975    180.7862   1.2279711080e+02   3.4154980868e+01    0.7397704    0.4593528 -60.31  0.003782999    1.682    0.405
       163 -14.9668      8.1644    183.5577   1.2596074206e+02   3.4871518943e+01     1.114094    0.8021964  80.41  0.007847727    1.052    0.050
       164 -13.0763    157.7823     43.8439   5.6387709440e+01   4.0315042261e+01    0.7997398    0.4895889  34.14  0.003437595    1.990    0.497
       165 -15.2727     15.9118    175.7062   1.2379657118e+02   3.5900267193e+01     2.268984     1.005089  71.20   0.01119304    2.318    0.569
       166 -11.3457    136.7262    211.3826   1.0190092632e+02   1.1562064572e+01     0.219253    0.1642696 -73.03 0.0008385249    1.629    0.386
       167 -11.2097    150.7501    206.9858   9.8311061520e+01   9.9352569605e+00    0.2622527    0.1626238  29.78   0.00129434    1.684    0.406
       168 -12.6868     57.2977    203.3666   1.1752427454e+02   2.5320220244e+01    0.4943416    0.2233513 -84.71  0.002260353    2.564    0.610
       169 -11.5877    169.4812     43.5160   5.4149049656e+01   3.7380596026e+01    0.3064595    0.1398123  61.66 0.0009493701    2.111    0.526
       170 -13.3284     40.4952    195.5288   1.2026786879e+02   2.9026412668e+01    0.4586132    0.2279499 -89.55     0.002356    1.996    0.499
       171 -10.5362    212.3218    200.3536   8.4837706297e+01   1.9866904116e-01    0.1401643   0.09309209   4.25 0.0007047065    1.755    0.430
