#   1 NUMBER                 Running object number                                     
#   2 MAG_AUTO               Kron-like elliptical aperture magnitude                    [mag]
#   3 X_IMAGE                Object position along x                                    [pixel]
#   4 Y_IMAGE                Object position along y                                    [pixel]
#   5 X_WORLD                Barycenter position along world x axis                     [deg]
#   6 Y_WORLD                Barycenter position along world y axis                     [deg]
#   7 A_WORLD                Profile RMS along major axis (world units)                 [deg]
#   8 B_WORLD                Profile RMS along minor axis (world units)                 [deg]
#   9 THETA_WORLD            Position angle (CCW/world-x)                               [deg]
#  10 FWHM_WORLD             FWHM assuming a gaussian core                              [deg]
#  11 ELONGATION             A_IMAGE/B_IMAGE                                           
#  12 ELLIPTICITY            1 - B_IMAGE/A_IMAGE                                       
         1 -16.3096     31.1285    132.0071   1.2034323469e+02   4.4122133582e+01     4.164802     3.103048  46.72    0.0293168    1.518    0.341
         2 -12.7386    185.1572     34.3051   5.8051667757e+01   3.4885095627e+01     1.943823     1.312892  20.38  0.008564396    1.894    0.472
         3 -10.4455     26.1954      1.9197   9.0204818047e+01   7.0601703049e+01    0.3135296    0.1822703  -3.96  0.001531924    1.977    0.494
         4 -11.9724      5.7603     15.6154   1.0526028192e+02   6.9942598172e+01    0.9956396    0.4414417  -9.93  0.005066325    3.558    0.719
         5 -11.6253      9.0814      4.2453   9.9336851061e+01   7.1662270979e+01    0.5594232    0.4402534   4.87    0.0044845    1.443    0.307
         6 -10.1226    207.7934      4.4143   4.5851321338e+01   3.2351344324e+01    0.6644706    0.3428254 -84.18  0.002664607    2.471    0.595
         7  -9.8867    211.0013      2.2434   4.4882282534e+01   3.1730036801e+01     0.614475    0.2641119  80.09  0.002371057    2.539    0.606
         8  -9.7676     39.5184      3.5285   8.5106837111e+01   6.8937264414e+01    0.2382849    0.1741523 -45.30  0.001512373    1.703    0.413
         9  -9.9966     31.5162      3.5882   8.8605923017e+01   6.9818905161e+01    0.2267334    0.1512912 -10.06   0.00149354    1.393    0.282
        10 -10.4857     54.1917    208.1403   1.2301916374e+02   2.6481352136e+01    0.1245515   0.08504654  76.53 0.0002882175    1.116    0.104
        11 -13.8722    244.9333    235.9349   9.4251376956e+01  -7.4637331928e+00     3.478968     1.313941 -30.96   0.01831524    3.138    0.681
        12  99.0000     40.5636    203.5225   1.2494184670e+02   2.8894864435e+01     1.068033    0.2579109 -79.63  0.003659516    6.405    0.844
        13  99.0000     48.0728    197.8687   1.2325504670e+02   2.9069555135e+01    0.5004069    0.2521049  38.43  0.002947031    2.217    0.549
        14 -12.6595    120.3280    232.8710   1.1426507236e+02   1.3165493889e+01     4.713821     3.464871  57.01   0.03399656    1.041    0.039
        15  99.0000     19.6943    220.3309   1.2923517509e+02   2.8175308006e+01     1.528967     1.265077 -88.60   0.01377731    1.472    0.321
        16 -11.7005     51.8082    216.3809   1.2401913147e+02   2.5322451449e+01    0.8404704    0.2860201  64.24  0.003944808    3.263    0.694
        17 -15.4138     72.5788    245.7266   1.2286690082e+02   1.7962853167e+01    0.9080548    0.3625835  56.71  0.005501609    1.909    0.476
        18 -16.5853     53.2377    247.3734   1.2580940031e+02   2.0111950147e+01     2.151614    0.3590846  43.99  0.009622477    4.107    0.757
        19 -16.5665     57.3045    233.9600   1.2436869381e+02   2.1724540407e+01      1.69277    0.8694361  42.61   0.01125074    1.919    0.479
        20 -15.4720     37.1192    231.1430   1.2722660904e+02   2.4534839936e+01     1.213131     1.088301 -17.83  0.009782445    2.591    0.614
        21 -10.9667      1.7526    207.7429   1.3131551835e+02   3.2028787363e+01    0.2057408   0.05396016  88.23 0.0008795017    4.451    0.775
        22 -11.6058     76.8912    205.3424   1.1891550246e+02   2.4071201586e+01    0.1719101    0.1305592  84.71 0.0003156405    1.127    0.113
        23 -11.2159     48.8428    204.5928   1.2364179797e+02   2.7753644851e+01    0.1339193   0.09536155  60.43 0.0005541226    1.207    0.171
        24 -11.2913      6.6575    203.5751   1.3037288931e+02   3.2315491607e+01    0.2150573    0.1090258 -66.04   0.00150212    2.097    0.523
        25 -11.7153     62.3094    202.6251   1.2119684563e+02   2.6471133976e+01    0.1759724    0.1306214  77.94  0.000354665    1.037    0.036
        26 -11.9382     58.6480    199.2766   1.2154473406e+02   2.7540524071e+01    0.2336158    0.1582572  34.83  0.001028139    1.957    0.489
        27 -11.1947     17.7755    202.1412   1.2855492803e+02   3.1524029486e+01    0.1633821   0.05365829  85.62 0.0007479023    3.515    0.715
        28 -13.4479     89.6947    247.2407   1.2039966429e+02   1.5460347133e+01    0.5527278     0.187872  57.82  0.002816409    2.652    0.623
        29 -10.4247     20.3768    197.2210   1.2784874464e+02   3.2156874409e+01    0.1161183   0.07542009 -75.11 0.0008695261    1.459    0.315
        30 -11.4438     20.5577    193.7181   1.2760508401e+02   3.2779670757e+01    0.1251739   0.08018582 -87.58 0.0009338391    1.215    0.177
        31  -8.9960     90.0289    196.8288   1.1571804794e+02   2.3769495950e+01    0.1656559    0.1302778  71.61 0.0004132891    1.010    0.010
        32 -10.4623     24.0340    197.6532   1.2727692265e+02   3.1714875814e+01   0.09137378    0.0297095 -78.31 0.0002599678    2.659    0.624
        33  99.0000     26.6414    194.2596   1.2662744606e+02   3.2073255759e+01    0.2763403    0.1469216  80.27  0.001842674    1.531    0.347
        34 -11.0953     57.8312    193.6805   1.2120451004e+02   2.8680183862e+01     0.155609    0.1123964  77.70 0.0004251195    1.069    0.065
        35 -10.4691      2.1923    192.9917   1.3054722568e+02   3.4600275366e+01    0.1716572    0.0544349  54.17 0.0006475107    2.458    0.593
        36  -9.8237     46.6737    191.2610   1.2296978794e+02   3.0463314480e+01    0.3168979    0.2085853  35.01  0.002119868    1.980    0.495
        37 -11.5389     49.4923    189.4543   1.2232134572e+02   3.0477963920e+01    0.1929745    0.1309977  57.45 0.0009280184    1.295    0.228
        38  -8.7875     40.2955    191.5962   1.2411065076e+02   3.1119874702e+01    0.1069535   0.07333572  82.32 0.0001906085    1.105    0.095
        39 -10.9509     11.5660    191.0745   1.2892941932e+02   3.4116500094e+01   0.08865606   0.03955524  47.07 0.0002357019    1.994    0.498
        40 -10.0963     35.0000    189.5003   1.2487144531e+02   3.2089357819e+01    0.2034611    0.0951741  41.35  0.000729312    2.154    0.536
        41 -10.4307     13.7187    185.3782   1.2823515023e+02   3.4975171257e+01    0.1122602   0.08816985  89.73 0.0002315788    1.239    0.193
        42 -10.4364     16.2294    182.4904   1.2762700538e+02   3.5286514843e+01    0.1049175   0.08087622  81.28 0.0008411735    1.148    0.129
        43 -11.1281     33.0643    183.7227   1.2477739771e+02   3.3390651971e+01    0.3051758    0.1386512  46.84  0.001863694    1.999    0.500
        44 -11.3671     28.0877    183.4874   1.2563665156e+02   3.3947422738e+01    0.1776563    0.1116855  60.08 0.0003517618    1.354    0.261
        45 -11.6291     43.4259    183.1638   1.2287927512e+02   3.2376147394e+01     0.156289    0.1200585  72.52 0.0003474612    1.105    0.095
        46 -10.8597      6.2200    183.8845   1.2940578070e+02   3.5923384007e+01   0.07875657   0.04734422  60.59 -0.0006383859    1.385    0.278
        47 -10.0544    247.4465    203.2506   8.8481717127e+01  -4.4732699877e+00    0.3771833    0.2764837  20.43 0.0002559275    1.147    0.128
        48  -9.0502     50.5869    180.3343   1.2132099975e+02   3.2105343096e+01    0.1160712   0.08868939 -88.52 0.0001648616    1.109    0.098
        49 -10.5416     19.3806    179.8533   1.2690688741e+02   3.5492654120e+01    0.1231886   0.08710282  88.76 0.0003054834    1.081    0.075
        50  99.0000     84.8005    177.3179   1.1447542868e+02   2.8240440764e+01    0.3012404    0.2034344  88.41  0.001512946    1.422    0.297
        51  -9.7149     88.1729    171.4436   1.1307528196e+02   2.8917135446e+01    0.2341838    0.2279049 -24.60  0.001303623    1.482    0.325
        52  99.0000     40.5038    172.6051   1.2250669622e+02   3.4765314035e+01    0.3235824    0.1193934  60.02  0.001538937    2.873    0.652
        53  -9.5521    175.2838    172.2396   9.5747306046e+01   1.3349036116e+01    0.2735157    0.2508865  51.96 0.0007006499    1.042    0.040
        54  -9.6517    234.3746    170.3790   8.4498268321e+01   1.9672677965e+00    0.2684911    0.1822347  30.28   0.00091289    1.365    0.268
        55  -8.2057    196.2217    170.2145   9.1361770023e+01   9.5057111427e+00    0.2002991    0.1741624  22.34 0.0007341463    1.130    0.115
        56  -9.3139    142.7091    170.0602   1.0182017705e+02   2.0026228541e+01    0.3415665    0.1719543  43.87 0.0009688068    1.854    0.461
        57  -9.5453    202.3768    167.8403   8.9745578356e+01   8.6437796438e+00    0.2400436    0.2081815  45.67  0.000297764    1.112    0.101
        58 -14.6463     80.9244    235.6229   1.2084477465e+02   1.8427597533e+01    0.8460593    0.3091637  52.13  0.004714488    2.079    0.519
        59  -9.4121     97.2629    164.6524   1.1029955498e+02   2.8912862688e+01    0.2332056    0.1599658  79.85 0.0005964403    1.511    0.338
        60  -9.2569     93.9201    162.8687   1.1073991304e+02   2.9791944210e+01    0.2781128    0.1733178 -60.52 0.0008957656    1.577    0.366
        61 -10.1401     98.5379    156.5609   1.0883558515e+02   3.0374082405e+01    0.6688544    0.2798236 -65.23   0.00282281    2.605    0.616
        62  -7.5509     71.5033    163.5494   1.1546065894e+02   3.2860568314e+01    0.1229609   0.09908217  83.09 9.159666e-05    1.019    0.019
        63 -10.2863     81.7950    223.2523   1.1969045036e+02   2.0311567296e+01     0.139563    0.1037793  66.99 0.0002389795    1.023    0.023
        64  -8.8151    182.9622    138.3268   8.7331567727e+01   1.7730350490e+01     0.209892    0.1761717  43.58 0.0004568016    1.140    0.122
        65  -8.2107    104.3276    133.0620   1.0354788193e+02   3.4413900368e+01    0.1810617    0.1574483 -78.71 0.0004711228    1.061    0.058
        66  -8.1908    170.1201    158.1759   9.4100642781e+01   1.6847981739e+01    0.1912356    0.1600408  74.35 0.0005218227    1.329    0.247
        67  -8.4755    161.0025    127.4977   8.9480517102e+01   2.4563712959e+01    0.4044598     0.243235  89.10  0.001224936    4.538    0.780
        68  -8.5136    168.4462    114.6962   8.4795811742e+01   2.5403336201e+01    0.4612474    0.2444276 -55.25  0.001738909    2.393    0.582
        69  -7.6838    165.6440    116.2815   8.5796001256e+01   2.5729263391e+01    0.1536611    0.1197824  88.70 0.0002855224    1.663    0.399
        70  -7.7984    161.8597    111.8843   8.5530884860e+01   2.7438017245e+01    0.1990844    0.1744557 -78.54  0.001015002    1.275    0.216
        71  -7.3024    216.2827    109.2850   7.3920204950e+01   1.5225591824e+01      0.14882    0.1137084  14.46 0.0001825621    1.521    0.342
        72  -8.1877    105.1327    154.2620   1.0705835860e+02   2.9789403168e+01    0.2671773    0.1421877  45.88  0.001010438    1.826    0.452
        73  -8.8784    196.9152    107.1273   7.7006862857e+01   2.0161331907e+01    0.2803318    0.2330859  46.92 0.0004949132    1.194    0.163
        74  -7.7372    133.7677    145.6391   9.9293856680e+01   2.6483060808e+01     0.206648    0.1110695 -62.16 0.0008692367    2.205    0.546
        75  -7.3095    180.9874    105.0153   7.9662452554e+01   2.4324295077e+01    0.1786103    0.1763754  -6.05            0    1.010    0.010
        76  -8.9433    100.0781    140.0568   1.0579675310e+02   3.3609992188e+01    0.2142545    0.1756041  55.89 0.0004091815    1.213    0.175
        77  -8.0991    221.4348     95.7501   6.9536607272e+01   1.6232837900e+01    0.3294972    0.1887413  58.46  0.001385897    1.879    0.468
        78  -8.1163    122.8878     96.0660   9.0680104394e+01   3.8969248732e+01    0.2246716    0.1962038 -87.43  0.001148805    1.270    0.213
        79  -7.8982    112.3689     88.5617   9.1399198200e+01   4.2566286013e+01    0.2347499    0.1670253 -28.22 0.0006801682    1.629    0.386
        80  -7.1091    192.6888     84.7013   7.1794832147e+01   2.5118932282e+01    0.1584529    0.1202005  18.50  0.000267065    1.601    0.375
        81  -7.9567    105.0035     82.6873   9.1766774192e+01   4.5145627702e+01    0.1888393    0.1848164  13.36 0.0006460448    1.101    0.092
        82  -7.4253    126.4801     82.5174   8.6028679008e+01   4.1016687051e+01    0.1477881    0.1413632 -47.75 0.0001594252    1.022    0.021
        83  -8.2603     80.4995     78.4961   9.7560720218e+01   5.0050391372e+01    0.3030951    0.1927563 -19.62 0.0009912311    2.455    0.593
        84  -7.4231    166.6844     77.2504   7.4959811746e+01   3.2869735616e+01    0.1503538    0.1222715 -82.06 0.0002059751    1.523    0.344
        85  -8.4319    160.1068     77.0520   7.6344359629e+01   3.4499463312e+01    0.2282124     0.220859 -38.51 0.0003745656    1.030    0.029
        86  -8.4465    168.7457     72.1561   7.2996369789e+01   3.3265977092e+01    0.3049451    0.1899092  30.69 0.0009388596    2.029    0.507
        87  -8.4320    119.3897     66.1215   8.2912833835e+01   4.5673668287e+01    0.2208888    0.1958235  23.74 0.0003245113    1.191    0.160
        88  -9.5352    122.8062     62.3302   8.0787587366e+01   4.5671637461e+01    0.3399653    0.2315404 -46.17  0.001615483    1.474    0.322
        89  -8.4923    171.3130     62.3439   6.9460634543e+01   3.4294229080e+01    0.1631845    0.1195893  17.54 0.0007046827    1.707    0.414
        90 -11.7960    171.6194     48.9318   6.5166966690e+01   3.6343072014e+01    0.7636248    0.6157842  41.15  0.002391873    1.250    0.200
        91 -10.1374      1.2606    221.7881   1.3198721985e+02   2.9695952437e+01    0.1110628   0.05929634 -79.85 0.0008546129    1.607    0.378
        92  -7.7111    218.5261     48.0459   5.6961691599e+01   2.4272861715e+01    0.2364586    0.1446041 -28.70   0.00104091    1.619    0.382
        93  -7.7056     39.9847     26.2073   9.4703797085e+01   6.5308110321e+01    0.1357978   0.09283924  24.37   0.00056782    1.695    0.410
        94  -7.5329     43.6619     22.7092   9.1887521729e+01   6.5506582014e+01    0.1224214   0.07784651 -16.75 0.0002824781    1.642    0.391
        95 -12.3539     75.2305    219.8088   1.2047563709e+02   2.1775208709e+01    0.2665261    0.2163796 -47.83  0.001606934    2.016    0.504
        96 -10.9070     68.3007    213.6496   1.2110940363e+02   2.3743650983e+01    0.1504934    0.1091673 -87.40 0.0002269151    1.247    0.198
        97 -11.6321     69.8952    208.5728   1.2041024596e+02   2.4427921218e+01    0.1697767    0.1285699 -88.34 0.0003304539    1.203    0.169
        98 -12.0496     60.0402    209.9630   1.2218702622e+02   2.5440381215e+01    0.2913824    0.2458567 -24.88  0.002033964    2.505    0.601
        99  -8.8103     84.9244    211.5072   1.1810800968e+02   2.1874954222e+01    0.1344358   0.09190368  54.24 0.0009054575    1.238    0.193
       100 -11.0651     17.4177    209.6898   1.2902567953e+02   3.0226298235e+01    0.1003544   0.06221341  69.74 0.0007691311    1.151    0.131
