#   1 NUMBER                 Running object number                                     
#   2 MAG_AUTO               Kron-like elliptical aperture magnitude                    [mag]
#   3 X_IMAGE                Object position along x                                    [pixel]
#   4 Y_IMAGE                Object position along y                                    [pixel]
#   5 X_WORLD                Barycenter position along world x axis                     [deg]
#   6 Y_WORLD                Barycenter position along world y axis                     [deg]
#   7 A_WORLD                Profile RMS along major axis (world units)                 [deg]
#   8 B_WORLD                Profile RMS along minor axis (world units)                 [deg]
#   9 THETA_WORLD            Position angle (CCW/world-x)                               [deg]
#  10 FWHM_WORLD             FWHM assuming a gaussian core                              [deg]
#  11 ELONGATION             A_IMAGE/B_IMAGE                                           
#  12 ELLIPTICITY            1 - B_IMAGE/A_IMAGE                                       
         1 -11.4474    189.0611     26.6712   6.9097091383e+01   3.4851834806e+01      1.13295     0.925666  45.26   0.00653182    1.343    0.256
         2 -11.3186    195.2854     20.8749   6.6768789113e+01   3.3999786308e+01    0.7959952    0.5612249  75.96   0.00439737    1.264    0.209
         3 -11.4604    201.7235     12.2152   6.3843107040e+01   3.3397361275e+01    0.7666081    0.4749318  46.25  0.001341567    1.870    0.465
         4  -9.3145     58.7618     11.1077   9.3577653679e+01   6.4583517718e+01    0.2309352    0.1410094  -4.25  0.001365939    1.650    0.394
         5 -10.7525    211.2038      2.3939   6.0528110131e+01   3.2157937971e+01    0.6169875    0.2545076  73.08  0.002686444    2.095    0.523
         6  -8.8903     41.0000      3.4626   9.6889148365e+01   6.7906064088e+01    0.2327113    0.0547401 -31.57 0.0009433567    4.005    0.750
         7  -9.4705    127.6971    245.5420   1.3039598857e+02   6.4886890598e+00    0.1985014    0.1143155 -58.76  0.001074934    2.033    0.508
         8  -9.0107     94.3009    250.1751   1.3705340951e+02   1.1052579472e+01    0.1972999    0.1447761  47.00 0.0007176965    1.288    0.224
         9 -10.0892     59.7968    246.6758   1.4278021214e+02   1.6681475218e+01    0.4303069    0.2129561 -55.92  0.002358273    2.623    0.619
        10 -16.0143      9.4474    149.5553   1.4372540647e+02   4.2769572521e+01     18.01023     2.100882 -71.99    0.0459483    7.721    0.870
        11  -9.9881    142.0109    228.9647   1.2542816366e+02   6.9635832838e+00    0.3102544    0.1620684  31.37  0.001364965    2.336    0.572
        12 -10.1239     99.0279    244.7553   1.3563826045e+02   1.1298375426e+01    0.3476543     0.140571  45.13  0.001664825    2.047    0.511
        13  -9.6876     57.6950    239.4173   1.4254500163e+02   1.8330578902e+01    0.1995384    0.1588667 -77.20  0.001237193    1.361    0.265
        14  -8.5075    226.9921    202.4591   1.0407893498e+02  -4.0249839152e+00    0.2386699    0.1818094 -53.28 0.0008876549    1.704    0.413
        15 -10.0943     72.5658    191.4877   1.3470415081e+02   2.6215732045e+01    0.3948221    0.2424951 -48.31  0.002019054    2.008    0.502
        16 -10.0547     76.9660    184.9167   1.3288528650e+02   2.7049963354e+01    0.3152635    0.2606426 -54.58  0.000743879    1.377    0.274
        17  -7.2365    125.0000    174.0046   1.2018751262e+02   2.1396407759e+01    0.2418399   0.08271458 -53.43 0.0008067177    2.972    0.664
        18  -8.5202    114.6118    174.1896   1.2263433590e+02   2.3283796223e+01     0.205962     0.131398 -47.95 0.0009531329    1.680    0.405
        19  -9.7857     84.9883    173.1814   1.2936646353e+02   2.8522842854e+01    0.3227989     0.265701  85.88 0.0005683377    1.122    0.109
        20 -11.5890     73.1054    170.4709   1.3171517901e+02   3.0930356588e+01    0.5069509    0.2846221 -45.78  0.001386364    2.154    0.536
        21 -10.5537     91.4886    165.4702   1.2659064726e+02   2.9285944374e+01    0.5678102     0.530369 -19.88  0.001911074    1.368    0.269
        22  -9.8965     83.4423    163.5029   1.2819254919e+02   3.1019521880e+01    0.3181761    0.2483576 -81.87   0.00123339    1.215    0.177
        23 -11.0440     73.9000    155.0419   1.2912332959e+02   3.4434996744e+01     0.992912     0.424171 -75.09  0.003400719    3.503    0.715
        24  -9.9409     70.4971    145.4745   1.2835963476e+02   3.7180334132e+01    0.3001657    0.2603444  66.99  0.001098502    1.180    0.153
        25 -11.4010     66.4268    143.1504   1.2899950498e+02   3.8287963209e+01    0.6750594    0.4736775  75.58  0.003205315    1.637    0.389
        26  -8.3470    103.0928    148.8253   1.2069362562e+02   3.1240195580e+01    0.2331883    0.1960157  82.56  0.001232575    1.229    0.186
        27 -10.3858     92.0969    148.2064   1.2335566285e+02   3.3254113931e+01    0.2928103    0.2570914 -36.00 0.0004994959    1.316    0.240
        28 -11.9020     49.2459    231.8702   1.4340170296e+02   2.0898354493e+01    0.6533467    0.5174851  55.49  0.001640374    1.301    0.231
        29 -11.3665     59.0033    133.3913   1.2923267304e+02   4.1552029303e+01     1.056951     0.259693 -63.18  0.003237338    4.121    0.757
        30  -8.7700    113.5451    134.8918   1.1509021011e+02   3.2598043270e+01    0.2870101    0.2586576  16.44   0.00113365    1.292    0.226
        31  -9.2124    100.4544    132.1261   1.1791159906e+02   3.5628423693e+01    0.3117084    0.2520182 -34.60 0.0006600036    1.377    0.274
        32 -11.3695     49.5434    224.0157   1.4268586354e+02   2.2421334554e+01    0.4763204    0.3497626 -54.59 0.0009823511    1.825    0.452
        33 -13.9929     57.7957    211.5330   1.3997561154e+02   2.3914700910e+01     4.624629      1.11406  50.14   0.01700377    3.826    0.739
        34  -8.2301     74.0000    119.9690   1.2251201462e+02   4.2682522354e+01    0.2359864   0.07257408 -56.17 0.0007999594    2.925    0.658
        35  -7.8157    109.0695    122.5019   1.1342303890e+02   3.6299913329e+01    0.2118638    0.1491067  41.39 0.0005817311    1.484    0.326
        36  -8.9812    168.3201    113.2001   9.6323911434e+01   2.5579172111e+01    0.3295364    0.2654072 -64.40  0.000843365    1.358    0.264
        37  -9.7206     73.3859    136.9683   1.2607727686e+02   3.8785805719e+01    0.4595928    0.2015702 -72.17  0.001596254    3.286    0.696
        38  -8.8258     52.2964    110.3523   1.2671277944e+02   4.7686704594e+01    0.1381768    0.0884579 -36.47 0.0007034086    1.688    0.408
        39  -9.1134     59.6169    235.7367   1.4189310053e+02   1.8779873455e+01    0.1683649    0.1313441 -73.82 0.0007698425    1.387    0.279
        40  -9.6588     68.1195    234.3922   1.4024658966e+02   1.7869088462e+01    0.2521255    0.1782295  54.13  0.001634958    1.241    0.194
        41 -10.1151    134.1949    230.2472   1.2715606722e+02   8.1096960973e+00    0.2543852    0.1842451 -74.91  0.001438077    1.620    0.383
        42  -8.1256    237.6853     55.3421   6.9654731570e+01   1.9195452723e+01    0.1487371    0.0922893 -67.05 0.0007047683    1.707    0.414
        43  -8.8711    126.6128     52.9583   8.8888288129e+01   4.6398514941e+01    0.3172762    0.2505271  88.94  0.001605423    1.731    0.422
        44  -9.7039     83.4792    243.9170   1.3837824896e+02   1.3831402427e+01    0.2855808     0.111716 -66.42  0.001301017    2.737    0.635
        45  -9.4931    135.2218    249.1352   1.2942824782e+02   4.6074861681e+00    0.2572765    0.1358002  60.76  0.001251422    2.104    0.525
        46  -9.0362    126.2594    249.5729   1.3115165930e+02   6.0342753352e+00    0.2608029   0.09620311  46.51  0.001157469    2.191    0.544
        47  -8.9881    101.1958    249.2092   1.3571274462e+02   1.0155106877e+01     0.176905    0.1182612  69.16 0.0005969147    1.369    0.270
        48 -11.0374    126.2971    229.8308   1.2865827725e+02   9.5619790985e+00    0.4899301     0.326349 -63.27  0.002732628    1.685    0.407
        49  -8.5149     79.6940    249.6879   1.3959500940e+02   1.3329348725e+01   0.09690227   0.09497441  22.60  0.000560039    1.618    0.382
        50  -9.7818    109.2744    245.7910   1.3386371617e+02   9.4808354111e+00    0.2627961     0.171939 -74.92  0.001549122    1.713    0.416
