#   1 NUMBER                 Running object number                                     
#   2 MAG_AUTO               Kron-like elliptical aperture magnitude                    [mag]
#   3 X_IMAGE                Object position along x                                    [pixel]
#   4 Y_IMAGE                Object position along y                                    [pixel]
#   5 X_WORLD                Barycenter position along world x axis                     [deg]
#   6 Y_WORLD                Barycenter position along world y axis                     [deg]
#   7 A_WORLD                Profile RMS along major axis (world units)                 [deg]
#   8 B_WORLD                Profile RMS along minor axis (world units)                 [deg]
#   9 THETA_WORLD            Position angle (CCW/world-x)                               [deg]
#  10 FWHM_WORLD             FWHM assuming a gaussian core                              [deg]
#  11 ELONGATION             A_IMAGE/B_IMAGE                                           
#  12 ELLIPTICITY            1 - B_IMAGE/A_IMAGE                                       
         1 -13.5640      5.0810     10.6636   1.2284571830e+02   7.2741095646e+01     2.302723    0.7551051 -47.25   0.01213018    2.143    0.533
         2 -13.8628    202.8507      9.8601   6.5436268004e+01   3.3091568873e+01      1.83303     1.143327  48.85  0.008976998    1.726    0.421
         3 -13.3402    189.9215     28.0889   7.2315565347e+01   3.4437036959e+01     1.408387     1.126197  58.08  0.006370933    1.219    0.179
         4  -9.9958    152.2383    248.3932   1.2863880881e+02   5.1046425597e+00    0.1688253   0.08393504  49.27 0.0003135478    1.605    0.377
         5 -10.1788    249.6409    249.0629   1.1233596484e+02  -1.0039323439e+01    0.2134195   0.09599937 -28.71  0.001257204    2.530    0.605
         6 -10.9080    140.4518    250.0942   1.3087330908e+02   6.7374454685e+00    0.3862277    0.1089455  43.25   0.00168122    2.662    0.624
         7 -10.7862    125.2271    250.0160   1.3349354348e+02   9.1186610263e+00    0.3398966    0.1267644  37.79   0.00159058    2.584    0.613
         8  -9.7140    111.7723    250.4384   1.3584204030e+02   1.1096498121e+01    0.1589539   0.08907132  39.04  0.000448646    1.643    0.391
         9 -10.3315     98.6423    249.3618   1.3798041892e+02   1.3193084964e+01    0.2536704    0.1455255  57.81  0.001634067    1.369    0.269
        10 -10.5365    102.4777    247.5622   1.3716941688e+02   1.2913898473e+01     0.230276    0.1538273  61.31 0.0006700038    1.197    0.164
        11  -9.6130     67.1588    250.3758   1.4329970830e+02   1.7363615875e+01    0.1547633    0.0969744  58.44  0.001105836    1.136    0.120
        12 -12.5675     33.1203    246.9744   1.4853325421e+02   2.2047178844e+01     1.028433    0.6154707  29.66  0.003186892    2.627    0.619
        13 -12.5507     25.8654    202.8694   1.4729361735e+02   3.0730677811e+01    0.7020095    0.1883269  55.56  0.002156174    3.140    0.682
        14 -14.6755      6.9917    210.8358   1.5102635587e+02   3.1093022442e+01     3.795162    0.6437632 -72.76   0.01631705    4.384    0.772
        15 -14.7054      5.3212    180.5706   1.4978091385e+02   3.7085933771e+01     6.372078     0.830438 -74.70   0.02298295    5.111    0.804
        16 -14.3074     55.1464    211.0191   1.4250205100e+02   2.5797719916e+01     7.444081          nan  47.32   0.02124734    7.128    0.860
        17  -9.1386    183.4962    237.9935   1.2184286560e+02   1.4079093045e+00    0.1502462     0.098009  -5.93 0.0008102449    2.526    0.604
        18  -8.6943    172.2808    238.6561   1.2391419617e+02   3.1717350128e+00    0.1127567   0.08365542  65.84 0.0005009958    1.634    0.388
        19 -10.3756    232.9914    235.8242   1.1302610144e+02  -6.2614392644e+00    0.2574067    0.1966937 -64.99   0.00153692    2.913    0.657
        20  -9.7497    229.4613    229.9870   1.1270567776e+02  -5.0691638410e+00    0.2767056    0.1970808 -60.25  0.001561997    2.969    0.663
        21 -10.8649    148.7513    229.4328   1.2696849701e+02   8.4227566862e+00    0.3644841    0.1016882  40.06  0.001381331    3.183    0.686
        22  -8.9646     33.3165    228.9308   1.4754360121e+02   2.5104869727e+01    0.1456861    0.1006585  79.83 0.0004656741    1.139    0.122
        23 -10.3064     18.5796    241.3751   1.5052806138e+02   2.4553265717e+01    0.2926269   0.07097089  59.11  0.001431151    3.135    0.681
        24 -10.7891    173.7492    222.2098   1.2137885696e+02   5.2337907189e+00    0.3764068    0.2741324  67.74  0.002220934    1.743    0.426
        25 -10.6030    197.9986    244.9871   1.2028372227e+02  -1.8148281933e+00    0.2147855    0.1626069 -77.05  0.001315628    2.569    0.611
        26  -8.9184    152.4875    212.9289   1.2404978376e+02   1.0387492640e+01    0.1571636    0.1285747 -55.89 0.0003767375    1.465    0.317
        27 -11.3551     67.2501    198.6133   1.3910140753e+02   2.6628172489e+01    0.3263393     0.223489 -51.00  0.001552347    1.990    0.497
        28 -12.5653     42.5323    233.3379   1.4626632961e+02   2.3274611701e+01    0.2778283    0.2317684 -86.03 0.0007841362    1.425    0.298
        29  -9.8885    192.2097    193.6065   1.1331466821e+02   6.2196373497e+00    0.5562787    0.2772142 -62.64  0.001559153    7.534    0.867
        30 -11.5863     72.5589    190.8648   1.3724992514e+02   2.7455411070e+01    0.2527043    0.2209645 -69.44 0.0007830958    1.356    0.262
        31 -13.9320     48.9426    225.9622   1.4470701383e+02   2.3810524358e+01     1.043626    0.6091145  83.14  0.006958015    1.500    0.333
        32  -9.0673    104.2517    180.2781   1.2924793654e+02   2.4802717652e+01    0.1778099    0.1299277  68.64 0.0003497718    1.300    0.231
        33 -13.1855     69.0716    176.0093   1.3633557626e+02   3.1025029875e+01    0.4681303    0.2690236 -47.96  0.001964124    2.337    0.572
        34 -10.7698     81.6746    178.1946   1.3386645686e+02   2.8771452547e+01    0.2277443    0.1927238  82.66 0.0003775345    1.052    0.050
        35  -8.7063    171.4949    173.4470   1.1373948109e+02   1.3619934164e+01    0.1412834    0.1274215  44.93 0.0001164651    1.016    0.016
        36  -8.6417    250.6651    171.6870   9.8641040173e+01  -1.3439386571e+00     0.135967   0.08849471  10.94 0.0003312181    1.685    0.407
        37 -11.8415     89.0650    168.3522   1.3092083758e+02   2.9751933801e+01    0.6560194    0.5167503  45.04  0.003896259    1.298    0.230
        38  -9.3725    234.0085    158.3320   9.8711437914e+01   3.6137408299e+00    0.2065046    0.1159883  68.27 0.0007050371    4.330    0.769
        39 -10.6231    191.3636    154.9304   1.0596405609e+02   1.2840929975e+01    0.5287912    0.3546115 -77.78  0.001864156    2.899    0.655
        40 -11.4436     32.7657    155.7273   1.4219790679e+02   3.9766608661e+01    0.4877321   0.09861345 -66.57  0.001842902    3.631    0.725
        41  -9.8075    100.4204    152.4477   1.2580264291e+02   3.1396324677e+01    0.2632363    0.2498227 -84.77 0.0007521517    1.129    0.114
        42 -11.8562     89.2130    151.8806   1.2840265485e+02   3.3350531072e+01    0.2647351     0.243103 -51.45 0.0005343463    1.285    0.222
        43 -12.8002     66.0377    142.8372   1.3268689447e+02   3.8777053951e+01      1.43336    0.7134754  83.22  0.003194659    3.351    0.702
        44  -8.5916    134.0000    148.0093   1.1700166457e+02   2.6175632548e+01    0.2351975    0.0832165 -50.14 0.0008013152    2.935    0.659
        45  -8.9419    103.1608    148.0931   1.2438287101e+02   3.1896286837e+01    0.2058331    0.1843797 -39.68 0.0007391858    1.340    0.254
        46  -8.5605    192.0005    144.0068   1.0344903427e+02   1.4656824923e+01    0.1713906    0.1653557  -5.10 0.0004069142    1.048    0.046
        47  -9.5679    110.8007    137.4078   1.2048098492e+02   3.2926062946e+01     0.334668    0.2367532 -27.82  0.001329975    2.064    0.515
        48 -10.4520     98.4754    134.8239   1.2308787337e+02   3.5685955408e+01    0.2848142    0.2350609 -37.37  0.000858739    1.447    0.309
        49  -9.6886    166.2227    130.3783   1.0575182182e+02   2.2967127275e+01    0.3334037    0.2448019 -80.37  0.001150141    1.911    0.477
        50  -9.1013    184.8114    148.1014   1.0581862378e+02   1.5470534655e+01    0.2220015    0.1950974 -89.40 0.0006846199    1.367    0.268
        51  -8.4238    116.6625    129.6784   1.1740062439e+02   3.3556046277e+01    0.1455908     0.119298  -8.74 0.0007050425    1.713    0.416
        52  -9.9244     70.5756    124.4607   1.2849622716e+02   4.2396550499e+01    0.2238678    0.2002366 -87.80 0.0001941599    1.036    0.035
        53 -10.3626     82.4463    243.0983   1.4021463573e+02   1.6489129796e+01    0.2683302    0.1352758  67.21  0.001163839    1.924    0.480
        54  -9.3869    107.8683    124.0863   1.1844909716e+02   3.6458661628e+01    0.2047461    0.1930842 -87.06 0.0003200244    1.011    0.011
        55 -10.4285     46.2215    248.1354   1.4653221355e+02   2.0338741362e+01    0.3266752    0.1310512  68.04  0.001039834    2.310    0.567
        56  -9.1351    154.3900    119.8927   1.0590101857e+02   2.7751310484e+01    0.3005152    0.2038079  75.93  0.001228999    2.088    0.521
        57  -9.3811    181.3161    144.0789   1.0565332034e+02   1.6974671235e+01    0.2948919    0.2254196 -81.96 0.0005928579    1.846    0.458
        58 -10.5817    168.0271    113.2628   1.0113185609e+02   2.5945259360e+01    0.3742192    0.3072995 -78.11 0.0008685903    1.455    0.313
        59  -8.4926    146.4224    113.5225   1.0618610923e+02   3.0860258990e+01    0.1545046    0.1465407 -86.12 0.0008041646    1.068    0.064
        60  -9.0753    203.1982    111.6002   9.3505420566e+01   1.7935693418e+01     0.216374    0.1370711  40.94 0.0005036539    1.654    0.396
        61 -10.0136     52.5961    109.7809   1.3087598247e+02   4.8095706530e+01    0.1928189    0.1119153 -75.51 0.0009531642    1.720    0.419
        62 -10.9471      2.2098     77.9713   1.4114275905e+02   5.9446283077e+01    0.4499794    0.1029164 -69.53  0.001828649    3.114    0.679
        63  -9.2380    155.3984     75.8266   9.3480387705e+01   3.6182521254e+01    0.2210384    0.1514393 -23.95 0.0009482824    1.672    0.402
        64  -9.0719     18.3108     66.8838   1.3358398639e+02   6.0905471381e+01    0.1716562     0.154424  45.53 0.0005818579    1.382    0.276
        65 -11.4930      3.0303     61.8900   1.3818689708e+02   6.2866853262e+01    0.2489158    0.2384466  72.87  0.001026942    1.310    0.236
        66 -10.3457     20.8470     57.7014   1.3054564103e+02   6.2682436499e+01    0.6246795    0.1433615  37.37  0.002306317    5.410    0.815
        67 -12.1282      5.1240     52.3719   1.3547430240e+02   6.4761358898e+01    0.5885866     0.403937  56.07  0.003491467    2.001    0.500
        68 -14.7448     18.2137    168.1997   1.4641697771e+02   3.8488792149e+01     5.469207     1.598971  88.46   0.01758838    5.816    0.828
        69 -10.3229     81.4275    248.1553   1.4078275142e+02   1.5812260452e+01    0.2941838    0.1522201  71.95  0.001569315    1.985    0.496
