#   1 NUMBER                 Running object number                                     
#   2 MAG_AUTO               Kron-like elliptical aperture magnitude                    [mag]
#   3 X_IMAGE                Object position along x                                    [pixel]
#   4 Y_IMAGE                Object position along y                                    [pixel]
#   5 X_WORLD                Barycenter position along world x axis                     [deg]
#   6 Y_WORLD                Barycenter position along world y axis                     [deg]
#   7 A_WORLD                Profile RMS along major axis (world units)                 [deg]
#   8 B_WORLD                Profile RMS along minor axis (world units)                 [deg]
#   9 THETA_WORLD            Position angle (CCW/world-x)                               [deg]
#  10 FWHM_WORLD             FWHM assuming a gaussian core                              [deg]
#  11 ELONGATION             A_IMAGE/B_IMAGE                                           
#  12 ELLIPTICITY            1 - B_IMAGE/A_IMAGE                                       
         1 -11.9542     45.6110     25.8979   4.6333985982e+01   6.5277659991e+01    0.2234963    0.1648944  31.59 0.0007035689    1.380    0.275
         2 -11.2757     99.1680     10.7049   2.2539095028e+01   5.7165640605e+01    0.2453838    0.1688411 -42.34  0.001255922    1.813    0.448
         3 -11.1137     55.0683     11.2363   3.6099354351e+01   6.5616489382e+01     0.189896    0.1319504  19.86 0.0006739227    1.233    0.189
         4 -12.4977     82.5415      9.1206   2.6231514466e+01   6.0765544764e+01    0.3514073    0.1993252  61.82  0.001822755    1.959    0.489
         5 -13.5447     89.5291      3.6125   2.2175564205e+01   5.9804133733e+01    0.3603179    0.2770886 -40.92  0.001172291    1.651    0.394
         6 -11.7850    152.8469      5.7340   1.1103275443e+01   4.5282034819e+01    0.1781335    0.1602345  44.16 0.0003337618    1.192    0.161
         7 -12.6771    100.9248      2.2740   1.8996957648e+01   5.7481495239e+01    0.3967039    0.1748486  54.08   0.00112195    1.796    0.443
         8 -11.4252    167.5612    243.0679   6.4493329781e+01   6.9922229434e-01    0.2058934     0.154277  40.31 0.0003982714    1.248    0.199
         9 -13.1344    245.4667    249.6518   5.0840118795e+01  -1.1275292511e+01     0.274619    0.1724045  18.52 0.0005837788    1.334    0.250
        10 -11.8016    237.2305    248.9463   5.2169114093e+01  -1.0150535622e+01    0.3078841    0.2144724 -22.83  0.002071124    1.368    0.269
        11 -10.7880    125.1738    249.7955   7.3986739869e+01   6.1206238527e+00    0.1626402    0.1396752   8.87 0.0005691226    1.346    0.257
        12 -12.3628    114.8304    249.8328   7.6073935729e+01   7.6689568404e+00    0.2393143    0.2029747  53.27 0.0006395299    1.082    0.076
        13 -11.0298    111.5198    249.4917   7.6699778493e+01   8.2216278629e+00    0.1250629    0.1039505  47.40 1.113498e-06    1.013    0.013
        14 -12.2626     99.0664    248.4959   7.9085896705e+01   1.0225524382e+01    0.3378696    0.2139644 -40.67  0.001520777    2.212    0.548
        15 -11.5300     85.0059    250.4322   8.2070894039e+01   1.1862872368e+01    0.3151014    0.1187262  38.84  0.001469253    2.201    0.546
        16 -11.5711     63.7234    246.7892   8.5879819933e+01   1.5391781089e+01    0.3533362    0.2476715 -16.39  0.001852731    3.094    0.677
        17 -13.0669     70.4995    247.9384   8.4668926106e+01   1.4290742861e+01    0.2592375    0.2019898  73.72  0.000787279    1.177    0.150
        18 -12.4679     68.2952    245.3157   8.4863091223e+01   1.5076951899e+01    0.2024457     0.188234  -5.85 0.0002565546    1.520    0.342
        19 -10.3977     66.2709    250.3330   8.5693819885e+01   1.4396351385e+01    0.1008425   0.09146822 -30.86 0.0004004665    1.592    0.372
        20 -11.0723     55.9870    250.5733   8.7664727774e+01   1.5658518155e+01     0.161716   0.09539662  42.12 0.0003739559    1.462    0.316
        21 -13.3155     49.3851    220.0499   8.6390338331e+01   2.2546679243e+01    0.8454549    0.5851998  51.88  0.005237363    1.275    0.216
        22 -13.8129     35.4622    226.6394   8.9757037665e+01   2.2796716832e+01    0.6319737    0.4359291  38.88  0.004086776    1.464    0.317
        23 -12.4924     35.4509    213.9362   8.8745595699e+01   2.5459382804e+01    0.3731764    0.1834772  62.14  0.001650198    2.017    0.504
        24 -13.0798     26.8837    223.3242   9.1196783959e+01   2.4413005380e+01    0.3989471    0.2830093  42.33  0.002108767    1.398    0.285
        25 -14.5140     25.9703    248.2448   9.3008415945e+01   1.9585304647e+01     1.227825    0.3734993  47.14  0.006139951    2.459    0.593
        26 -15.1597     18.6389    211.1733   9.1963989529e+01   2.7804329656e+01     1.417345    0.8363217  62.60  0.008617242    1.495    0.331
        27 -15.1683      3.4177    210.5555   9.4932305787e+01   2.9346953031e+01     1.161348    0.4656483 -78.77  0.006124096    2.118    0.528
        28 -15.4366     12.4116    224.9863   9.4083925284e+01   2.5536719092e+01    0.7738411    0.4464086  67.18  0.004485424    1.458    0.314
        29 -16.6771     13.6312    237.5807   9.4595757312e+01   2.2911188335e+01     1.433895     1.074187 -30.27  0.009452617    2.443    0.591
        30 -15.8781      4.6332    229.9429   9.5799328380e+01   2.5277832039e+01     0.990872    0.4438782 -88.80  0.005637595    1.986    0.496
        31 -10.6235     60.9310    242.5167   8.6054207532e+01   1.6567317247e+01    0.1696993    0.1318884  88.08 -0.0001410989    1.235    0.190
        32 -10.9167    143.0017    242.2681   6.9374865916e+01   4.6706968565e+00    0.1821864    0.1397122  35.10 0.0002069483    1.112    0.101
        33 -11.0172     47.3091    241.4627   8.8598523566e+01   1.8458005818e+01    0.2287632    0.1255879  84.93  0.001278079    1.919    0.479
        34 -11.5008    199.2164    241.3638   5.7978557887e+01  -3.8544937968e+00    0.1952267     0.133833  34.68  0.000305719    1.342    0.255
        35  -8.5633     31.8100    239.5526   9.1386829391e+01   2.0617149311e+01    0.4107651    0.1360186 -80.36  0.001797845    3.367    0.703
        36 -12.8632    116.5939    240.5844   7.4600425858e+01   9.0650531895e+00    0.4004295    0.1663712  34.44  0.001767709    2.222    0.550
        37 -10.6966     89.3516    241.0539   8.0246773763e+01   1.3005502671e+01    0.1636539    0.1424636  69.54 0.0004652747    1.092    0.084
        38 -10.7343     67.8536    231.3290   8.3643292605e+01   1.7874906924e+01    0.1765219    0.1060079  40.55 0.0003518258    1.500    0.333
        39 -11.9075     70.9720    240.0934   8.3854037389e+01   1.5726400298e+01    0.4328911    0.2232016  37.61  0.001644131    1.752    0.429
        40 -12.8452     71.5283    234.0546   8.3159228562e+01   1.6838825910e+01    0.2956155    0.2550693 -43.86   0.00138529    1.515    0.340
        41 -12.4165     73.1452    229.9217   8.2411655805e+01   1.7449107280e+01    0.2458031    0.2215999 -63.23 0.0004008849    1.298    0.229
        42 -12.1329    107.1478    240.1248   7.6495822236e+01   1.0578767436e+01    0.2089631    0.1845658 -79.47 0.0005319273    1.256    0.204
        43 -12.9461    103.1732    237.8290   7.7046680605e+01   1.1604420532e+01    0.3713365    0.2661453  17.99  0.002086063    1.758    0.431
        44 -11.3880    148.2780    239.0119   6.7831823274e+01   4.4007639912e+00    0.2608691    0.1664484  29.48 0.0008475169    1.440    0.306
        45 -12.9661     62.5910    234.4524   8.5007758870e+01   1.7937174048e+01    0.4625066    0.3071307  84.79  0.001603674    1.528    0.346
        46 -13.1972     52.6025    236.8809   8.7205183446e+01   1.8714144508e+01    0.2453045    0.2278847  49.18 0.0008552172    1.284    0.221
        47 -11.7217     53.3910    231.2811   8.6571481097e+01   1.9737455940e+01    0.2493153     0.152475 -61.31  0.001184294    1.761    0.432
        48 -11.9251     79.2059    236.9442   8.1883389823e+01   1.5222385800e+01    0.2078652    0.1606561  40.34 0.0003008668    1.227    0.185
        49 -11.8324     43.8389    234.1428   8.8697161616e+01   2.0314381502e+01    0.2891301    0.1614754 -74.99  0.001285843    1.747    0.428
        50 -11.1966    246.9429    234.0894   4.7982798892e+01  -9.4795505952e+00    0.1960625    0.1168311  -4.83 0.0007563984    1.691    0.409
        51 -12.1534    112.0382    234.4673   7.4785449145e+01   1.0902821421e+01    0.3612539    0.1134203  36.65  0.001382438    2.819    0.645
        52 -11.1032     39.2157    233.7919   8.9567829283e+01   2.0922040053e+01    0.1967391   0.08454175  66.41 0.0006392982    2.599    0.615
        53 -11.2617     34.4293    233.7639   9.0486949622e+01   2.1469904283e+01    0.2341367    0.1020464  48.72 0.0007573485    1.910    0.476
        54 -12.5435    219.4100    230.3575   5.2307709709e+01  -5.1988557939e+00    0.2362965    0.2012734 -10.01 0.0005757803    1.160    0.138
        55 -12.0519    130.1111    230.8336   7.0479701404e+01   8.7581657537e+00    0.1997852    0.1641139  56.68 0.0004366206    1.234    0.190
        56 -11.0199    104.2953    231.3237   7.6028229867e+01   1.2686137821e+01    0.1204341    0.1005589  -9.12 0.0003426448    1.620    0.383
        57 -11.0057    194.1580    229.8351   5.7079369099e+01  -1.3307899890e+00    0.1834268    0.1361871   4.31 0.0005841301    1.326    0.246
        58 -11.8507    178.1531    228.4698   6.0067908111e+01   1.4157448839e+00    0.2045875    0.1754903 -22.80 0.0002759019    1.224    0.183
        59 -11.5366    150.0180    229.5061   6.6071590372e+01   5.7912944961e+00    0.2055526     0.116199  37.40 0.0005334227    1.551    0.355
        60 -12.5206    231.6645    227.3913   4.9537648619e+01  -6.5142361005e+00    0.2894819    0.2094852 -12.25  0.001009976    1.223    0.182
        61 -12.4984    112.6374    227.9128   7.3815972139e+01   1.2071287109e+01    0.2489374    0.2108653  26.14   0.00110625    1.233    0.189
        62 -12.7332    105.5538    226.6726   7.5176835755e+01   1.3408150743e+01    0.2790878    0.2464416  38.56  0.001764924    1.108    0.098
        63 -11.8428    100.4758    227.0192   7.6310473808e+01   1.4110678450e+01    0.2285838    0.1596542  50.14 0.0005494353    1.285    0.222
        64 -10.8354    138.4758    227.4395   6.8211820748e+01   8.0433921374e+00    0.1330399    0.1168527  31.06 0.0003026106    1.041    0.040
        65 -11.2029    120.4798    227.4770   7.2073917010e+01   1.0925186252e+01    0.1319532     0.116713  43.55 0.0001478161    1.008    0.008
        66 -11.9287     91.3359    226.7462   7.8232482153e+01   1.5523382031e+01    0.2578893    0.1508742 -53.63  0.001199817    1.910    0.476
        67 -12.7817     19.1940    198.5396   9.0902822322e+01   3.0490324276e+01    0.4341589     0.354692  39.62  0.003001007    1.375    0.273
        68 -10.5879    222.4898    225.5231   5.0897104678e+01  -4.9377756710e+00    0.1259727    0.1036888   4.04 0.0005581572    1.030    0.029
        69 -13.1897    113.8433    222.3389   7.2809451588e+01   1.2980444062e+01    0.3585289     0.198366  46.07  0.001754614    1.648    0.393
        70 -12.4776     96.0820    223.5649   7.6829509609e+01   1.5465181897e+01    0.2806959    0.1824768 -73.50 0.0004926008    1.750    0.429
        71 -11.9063     68.0043    224.8186   8.2962788028e+01   1.9183204766e+01     0.208227    0.1613272  85.93 0.0003624174    1.240    0.193
        72 -11.2481    213.0209    222.2865   5.2114876964e+01  -3.0482593801e+00    0.2964094    0.1753926  -8.89  0.001451524    2.121    0.529
        73 -10.2333    209.2942    222.6625   5.2895507005e+01  -2.5400903251e+00    0.1123082    0.1051116  75.95 0.0003877193    1.648    0.393
        74 -12.0795    159.8652    222.2219   6.2852939124e+01   5.4823438424e+00    0.3787006    0.2054029  42.03  0.001052333    1.705    0.413
        75 -13.0002    125.3583    221.8182   7.0224532352e+01   1.1242363350e+01    0.4610997      0.23164  50.89  0.001990235    2.104    0.525
        76 -12.4701     77.7365    220.1864   8.0395505098e+01   1.8818500392e+01    0.3967041    0.3146267  88.58  0.001810027    1.250    0.200
        77 -11.9298    237.9057    220.8693   4.7266214729e+01  -6.4556559131e+00    0.2017972    0.1425677   0.06  0.001238849    1.275    0.216
        78 -11.2467    222.9568    220.4606   4.9918582199e+01  -4.2543083162e+00    0.1880662     0.151903  -3.61  0.001199898    1.050    0.047
        79 -11.8004     87.5403    220.6216   7.8323514930e+01   1.7329395951e+01    0.2196328    0.1805561  41.03 0.0005326653    1.170    0.145
        80 -12.4213    173.1445    218.9122   5.9513261826e+01   3.8670070720e+00    0.3126508    0.2656301 -16.86  0.001071407    1.208    0.173
        81 -11.2893     99.5139    220.4909   7.5696334282e+01   1.5574708221e+01    0.1323356    0.1166344  56.33 0.0001252119    1.012    0.012
        82 -11.0786     61.1881    219.8211   8.3894417428e+01   2.1119825136e+01    0.3518305   0.09185135  40.81  0.001364786    3.078    0.675
        83 -11.7323     65.0554    217.2251   8.2803987074e+01   2.1165166683e+01    0.3484315    0.2070015 -58.72  0.001889735    1.773    0.436
        84 -10.8300     41.5224    219.5297   8.7966121156e+01   2.3585565381e+01     0.121912   0.09913502  72.56 2.031895e-05    1.009    0.009
        85 -13.0037    145.4130    215.7282   6.4916303257e+01   9.1054795494e+00    0.4524894    0.3662933  51.96  0.001536709    1.274    0.215
        86 -12.7539    140.4688    211.0554   6.5252623344e+01   1.0849665318e+01     0.366498    0.2396336  36.55  0.001229621    1.402    0.287
        87 -12.0828    129.7475    217.2001   6.8582690431e+01   1.1432037111e+01    0.2260356    0.1701437 -58.45 0.0008523124    1.491    0.329
        88 -13.3723    108.7182    215.2264   7.2960477560e+01   1.5230561498e+01    0.3827309     0.275936 -53.35  0.002110368    1.512    0.338
        89 -11.1565     69.8128    215.3593   8.1575201954e+01   2.0928091583e+01    0.4824291    0.2888879 -23.39  0.001873561    4.337    0.769
        90 -12.7480     87.7294    212.6176   7.7300063528e+01   1.8984809399e+01    0.5723733    0.4652286 -60.82  0.002623228    1.312    0.238
        91 -12.5457     79.1101    212.6098   7.9217310997e+01   2.0230835304e+01    0.3343511    0.2328019  67.95 0.0007023246    1.466    0.318
        92 -10.8615     82.5355    212.4799   7.8440618341e+01   1.9769850701e+01    0.2108601    0.1859163 -78.39 -6.096486e-05    1.154    0.134
        93 -11.9850     75.6604    212.2820   7.9942997588e+01   2.0785852685e+01     0.298922    0.1621318  45.34  0.001499125    1.670    0.401
        94 -11.0361    155.2121    214.8100   6.2637699446e+01   7.6236789168e+00    0.1860537    0.1521847   4.15 0.0004188488    1.323    0.244
        95 -12.7925    125.1568    212.8702   6.8947561706e+01   1.3054304470e+01    0.2507052    0.2383382 -56.51 0.0003994579    1.149    0.130
        96 -12.4302    120.5273    214.4549   7.0217376053e+01   1.3492972376e+01    0.2078001    0.1823448 -89.35 8.814718e-05    1.262    0.208
        97 -10.7956     59.4873    214.5196   8.3721237670e+01   2.2466177874e+01    0.1241186    0.1102572  73.84 0.0008094091    1.064    0.060
        98 -11.7724    247.4775    212.8124   4.4135360398e+01  -6.6257270868e+00    0.2032394    0.1519246  19.26 0.0003830402    1.258    0.205
        99 -10.6818     40.9769    213.0155   8.7515270222e+01   2.5034747957e+01    0.1453803    0.1173785  84.42 0.0003791949    1.072    0.067
       100 -12.3647     68.6653    207.3010   8.0922228507e+01   2.2828089933e+01    0.4490856    0.2676635  18.79  0.001318239    2.430    0.589
       101 -11.2145     63.8652    211.2026   8.2420976880e+01   2.2614938322e+01    0.1685075    0.1480152  67.60 0.0003387706    1.038    0.036
       102 -10.7906     64.0090    208.0000   8.2038826412e+01   2.3294519336e+01    0.1764788    0.1524333  59.80 0.0004319191    1.071    0.066
       103 -11.3638     47.1820    210.8569   8.6002509403e+01   2.4776783377e+01    0.2296713    0.1614616 -37.27  0.001287386    2.090    0.522
       104 -12.8146    229.2803    207.2025   4.6342230269e+01  -3.1758550758e+00    0.3909155    0.2318627 -43.40  0.001455603    1.877    0.467
       105 -11.7769    225.1190    204.1855   4.6546695225e+01  -2.0713127643e+00    0.2301781    0.2201106 -75.21 0.0003578302    1.573    0.364
       106 -10.7791     38.0809    209.4407   8.7810138780e+01   2.6135476890e+01    0.1658765    0.1123317  38.07 0.0008124887    1.505    0.336
       107 -11.6508    181.2748    207.6442   5.5848378953e+01   4.4997848047e+00    0.3390555    0.1703149  31.94   0.00150046    1.951    0.487
       108 -13.0895    105.0752    206.7442   7.2584633584e+01   1.7587318703e+01    0.5360917    0.2850531  42.95  0.002498949    1.725    0.420
       109 -12.0383    160.2476    206.4420   6.0122627486e+01   8.3433158627e+00    0.2460866    0.2245517 -85.72 0.0007925484    1.368    0.269
       110 -13.0275    145.4292    202.9510   6.2796969444e+01   1.1607534024e+01    0.5982413    0.2617035 -45.07  0.002426201    2.457    0.593
       111 -12.7310    141.8486    198.8329   6.2896855296e+01   1.3068763869e+01    0.2648295    0.2172358 -58.36 0.0009745759    1.352    0.260
       112 -11.0600     40.0349    198.1834   8.6344380724e+01   2.8402731011e+01    0.2563489     0.125836  58.34  0.001080882    2.094    0.522
       113 -11.7520     35.0820    198.4725   8.7465880832e+01   2.8884091725e+01    0.2027114    0.1678398 -72.68  0.000363436    1.202    0.168
       114 -12.2430     33.8373    205.8462   8.8396148400e+01   2.7387110139e+01    0.2291609    0.1820475  69.35 0.0006066815    1.081    0.075
       115 -11.9979     36.3360    203.2639   8.7631436557e+01   2.7682215474e+01    0.2170974    0.1914533 -74.61 0.0003995617    1.212    0.175
       116 -11.1334    205.0813    206.1953   5.0752562906e+01   7.7900839517e-01    0.1946585    0.1565734   5.36 0.0002651317    1.146    0.127
       117 -11.6250    123.5909    205.7287   6.8200257164e+01   1.4779791454e+01    0.2421856    0.1311591 -48.95 0.0007134207    1.984    0.496
       118 -11.5172     55.1294    205.6118   8.3749107690e+01   2.4957361363e+01     0.191658    0.1506562  84.11 0.0003630635    1.159    0.137
       119 -12.3277     48.6988    204.7258   8.5076182084e+01   2.5939135731e+01    0.2572266    0.1914093 -66.27 0.0005300464    1.341    0.254
       120 -12.9701     99.3230    185.0626   7.0655359632e+01   2.3308690586e+01    0.4992857    0.3428414 -29.12  0.002340716    2.006    0.501
       121 -13.3134     94.4582    183.3587   7.1579297326e+01   2.4474621487e+01    0.5550147    0.3317921 -54.13  0.002622807    1.683    0.406
       122 -13.3451     89.5248    183.0372   7.2746193804e+01   2.5317023956e+01    0.6994312    0.3025247 -60.90  0.001006634    2.347    0.574
       123 -13.0353     90.0055    201.5285   7.5324392803e+01   2.1053461414e+01    0.7140754    0.3327632 -44.40  0.002925195    2.754    0.637
       124 -13.7092     95.5167    194.0623   7.2963194789e+01   2.1871319403e+01     1.034375    0.4608505  49.77  0.004165073    2.375    0.579
       125 -11.2028     41.6786    204.9735   8.6632795322e+01   2.6705830401e+01    0.2290627    0.1767454  69.60  0.001454591    1.135    0.119
       126 -10.8670     60.0226    203.9969   8.2485476303e+01   2.4695659329e+01    0.2159764    0.1313736  67.18 0.0006380806    1.730    0.422
       127 -11.4734    166.5472    203.4599   5.8227012123e+01   7.8129867621e+00    0.1404141     0.126245  13.62 5.773302e-05    1.037    0.036
       128 -11.8706     77.7382    201.1517   7.8114099515e+01   2.2932999136e+01    0.4370759    0.1705551 -56.69  0.001815706    2.534    0.605
       129 -11.2643    212.2427    200.0653   4.8206883352e+01   6.3781526043e-01    0.1978299     0.158247 -65.99  0.001067795    1.982    0.496
       130 -11.2133     84.9862    193.4997   7.5389573261e+01   2.3601748809e+01    0.2107209    0.1797934   5.24 0.0006989238    1.490    0.329
       131 -12.3677     83.8757    198.0140   7.6274434692e+01   2.2747739630e+01    0.3934549    0.2454883  83.43  0.001836827    2.082    0.520
       132 -11.7745     80.4746    193.8344   7.6508179387e+01   2.4187634414e+01    0.3709436    0.2050701  54.42  0.001223635    1.901    0.474
       133 -11.9141     51.1898    199.3686   8.3969146028e+01   2.6833478701e+01    0.2397808    0.1826725  78.63 0.0006421102    1.208    0.172
       134 -11.3364      1.3413    196.5769   9.4477572939e+01   3.2507756038e+01    0.2601899   0.07617456 -70.81  0.001175948    2.700    0.630
       135 -13.1678    122.7065    196.4956   6.6919195555e+01   1.6880402256e+01    0.4667705    0.2414533  49.59   0.00198033    2.025    0.506
       136 -10.7700     30.4518    197.0416   8.8350998693e+01   2.9696503990e+01    0.1730062   0.07959675 -51.90 0.0008082777    2.515    0.602
       137 -12.3326     24.6761    185.7171   8.8611512185e+01   3.2841410083e+01    0.2462514    0.1921666  50.62  0.001327987    1.285    0.222
       138 -12.7732     26.9038    193.1278   8.8782049495e+01   3.0939027376e+01    0.5561357     0.150048 -66.98   0.00224278    3.026    0.670
       139 -11.5025     30.9667    188.7690   8.7471573692e+01   3.1513031007e+01    0.1930767    0.1646742  83.11 0.0003405672    1.030    0.029
       140 -12.1394    193.3514    193.3195   5.0673550146e+01   4.9976432243e+00    0.4577016    0.2634369 -21.70  0.001933728    2.207    0.547
       141 -12.2097    189.9920    193.2385   5.1349268415e+01   5.6000536264e+00    0.3403561    0.2559675  15.98  0.001264288    1.355    0.262
       142 -12.7022    152.0820    195.4462   5.9978686888e+01   1.1942499452e+01    0.3554118    0.2377464  36.13  0.001641066    1.413    0.292
       143 -10.1048     47.3164    196.2864   8.4518662479e+01   2.7992322995e+01    0.1178668   0.09623954 -38.43 0.0005515349    1.587    0.370
       144 -13.3091     11.3186    194.4639   9.2259252127e+01   3.2117588488e+01    0.2868581    0.2486064  58.58   0.00107377    1.220    0.180
       145 -11.1707    202.4420    195.5009   4.9257569664e+01   3.0462211112e+00    0.1381419    0.1205579  -0.80 0.0001351109    1.021    0.020
       146 -12.1419    134.1888    198.7939   6.4641839782e+01   1.4415691091e+01    0.1958201    0.1653507   4.98 0.0008039504    1.346    0.257
       147 -11.4501    239.3235    193.3635   4.1925669000e+01  -2.5352908728e+00    0.2193418    0.1650171  -5.45 0.0006682681    1.227    0.185
       148 -11.1194    217.9881    193.9942   4.5944753038e+01   7.1608347115e-01    0.1824313    0.1687451 -81.92 0.0004547354    1.602    0.376
       149 -11.9922    162.9807    192.4935   5.6998315283e+01   1.0571731287e+01     0.303766    0.2436413  78.18  0.001537604    1.766    0.434
       150 -11.0473     69.3836    193.8976   7.9138119198e+01   2.5732371769e+01    0.1792695    0.1486749 -71.82  0.000479445    1.174    0.148
       151 -12.3292    158.4584    193.2579   5.8146963927e+01   1.1236461640e+01    0.3005683     0.215988  27.12 0.0002845713    1.394    0.283
       152 -11.2093    234.4923    190.4861   4.2226706297e+01  -1.3392963258e+00    0.1312501    0.1114149 -10.20 0.0005576072    1.025    0.025
       153 -13.1124    134.8430    188.5875   6.2709846087e+01   1.6456921113e+01    0.4694225    0.2427413 -40.48  0.001939502    2.198    0.545
       154 -14.0452     69.7291    186.5334   7.8096175268e+01   2.7381514229e+01    0.9979315    0.6870605  27.35  0.003885852    1.647    0.393
       155 -14.0258     65.1731    181.2958   7.8504331742e+01   2.9220851664e+01     1.116763    0.7480887  17.89  0.005627308    1.963    0.490
       156 -12.5177     50.5218    189.9569   8.3090914389e+01   2.9055924856e+01    0.2734115    0.2444265  24.77  0.000352945    1.348    0.258
       157 -13.8524     50.9785    183.9457   8.2286825251e+01   3.0394983505e+01     0.488172     0.286017  46.66  0.001798863    1.666    0.400
       158 -12.4373      4.5808    181.5448   9.2746247265e+01   3.5568040064e+01    0.2713001    0.1818836 -74.58 0.0008433409    1.261    0.207
       159 -13.3526     10.3522    188.5936   9.2024215002e+01   3.3506702585e+01     0.423837    0.3643842  11.11  0.002626891    1.603    0.376
       160 -11.5757     10.7940    180.7664   9.1308954438e+01   3.5233021661e+01    0.2632545    0.2154015 -64.95    0.0011594    1.268    0.211
       161 -10.9794    174.2102    188.8557   5.3843864821e+01   9.2473379314e+00    0.2009142    0.1629578   1.69 0.0007152928    1.312    0.238
       162 -11.5378      8.5431    184.4820   9.2101886962e+01   3.4582756181e+01    0.2083167     0.166582 -36.58  7.03305e-05    1.688    0.408
       163 -12.7251    194.4780    187.2723   4.9262571147e+01   5.8999145152e+00    0.3492415    0.2130424  47.70   0.00164398    1.840    0.456
       164 -11.6907    151.9955    188.0061   5.8627270183e+01   1.3476194505e+01    0.1761282    0.1689852 -20.63 0.0006049819    1.069    0.065
       165 -12.2621    110.4453    187.8497   6.8403855672e+01   2.0851590694e+01    0.3140184     0.181004  43.41  0.001049442    1.660    0.398
       166 -13.3386    120.6280    186.5827   6.5734854100e+01   1.9398041826e+01    0.4466396    0.2497087  38.32 0.0005057008    1.716    0.417
       167 -13.6291    118.5873    180.1696   6.5099996605e+01   2.1184437073e+01     0.644619     0.374761  65.59  0.002472976    2.723    0.633
       168 -11.6026    247.5996    185.7285   3.9025390210e+01  -2.5864608976e+00    0.2255136    0.1416504  23.20 0.0009306916    1.711    0.416
       169 -12.1541    164.5814    185.1819   5.5247172332e+01   1.1737261444e+01    0.2543484    0.2188763  64.87 0.0004367264    1.398    0.285
       170 -11.0512     40.8589    182.8466   8.4571719258e+01   3.1820343482e+01    0.2043869    0.1298085  69.51  0.001089467    1.617    0.382
       171 -10.7036     37.3239    181.3068   8.5241723709e+01   3.2565195863e+01      0.18645    0.1248751  24.80 0.0008383317    1.794    0.443
       172 -10.9169    210.4599    182.5114   4.5127254995e+01   3.9531217164e+00    0.1391368    0.1227326  -6.74 9.609749e-05    1.007    0.007
       173 -12.3468    166.8194    177.8986   5.3307624200e+01   1.2790007475e+01     0.246201    0.2434017 -38.20  0.001418439    1.112    0.101
       174 -11.4434    142.1821    181.5773   5.9688152152e+01   1.6628146850e+01    0.2037482    0.1374448  26.65 0.0004327171    1.603    0.376
       175 -12.0683    106.3728    180.5102   6.8166959954e+01   2.3195675921e+01    0.3222234    0.2009159 -26.14  0.001315651    2.553    0.608
       176 -11.3706     24.0434    181.5129   8.8365566002e+01   3.3867268771e+01    0.1712921    0.1177317  36.11  0.001026512    1.574    0.365
       177 -11.7438    191.5110    177.9604   4.8004639033e+01   8.1676914529e+00    0.2135693    0.1365079 -39.82 0.0004869127    1.544    0.352
       178 -12.8317     57.2533    176.0288   7.9762074153e+01   3.1489725030e+01    0.4369721    0.2896074  76.73  0.001744624    1.673    0.402
       179 -11.9836     22.5767    175.6416   8.8146565514e+01   3.5364906421e+01    0.3783441    0.1644716 -59.77  0.001834506    2.058    0.514
       180 -13.4632    148.2708    176.2201   5.7219427877e+01   1.6640877466e+01    0.4635383    0.3458003  76.52  0.002131241    1.933    0.483
       181 -12.2036    137.3158    177.0385   5.9976254458e+01   1.8507616216e+01    0.2074121    0.1973757 -54.98 0.0008182109    1.094    0.086
       182 -11.9243    171.8764    175.6286   5.1725551733e+01   1.2292155756e+01    0.2441163    0.1971749 -26.67 0.0005264845    1.264    0.209
       183 -13.5309    125.4693    166.9816   6.0915811244e+01   2.2936864980e+01    0.6137028    0.3567555  36.26  0.002648055    1.728    0.421
       184 -13.5611    126.2462    172.7080   6.1835643684e+01   2.1499221830e+01     0.648484    0.3195524 -65.99  0.002239689    3.151    0.683
       185 -13.3280    130.4148    169.2539   6.0136768239e+01   2.1510296930e+01    0.4987134    0.3561424  17.01  0.002285127    1.738    0.425
       186 -12.5528    106.2840    175.7458   6.7365380955e+01   2.4307123610e+01     0.261331    0.2484974 -21.53 0.0004909568    1.153    0.132
       187 -12.6121     48.2854    174.9097   8.1846286886e+01   3.2841971299e+01     0.447488     0.236161  67.60  0.001444231    2.409    0.585
       188 -11.3880     48.8182    169.6307   8.1042826534e+01   3.4038308437e+01    0.1824788    0.1695286 -67.71   0.00104274    1.129    0.114
       189 -11.6504      3.8916    175.1324   9.2407501550e+01   3.7072389919e+01     0.218121    0.1759282  60.33  0.000797932    1.236    0.191
       190 -10.8358      2.5119    171.5667   9.2439244152e+01   3.7989401444e+01    0.1815932    0.1548484  89.02 0.0005383605    1.091    0.083
       191 -11.4879    224.0631    175.7032   4.1183570943e+01   2.8073138865e+00     0.255889      0.11999  47.16  0.001088629    2.518    0.603
       192 -10.7537     39.5744    175.4870   8.4055238442e+01   3.3687184405e+01    0.1286377    0.1116836 -78.75 3.243388e-05    1.067    0.063
       193 -13.2117     90.8703    171.5199   7.0549637855e+01   2.7808178386e+01    0.5557178    0.2270347 -50.14   0.00212363    2.456    0.593
       194 -13.8499     33.3272    148.6190   8.2329378864e+01   4.0773766866e+01    0.5306478    0.2749433  21.51 0.0008648972    2.384    0.581
       195 -12.0652     17.3828    167.0011   8.8543191497e+01   3.7848279094e+01    0.4295389    0.2110956  15.52  0.002059385    2.936    0.659
       196 -11.5876     15.8226    160.1331   8.8238770618e+01   3.9594629242e+01    0.2007944    0.1842769   8.69 0.0007536561    1.396    0.284
       197 -13.3779     23.9068    161.0469   8.6312193693e+01   3.8676353885e+01    0.6106347    0.4010544 -48.13  0.003471535    1.627    0.386
       198 -13.0696      4.7672    161.9626   9.1110619822e+01   4.0031205227e+01    0.7907647    0.3064434  55.55  0.003533698    2.964    0.663
       199 -12.2080     10.9690    161.1994   8.9540195639e+01   3.9736479112e+01    0.2364428    0.1986491  81.70 0.0003693631    1.100    0.091
       200 -12.7898     29.5239    172.5016   8.6167449867e+01   3.5433130266e+01     0.257327    0.2520767  64.13 0.0005237588    1.226    0.184
       201 -12.3893     24.1270    168.6684   8.7074772218e+01   3.6852640202e+01    0.3830052    0.2549365  25.87  0.002225043    1.785    0.440
       202 -13.2165     14.8186    149.6739   8.7386169183e+01   4.2152282835e+01    0.4717043    0.2840422 -48.53   0.00212501    1.695    0.410
       203 -12.9365     20.6202    153.8847   8.6350518316e+01   4.0672088613e+01    0.4519647     0.263494 -38.29  0.002334942    2.144    0.533
       204 -13.8930     26.4634    151.3503   8.4521675229e+01   4.0762472455e+01    0.7981035    0.3354658 -77.30  0.003417547    2.375    0.579
       205 -13.1462     21.1058    148.6920   8.5620790014e+01   4.1871511124e+01     0.350809    0.3341995 -34.21  0.001605355    1.253    0.202
       206 -10.3125     12.6864    174.7104   9.0367304217e+01   3.6458226843e+01    0.1159813   0.08271771 -49.47 0.0002810878    1.588    0.370
       207 -12.9333    100.6437    171.9782   6.8129844869e+01   2.6124889177e+01    0.3424624    0.2399433 -53.56  0.001685637    1.425    0.298
       208 -11.5095    234.3141    171.7009   3.8532251927e+01   1.7712019197e+00    0.2472131     0.148352 -44.17 0.0007820539    1.689    0.408
       209 -12.4878    197.1649    170.2627   4.5254864788e+01   8.5746031681e+00    0.2609134    0.1871311 -25.02  0.001305318    1.419    0.295
       210 -12.0369     62.1921    170.0345   7.7688904238e+01   3.2290169222e+01    0.4321981    0.2672993  74.10   0.00201621    2.005    0.501
       211 -12.2394     57.6303    164.1220   7.8018006847e+01   3.4297523002e+01    0.3134201    0.2163522  79.67 0.0006668441    1.623    0.384
       212 -12.9584    152.6074    168.7991   5.4704491502e+01   1.7400655533e+01    0.3855898    0.2344285 -61.37  0.001275433    2.133    0.531
       213 -13.1421    151.7415    165.0019   5.4118613593e+01   1.8382929324e+01    0.3783658    0.2582102  34.05  0.001223857    1.483    0.326
       214 -12.5247    172.0259    166.6727   4.9831029818e+01   1.4075814951e+01    0.2759577    0.2593893  52.86  0.001525783    1.166    0.142
       215 -11.3789     43.4477    186.8904   8.4404293227e+01   3.0591090042e+01    0.1981398    0.1571501  63.54 0.0004286892    1.180    0.152
       216 -13.1055     87.8940    164.8198   7.0177105683e+01   2.9869033860e+01    0.3880792    0.2634201  36.76  0.001303888    1.502    0.334
       217 -12.2261     83.5839    164.1754   7.1199505948e+01   3.0685954176e+01    0.4189379    0.1530368 -55.52  0.001537919    2.557    0.609
       218 -11.8988     76.5345    171.4839   7.4224473099e+01   2.9976261452e+01    0.2717617    0.1657026  81.25 0.0007471628    2.304    0.566
       219 -10.7506     68.4602    164.4578   7.5228224714e+01   3.2798033750e+01    0.1389857    0.1272837 -87.94 0.0001213912    1.021    0.020
       220 -11.5166    206.2058    163.6155   4.2053387018e+01   8.1345822144e+00    0.2017256    0.1293287  29.53 0.0009479069    1.700    0.412
       221 -12.2838     37.1448    162.8478   8.3156869779e+01   3.6955769001e+01    0.2338045    0.1998982  84.23 0.0004030803    1.083    0.077
       222 -12.6001     47.3367    161.3951   8.0327144975e+01   3.6191680300e+01    0.3740476    0.2269501  72.49  0.001789651    1.989    0.497
       223 -13.2471    170.0770    159.6563   4.8759476839e+01   1.5897464994e+01     0.434208    0.3171987 -55.22  0.002067599    1.533    0.348
       224 -11.2500    146.9524    161.3563   5.4489508913e+01   2.0107826088e+01    0.2523527    0.1260631  20.58 0.0007042481    4.422    0.774
       225 -10.7838     73.3330    161.3321   7.3438901719e+01   3.2876437135e+01    0.1450001    0.1065388 -29.39 0.0007052202    1.728    0.421
       226 -10.6626    178.5410    160.5042   4.7080486146e+01   1.4049222817e+01    0.1483697    0.1404277  -7.56  7.71004e-05    1.003    0.003
       227 -11.8649     41.6239    168.6852   8.2739775231e+01   3.5078902938e+01    0.3145194     0.209391  75.39  0.001681294    1.590    0.371
       228 -11.7651     77.2823    159.6863   7.2109007235e+01   3.2706996019e+01    0.2406507    0.1916368 -60.95 0.0005089647    1.196    0.164
       229 -12.6258    188.1141    158.3481   4.4572973559e+01   1.2595598945e+01    0.2997576     0.262844  27.65 0.0006603208    1.144    0.126
       230 -11.5497    105.5448    158.2112   6.4307047076e+01   2.8540082517e+01    0.2672978    0.2055946  39.89 0.0006358981    1.306    0.234
       231 -12.5437     56.9109    157.3412   7.7202641517e+01   3.6032480436e+01    0.2970587    0.2310747  49.26 0.0007413905    1.333    0.250
       232 -12.3317     33.0298    157.9538   8.3613042886e+01   3.8550065677e+01    0.1941102    0.1671426 -83.79 0.0003278361    1.020    0.019
       233 -12.9237     38.1483    154.8024   8.1861154932e+01   3.8790710394e+01    0.4045368    0.2030265  14.96  0.001758458    2.940    0.660
       234 -12.1148     81.1025    156.6400   7.0551316312e+01   3.2879060503e+01    0.2468957    0.1975894 -77.84 0.0009198462    1.284    0.221
       235 -12.4472     63.0883    156.6768   7.5434396015e+01   3.5405376406e+01    0.1873815    0.1797132  60.97 0.0004733898    1.102    0.092
       236 -12.9156     62.1358    152.8756   7.5081044079e+01   3.6456693688e+01     0.279003    0.2143858  75.86  0.001365665    1.428    0.300
       237 -12.0210     76.9253    154.9494   7.1386845756e+01   3.3908255595e+01    0.2310668    0.2042175  38.41 0.0003508238    1.189    0.159
       238 -12.2035    212.2701    153.6402   3.8750045517e+01   8.8384073409e+00    0.2610085    0.2185042 -61.20 0.0006939404    1.450    0.310
       239 -12.1982     88.2921    153.2857   6.7985838477e+01   3.2581349998e+01     0.259024    0.1751781 -54.75 0.0006789475    1.421    0.296
       240 -11.6711     51.1301    153.9724   7.8255250504e+01   3.7553189504e+01    0.2142697    0.1716752  83.94  0.001214413    1.264    0.209
       241 -11.5822    249.0945    151.9363   3.2025783617e+01   2.6154856276e+00    0.1940892    0.1636041 -25.29 0.0003141144    1.006    0.006
       242 -11.0162    117.6543    157.6717   6.1036328117e+01   2.6510805551e+01    0.1567775    0.1192567 -11.70 0.0006392556    1.751    0.429
       243 -11.2234     79.5019    151.5242   7.0067526862e+01   3.4360109437e+01    0.1433092    0.1354541 -75.89 0.0001775514    1.008    0.008
       244 -12.5306    171.5254    149.8780   4.6270254004e+01   1.7624368807e+01    0.2605434    0.2143788  12.89  0.001298724    1.347    0.258
       245 -12.0466    147.2321    149.4659   5.1829047011e+01   2.2657896371e+01    0.3131506    0.2667464  80.09 0.0006055877    1.435    0.303
       246 -12.5554    108.6644    148.9771   6.1609638051e+01   3.0174257951e+01    0.3454387    0.2792804 -56.38 0.0007807325    1.230    0.187
       247 -12.3405     95.6581    149.6429   6.5269840759e+01   3.2262352176e+01    0.3167478    0.2368051 -22.64  0.001307661    1.701    0.412
       248 -12.5554     84.6958    149.2758   6.8214126319e+01   3.4114943824e+01    0.3067704     0.241453 -37.53 0.0008566066    1.369    0.269
       249 -11.9858      3.2655    153.3611   9.0699316377e+01   4.2139554627e+01    0.2797417     0.162532  50.95   0.00160821    1.826    0.452
       250 -11.6941     77.0115    148.6913   7.0238340833e+01   3.5418063978e+01    0.1930687    0.1891996   6.13  0.000482891    1.113    0.102
       251 -12.9677      3.4349    147.4120   9.0089492396e+01   4.3519119558e+01    0.4979447    0.2667817  31.29   0.00280042    2.116    0.527
       252 -11.8538      2.9655    142.4957   8.9720543209e+01   4.4703357372e+01     0.219436    0.1741615 -38.53 0.0009815571    1.452    0.311
       253 -12.4282      3.7131    138.0534   8.9059975915e+01   4.5698572581e+01    0.4290897    0.2213124  44.70  0.002308453    2.167    0.539
       254 -13.4217      2.9512    131.6414   8.8566145825e+01   4.7254523480e+01    0.4668077    0.3761916  17.11 0.0008726987    1.556    0.357
       255 -14.5390     11.9372    141.1663   8.7193724579e+01   4.4393986295e+01    0.7035184     0.535673  81.36  0.004447285    1.281    0.219
       256 -13.4058     14.5512    136.0380   8.5866997213e+01   4.5420742625e+01    0.3913425     0.282327  55.11  0.002015538    1.535    0.348
       257 -12.4467     11.9625    133.2433   8.6245147697e+01   4.6275511935e+01    0.2271979    0.2026001 -72.93 0.0003596341    1.088    0.081
       258 -12.1960    121.7094    156.0416   5.9654243905e+01   2.6140696472e+01    0.2133408     0.194582 -50.93 0.0003322251    1.097    0.088
       259 -11.0746    229.2922    145.9778   3.4036106595e+01   7.0602281909e+00    0.1943987    0.1600635 -32.18 0.0003470863    1.085    0.078
       260 -12.7633    170.4850    144.5347   4.5284806920e+01   1.8942248067e+01    0.3570933    0.2553569  28.09  0.001648327    1.550    0.355
       261 -11.5011    105.5251    144.5040   6.1514809068e+01   3.1791300215e+01    0.2948383    0.2399951 -13.80 0.0008284266    1.490    0.329
       262 -12.9471    100.8083    142.0638   6.2290838187e+01   3.3198863436e+01    0.5450307    0.3208534  60.20  0.002148012    2.372    0.578
       263 -11.6796     88.1001    144.7067   6.6376049046e+01   3.4684354037e+01    0.2046032    0.1954494  28.70   0.00114916    1.105    0.095
       264 -11.2897    118.7652    143.8071   5.7799481699e+01   2.9527571642e+01    0.2064512    0.1793095  86.67 0.0003430446    1.331    0.248
       265 -10.9571     49.6699    143.6624   7.7063056174e+01   4.0240506951e+01    0.1434246   0.09588265 -36.26 0.0007051986    1.735    0.424
       266 -11.1288    178.8292    142.6045   4.3011858417e+01   1.7608498097e+01    0.2202757    0.1431376  56.44   0.00095449    1.815    0.449
       267 -11.0072     78.6631    142.6661   6.8636016204e+01   3.6639354402e+01    0.1517371    0.1093864 -25.92 0.0005326673    1.743    0.426
       268 -12.6373     35.1043    138.5604   8.0413273907e+01   4.3039490268e+01    0.2739458    0.2043406  24.30 0.0009380208    1.563    0.360
       269 -12.9630     37.6482    135.3301   7.9188847109e+01   4.3571417101e+01    0.3736233    0.2377984  60.62  0.001414985    1.895    0.472
       270 -14.1774     35.5849    130.9324   7.9099147775e+01   4.4842688119e+01    0.6841168    0.3397582  35.90 2.365779e-05    2.186    0.543
       271 -13.3409     45.1922    138.0696   7.7440187353e+01   4.2110751379e+01    0.4082821    0.2070317 -50.01 0.0004388447    1.836    0.455
       272 -12.6446     29.8676    139.0046   8.1963798610e+01   4.3429805725e+01    0.3351278    0.1683286 -78.47  0.001530883    2.045    0.511
       273 -11.3121    223.3313    137.7431   3.3275901923e+01   9.6220060689e+00    0.3222111    0.1212277 -36.35  0.001196758    2.520    0.603
       274 -12.2227    188.5810    138.5534   4.0025990210e+01   1.6396362785e+01    0.2623379    0.2434356 -52.28  0.001434054    1.129    0.114
       275 -10.9094    212.5213    137.4795   3.5140695741e+01   1.1759057794e+01    0.1433245    0.1319367 -29.57  9.14986e-06    1.016    0.015
       276 -11.3132    126.7856    137.1809   5.4178167177e+01   2.9501281467e+01    0.2119244    0.1814209 -11.00 0.0003850111    1.323    0.244
       277 -12.8256    119.2605    135.7023   5.5831228613e+01   3.1307392912e+01    0.4297432    0.3359251 -82.22  0.002000496    1.647    0.393
       278 -10.5765    141.4498    135.5114   5.0029886484e+01   2.6910482678e+01    0.1530751    0.1506511 -24.79 0.0001946532    1.011    0.011
       279 -12.3137    102.8867    134.3160   6.0013604531e+01   3.4669824560e+01    0.2678512    0.2123919 -64.98  0.001317366    1.338    0.253
       280 -13.8346     85.6466    133.6880   6.4802069821e+01   3.7732494773e+01     0.738908    0.4494664 -87.50  0.002720389    3.033    0.670
       281 -12.7041     83.6177    127.2119   6.3990228673e+01   3.9606067108e+01    0.3565758    0.2552877 -31.66  0.001706654    1.561    0.359
       282 -13.2385     78.1925    133.6201   6.6961739786e+01   3.8903819483e+01    0.3978465    0.2664317 -19.54   0.00113037    2.127    0.530
       283 -10.6700    138.6304    132.7600   5.0080136376e+01   2.8099396838e+01    0.2150947     0.145365 -55.04  0.000539174    1.589    0.371
       284 -11.7988    127.7596    132.9099   5.2917145942e+01   3.0276057713e+01    0.2949094    0.2031569  69.22   0.00121692    2.078    0.519
       285 -11.5508    193.4740    134.9737   3.8206624993e+01   1.6081088168e+01    0.2194644    0.1946618  39.95 0.0001651867    1.174    0.148
       286 -11.7074     41.5558    139.5316   7.8718268152e+01   4.2146164024e+01    0.2243659    0.1557935  84.95 0.0005425124    1.624    0.384
       287 -13.1021     16.4818    129.5112   8.4479364784e+01   4.6832988473e+01    0.5205876    0.2180644  64.03  0.001795144    4.729    0.789
       288 -12.6138     21.6971    131.2988   8.3217185606e+01   4.5996417831e+01    0.2386507    0.2085499 -59.00 0.0002151881    1.092    0.085
       289 -13.2351     21.9986    127.7796   8.2630117029e+01   4.6815776324e+01    0.3174433     0.261467 -30.26 0.0003479233    1.360    0.265
       290 -10.4188    230.4408    130.5301   3.0495170088e+01   9.5464934854e+00    0.1384901    0.1228144 -35.54 0.0001509578    1.023    0.023
       291 -12.6851    206.2884    129.3386   3.4438905909e+01   1.4512015889e+01    0.2759174    0.2396858 -32.14 0.0003933873    1.081    0.075
       292 -11.8986     50.3651    130.0717   7.4546139052e+01   4.3475642661e+01    0.1993058    0.1637676 -66.23 0.0006411728    1.112    0.101
       293 -13.2196     44.5915    127.6314   7.5849737721e+01   4.4715449582e+01    0.4581777     0.283527  69.22  0.001429687    2.265    0.559
       294 -11.1662    188.0278    127.7311   3.7599827336e+01   1.8629220280e+01    0.1982048    0.1915732  16.70 0.0002571573    1.059    0.056
       295 -10.4768    130.4809    128.4640   5.1132530812e+01   3.0724869273e+01     0.152649    0.1513176 -30.66 0.0001069502    1.020    0.019
       296 -11.3741    121.8212    128.0977   5.3339369821e+01   3.2545682846e+01     0.235237    0.2121138 -83.78 0.0008464922    1.252    0.201
       297 -13.4592     60.3559    126.5942   7.0866559877e+01   4.3097804364e+01    0.3123832    0.2884558  12.78  0.001055285    1.196    0.164
       298 -13.3840      9.6480    125.3859   8.5915642828e+01   4.8298978930e+01    0.4775932    0.2683385  -3.76  0.002459676    2.581    0.613
       299 -11.1546     97.4471    125.4966   5.9538526791e+01   3.7704806899e+01    0.1501752    0.1426706 -35.51  7.89053e-05    1.028    0.027
       300 -11.9749     74.9577    125.0118   6.6102872241e+01   4.1458735748e+01    0.2190157    0.2006903 -45.32 0.0003091767    1.035    0.034
       301 -13.2813     19.2111    123.3305   8.2811557056e+01   4.8099577885e+01    0.4537863    0.2743174 -40.56  0.001763145    1.703    0.413
       302 -11.7292     24.0181    115.0001   8.0037176534e+01   4.9700631634e+01     0.254641    0.2119525  65.90 0.0007484569    1.386    0.278
       303 -12.5355     21.8198    117.6172   8.1147836572e+01   4.9255876139e+01     0.364141    0.2119792  28.63 0.0009896235    1.970    0.492
       304 -12.6585     19.5265    114.5000   8.1367488275e+01   5.0172210997e+01    0.2970849    0.2396084 -17.98  0.001093405    1.426    0.299
       305 -11.9384    109.2043    123.0192   5.5579473963e+01   3.6141162462e+01    0.2541404    0.2186852  41.65  0.000352553    1.191    0.161
       306 -11.6188    188.9994    121.5333   3.5920998528e+01   1.9619376676e+01    0.2244567    0.1960457 -39.30 -2.662167e-06    1.098    0.090
       307 -11.3712    165.3150    122.0227   4.1055157675e+01   2.4681668413e+01    0.2170104    0.1989791 -42.75 0.0004346632    1.077    0.071
       308 -12.6073    103.9394    121.3318   5.6665930537e+01   3.7507811287e+01    0.3689134    0.2814395  63.75    0.0014939    1.613    0.380
       309 -12.2526     98.5446    117.3169   5.7246119396e+01   3.9408646862e+01    0.3822374     0.277359  64.67 0.0008899143    1.810    0.447
       310 -11.5397     94.3180    117.3407   5.8501983328e+01   4.0149011761e+01    0.2888867    0.1724776 -40.85  0.001247335    1.685    0.406
       311 -13.4067     10.3884    105.8984   8.2914267855e+01   5.2823713494e+01    0.3160776    0.2208653 -54.04  0.000631291    1.177    0.150
       312 -13.6430     12.9014    112.5609   8.3142257072e+01   5.1104098294e+01    0.5985733    0.2217999 -64.24  0.001665195    2.088    0.521
       313 -13.3865      4.7022    119.5663   8.6616709654e+01   4.9983291974e+01    0.4564182    0.2641609 -64.58  0.002611366    1.357    0.263
       314 -12.5254     14.0085    118.0123   8.3608393670e+01   4.9744275854e+01    0.2197705    0.1854832 -63.23 0.0005778559    1.030    0.029
       315 -12.9882      9.1644    115.6775   8.4752492792e+01   5.0618594896e+01    0.3291041    0.1922246 -83.45  0.000943198    1.718    0.418
       316 -10.2048    224.2851    120.3245   2.9244106566e+01   1.2518502679e+01    0.1378455    0.1068605  -4.41 0.0002904288    1.601    0.376
       317 -11.4781    179.1597    120.0141   3.7558118459e+01   2.2051304625e+01    0.2185164    0.2102495 -23.35  0.000399404    1.023    0.022
       318 -12.0979     44.2939    121.0087   7.4738768162e+01   4.6346972964e+01    0.3605928    0.1721358 -42.48  0.001106987    2.153    0.536
       319 -12.5200     71.8861    116.6559   6.5190004327e+01   4.3897673157e+01    0.3335698    0.1512067 -53.93 0.0009048971    2.032    0.508
       320 -11.1054     58.5095    117.5117   6.9580045427e+01   4.5516848220e+01    0.1411074    0.1267322 -47.66 1.572876e-05    1.022    0.021
       321 -11.7932     50.9776    115.8109   7.1615580414e+01   4.6841354109e+01    0.3779971    0.2471742  54.83  0.001139022    1.935    0.483
       322 -11.5640    196.9534    115.3175   3.2885899197e+01   1.9080144378e+01    0.1982091    0.1872812  44.25 0.0003416698    1.112    0.101
       323 -13.1709     82.8420    112.2631   6.0740417933e+01   4.3246016343e+01    0.6126723    0.2299618 -54.72  0.002005385    2.696    0.629
       324 -10.6794    187.6750    114.7215   3.4529167956e+01   2.1208066798e+01    0.1480054    0.1171783  10.52 0.0001912948    1.590    0.371
       325 -11.5634    104.8212    113.8531   5.4540120098e+01   3.9047510140e+01    0.2084908    0.1847428 -89.92 0.0007752463    1.336    0.251
       326 -14.0477     62.3497    111.5758   6.7058133906e+01   4.6423390707e+01    0.6187432    0.4379147 -53.75  0.002913411    1.290    0.225
       327 -10.9062    116.3268    108.3094   4.9810168471e+01   3.8039177799e+01    0.2959934    0.1740432 -14.28 0.0009475129    3.565    0.719
       328 -11.2634    116.0300    112.7589   5.1067654706e+01   3.7126507235e+01    0.2912164    0.1981322  51.06 0.0004661756    1.596    0.374
       329 -11.7762    109.5326    111.9975   5.2704013650e+01   3.8567497645e+01    0.2705585    0.2167008   5.08  0.000626176    1.487    0.328
       330 -11.8187    113.0295    110.1907   5.1236123422e+01   3.8284887850e+01    0.2702609    0.2150594 -43.85 0.0008968936    1.234    0.189
       331 -10.7193    100.7128    113.6291   5.5682704790e+01   3.9857721404e+01    0.2029923     0.140878  47.03 0.0004924497    1.541    0.351
       332 -11.6153     89.8448    110.8525   5.8235192028e+01   4.2408994895e+01    0.2436583    0.2142386  29.97  0.000378266    1.180    0.152
       333 -11.1538     92.0069    107.9686   5.6837628060e+01   4.2690182320e+01    0.2294675    0.1726457 -16.61  0.001089387    1.585    0.369
       334 -11.7890     52.9035    110.7638   6.9934401560e+01   4.7809991119e+01    0.2783155    0.2160401  39.21 0.0008314151    1.436    0.304
       335 -12.3840     73.6629    109.5296   6.2956420700e+01   4.5303135331e+01    0.3564457    0.2250163 -79.44  0.001161339    2.571    0.611
       336 -10.7295    216.4886    109.4643   2.8055786518e+01   1.6001124513e+01    0.1412411    0.1301995 -43.65 0.0002124938    1.004    0.004
       337 -11.9559    171.5045    108.9726   3.6407015795e+01   2.5904827623e+01    0.4383373    0.2659932  62.82  0.001805553    2.032    0.508
       338 -10.8918    209.6104    108.2076   2.8920355610e+01   1.7664960254e+01    0.2084859    0.1313572 -28.94  0.000951654    1.689    0.408
       339 -10.5699    155.5004    108.4772   3.9836407223e+01   2.9596637115e+01    0.1517616    0.1502307 -22.47 4.473077e-05    1.005    0.005
       340 -12.2968      2.6590    106.9146   8.5534327943e+01   5.3045279054e+01    0.2085694    0.1806961  34.13  0.001452321    1.415    0.293
       341 -11.7342    219.2988    106.0322   2.6805945454e+01   1.6015683511e+01    0.1969209    0.1675289 -44.55 0.0003706275    1.077    0.072
       342 -11.4694    229.4631    103.1681   2.4577969186e+01   1.4428992345e+01    0.2075912    0.1902555  65.74 0.0002874597    1.202    0.168
       343 -12.4938     78.9205    101.5253   5.9259631813e+01   4.6317831128e+01    0.2672441    0.2610872  31.53 0.0006091909    1.115    0.103
       344 -13.4694    155.0716     97.3888   3.6980607495e+01   3.1869796860e+01    0.4322944    0.3650024  32.92 0.0006839434    1.243    0.196
       345 -11.4338    208.1816     99.8182   2.7175180376e+01   1.9444569814e+01    0.1878204     0.167945   4.99 0.0003784441    1.304    0.233
       346 -12.0684    193.1987    100.1359   2.9880275148e+01   2.2681783702e+01    0.4235265     0.172395  62.36  0.001368815    3.553    0.719
       347 -12.0789    162.7666     99.7918   3.5904913445e+01   2.9652947532e+01    0.2125624    0.1818131 -77.51 0.0005900331    1.350    0.259
       348 -12.2019     93.7832     99.1555   5.3943309014e+01   4.4326284767e+01    0.3072702    0.2437163  36.63  0.001285277    1.295    0.228
       349 -11.4355     58.6432     98.1027   6.5091026601e+01   5.0022196113e+01    0.3628354    0.2554075  61.77  0.001772294    2.032    0.508
       350 -11.2240     45.8627     97.5208   6.9327404563e+01   5.1698112598e+01    0.1940448    0.1628203 -44.91 0.0005345033    1.042    0.040
       351 -11.8878     24.6188     97.2226   7.6615822561e+01   5.3804994830e+01    0.3847896     0.290774  -2.58  0.002324994    1.523    0.343
       352 -12.5945     32.9338     97.9742   7.3896610792e+01   5.2911456189e+01    0.4579445    0.2332354 -37.09  0.002152471    2.010    0.502
       353 -12.6200     66.7421     94.5214   6.1431148728e+01   4.9717118839e+01    0.2637683    0.2405769  40.46 0.0008172306    1.230    0.187
       354 -11.2557    117.4716     94.0839   4.5558346273e+01   4.0794953243e+01    0.2216348    0.1474387 -42.15 0.0003863783    1.496    0.332
       355 -10.8328     89.3247     94.3015   5.3984598448e+01   4.6162755459e+01    0.1506609    0.1118931  -9.04 0.0003185679    1.636    0.389
       356 -12.1252     78.2051     92.1987   5.6977177296e+01   4.8482950765e+01    0.1966934    0.1785221  88.08  0.001089946    1.374    0.272
       357 -12.5369    229.9731     89.8382   2.1511756453e+01   1.6518993432e+01    0.2546101    0.2443523 -24.47 0.0004282771    1.156    0.135
       358 -11.2802     28.8171     90.1938   7.3669532769e+01   5.5049203637e+01        0.184    0.1302438 -34.64 0.0005695454    1.318    0.241
       359 -11.6646     22.9854     90.0481   7.5728350418e+01   5.5565570587e+01    0.1939147    0.1539801 -45.74            0    1.054    0.051
       360 -11.7397    171.3878     88.7728   3.1159580193e+01   2.9700721140e+01    0.2127305    0.1426639 -27.15 0.0007456268    1.674    0.403
       361 -11.0129     88.5499     89.4840   5.2858118180e+01   4.7317577419e+01    0.1457016    0.1358019 -17.69 -9.654494e-05    1.005    0.005
       362 -11.0319      3.5111     88.4612   8.2350636582e+01   5.7198022627e+01    0.2462958   0.06422528 -56.17  0.001038996    2.479    0.597
       363 -12.4163     11.6320     86.8768   7.9167142628e+01   5.7081466932e+01    0.2885247    0.2124568  11.87  0.001146615    1.588    0.370
       364 -11.5207    178.5038     86.9225   2.9272144266e+01   2.8375009614e+01    0.2187735    0.1424561 -39.49 0.0003673904    1.512    0.339
       365 -12.5490    149.0272     87.4919   3.5639156159e+01   3.5118698775e+01    0.3109593    0.2226861 -23.57  0.001432285    1.601    0.376
       366 -11.6557    153.5837     79.5380   3.2371701277e+01   3.5490865015e+01    0.2385426    0.1942766 -43.84 7.502425e-05    1.249    0.199
       367 -12.2863     54.2190     85.7145   6.3430654707e+01   5.3334167446e+01    0.4176776    0.3405373 -13.33  0.002409029    1.237    0.191
       368 -10.7097    244.2793     85.9779   1.8757539755e+01   1.4263869464e+01    0.1787306    0.1450834 -45.14 0.0002623078    1.080    0.074
       369 -10.4123    202.4652     86.4167   2.4890048459e+01   2.2990055344e+01    0.1402467    0.1322757 -65.01 0.0001030408    1.013    0.013
       370 -11.2712    159.4912     85.4243   3.2731301897e+01   3.3070164686e+01    0.1475194    0.1440679  76.91 3.819631e-05    1.027    0.027
       371 -13.0675     61.8303     83.8583   6.0217161399e+01   5.2722091293e+01    0.4290234    0.2399277 -25.46   0.00157793    2.272    0.560
       372 -11.0010    133.1969     84.2151   3.8522478330e+01   3.9321730860e+01    0.1942599    0.1737079  84.35 0.0002343551    1.294    0.227
       373 -11.4288    125.1553     83.5702   4.0409758728e+01   4.1218461198e+01    0.4320472    0.2489845 -64.49  0.001509028    3.214    0.689
       374 -12.0579    112.7066     83.8543   4.3905438524e+01   4.3811097473e+01    0.4078068    0.2052224  51.32  0.001603569    2.187    0.543
       375 -11.5103    190.1208     83.5265   2.6265233171e+01   2.6274258934e+01    0.2111697    0.1418816  59.64  0.001007774    1.528    0.346
       376 -11.3110    171.4110     82.8098   2.9562385922e+01   3.0743501992e+01    0.2049759      0.14315 -24.78 0.0006992118    1.639    0.390
       377 -11.8261     78.6170     82.0739   5.3922516385e+01   5.0542533865e+01    0.2356868    0.1971973  49.98 0.0003368833    1.399    0.285
       378 -11.6577    206.5582     80.9384   2.2903653282e+01   2.2979496979e+01    0.2114332     0.192134  49.14 0.0003991601    1.199    0.166
       379 -12.3095    182.2213     80.9933   2.7027960697e+01   2.8528277886e+01    0.2503003    0.2270752  89.97 0.0003120375    1.127    0.113
       380 -11.3067    215.8650     79.8898   2.1249614182e+01   2.1099004907e+01    0.1940303     0.150309 -65.59 0.0004491804    1.320    0.243
       381 -11.3305    112.7132     78.5538   4.2298526192e+01   4.4817330748e+01    0.2973405    0.2301802 -68.90  0.001425797    1.750    0.429
       382 -11.2456     52.4546     78.7366   6.2142326003e+01   5.5043719389e+01    0.3785514    0.2154866   5.95  0.001665302    2.487    0.598
       383 -10.9024     28.8176     79.2225   7.1118546520e+01   5.7469620056e+01    0.2052428    0.1323075  67.42  0.000959755    2.865    0.651
       384 -11.6180     75.0446     75.5449   5.3147877370e+01   5.2438754954e+01     0.250874    0.1925131 -55.77 0.0006026842    1.504    0.335
       385 -10.9648     48.2639     76.2634   6.2992583146e+01   5.6075623975e+01    0.1609362    0.1550945  86.40  0.000432499    1.324    0.245
       386 -11.2220    161.6653     77.2888   3.0022523871e+01   3.3981244574e+01    0.1499951    0.1152426 -80.18 0.0002590567    1.631    0.387
       387 -11.4264    214.9162     75.1358   2.0270019953e+01   2.2056144585e+01    0.2147784    0.1675422 -64.77 0.0005819311    1.282    0.220
       388 -11.7951     87.6947     78.9375   4.9988454785e+01   4.9611312920e+01    0.2943386    0.2020489  40.86 0.0005319437    1.498    0.333
       389 -11.3649     85.9572     74.8953   4.9295377834e+01   5.0708208769e+01    0.2629798    0.1915561  13.58 0.0009950305    1.546    0.353
       390 -12.2230      1.8694     73.7193   8.0196538167e+01   6.0513834088e+01    0.4025339    0.1366048 -53.12  0.001323878    2.041    0.510
       391 -11.2616      2.0080     68.6378   7.9089024776e+01   6.1588438333e+01    0.2167525    0.1510524 -62.49  0.001171187    1.276    0.216
       392 -10.8175    155.8199     73.8301   3.0273188030e+01   3.5943398411e+01    0.2051456    0.1744134 -85.49 0.0005928841    1.339    0.253
       393 -11.0654    105.6074     72.6940   4.2517831976e+01   4.7362145973e+01    0.2678363    0.1715431  33.04 0.0009812241    1.622    0.384
       394 -10.9146     51.1766     73.1562   6.1001820707e+01   5.6358758694e+01     0.174295    0.1536038 -61.00 0.0005167208    1.344    0.256
       395 -11.0851     11.1130     71.6886   7.6169380035e+01   6.0425635885e+01    0.1625753    0.1362498 -20.76  0.001110831    1.191    0.161
       396 -11.4241    182.6745     71.0896   2.4359545984e+01   3.0045178788e+01    0.2272462    0.1887371  80.10 0.0002651837    1.248    0.199
       397 -12.2831      7.2941     67.9057   7.6821281394e+01   6.1456064344e+01    0.1986557    0.1536297 -21.87 0.0002651182    1.253    0.202
       398 -12.7515    203.1968     66.2462   1.9841895848e+01   2.6043572835e+01    0.2771956    0.2461917  71.18 0.0005720278    1.128    0.114
       399 -12.2788    199.0965     65.4836   2.0265693704e+01   2.7096135221e+01    0.2514392    0.1977116 -40.37 0.0004190996    1.255    0.203
       400 -10.8105     98.0135     66.9408   4.2935447460e+01   4.9913639322e+01    0.1695709    0.1548467 -13.51 0.0003449269    1.061    0.058
       401 -11.0652     85.9795     67.2617   4.6836208967e+01   5.2133483298e+01    0.1927905    0.1722089  12.98 0.0002128008    1.057    0.054
       402 -11.4376     60.2519     67.0163   5.5728580825e+01   5.6359871811e+01    0.1898487    0.1582738 -29.41 0.0003268707    1.089    0.082
       403 -11.7325    179.2265     64.4471   2.3205232863e+01   3.1896172713e+01    0.2639714    0.2387537  81.93 0.0006995748    1.079    0.073
       404 -12.0803     11.4183     62.5520   7.3851125896e+01   6.2313138413e+01    0.3716613    0.1802576 -14.22  0.001815109    2.567    0.610
       405 -10.3180    153.0119     62.0261   2.7469415764e+01   3.8511548486e+01    0.1658441    0.1611147  61.32  0.000950854    1.013    0.013
       406 -12.1811    108.5585     59.5741   3.7426409823e+01   4.9006939417e+01    0.2809402    0.2529445 -78.39  0.001015161    1.402    0.287
       407 -11.1909    192.5126     57.4836   1.9254939737e+01   2.9806072328e+01    0.1383594    0.1266308 -79.54 0.0008102327    1.022    0.022
       408 -11.3971    160.0021     57.4908   2.4779259872e+01   3.7529888242e+01    0.2139076     0.135859  60.29 0.0004520234    1.520    0.342
       409 -11.3109    120.5541     57.0254   3.3380025505e+01   4.6804791059e+01    0.2036203    0.1405902 -31.26 0.0003013214    1.516    0.341
       410 -11.4413    115.6051     53.8325   3.3616924823e+01   4.8388299288e+01    0.1868868     0.131099 -44.35  0.000372053    1.583    0.368
       411 -12.8168     32.8153     57.0916   6.3356959395e+01   6.1624642388e+01    0.5147357    0.2232052  37.78  0.002359291    2.829    0.646
       412 -11.9715    126.9086     53.3855   3.0634919758e+01   4.5922681227e+01    0.3337943     0.129028  53.04  0.001247674    2.424    0.588
       413 -13.4780     31.0293     50.0560   6.1833745879e+01   6.3128661457e+01    0.3338017    0.2900078  34.88  0.001203342    1.490    0.329
       414 -10.4709    222.9599     50.2040   1.3479929687e+01   2.3948187036e+01    0.1618305   0.09832841  69.71 0.0003360946    1.657    0.396
       415 -11.9156     19.2901     46.7671   6.5911797746e+01   6.4821254697e+01    0.4805165    0.1187159 -46.85  0.001948684    2.978    0.664
       416 -13.6429     36.4326     40.2197   5.6010296820e+01   6.4268725248e+01    0.4251036    0.2593394  21.84  0.001464751    1.631    0.387
       417 -11.0232    118.9450     41.3487   2.8617796868e+01   4.9415541299e+01    0.2398905     0.134338  15.02 0.0007591684    3.196    0.687
       418 -11.4451    241.9008     40.0932   9.3099116330e+00   2.1293158892e+01    0.1830445    0.1505051 -65.52 0.0003727196    1.011    0.011
       419 -12.8268     25.2687     37.8645   6.0124458781e+01   6.5865997151e+01    0.4509786    0.2429373 -13.31  0.002236413    2.153    0.536
       420 -10.4041    181.7214     39.2973   1.6171507779e+01   3.4823107429e+01    0.1354525   0.09571041 -69.31 0.0001914629    1.536    0.349
       421 -12.2413     44.3933     32.9016   4.9745310702e+01   6.4433013902e+01    0.3008627      0.17103 -15.13  0.001544864    1.974    0.493
       422 -12.8526     31.8292     32.4870   5.5076796621e+01   6.6057197387e+01    0.3227415    0.2818683 -32.03  0.001825436    1.356    0.263
       423 -11.8008    106.6399     32.4650   2.8623528309e+01   5.3263997092e+01    0.2446173    0.1648435 -22.01  0.000915639    1.610    0.379
       424 -10.9726     67.6999     33.6023   4.0945489857e+01   6.0755172507e+01    0.1576938    0.1161793  43.51 0.0002488371    1.443    0.307
       425 -12.6858     78.3986     31.3626   3.6406339162e+01   5.9136199588e+01    0.2598969    0.2285799  67.65  0.001253167    1.553    0.356
       426 -11.1975    209.4771     30.5283   1.0517719102e+01   2.9465356978e+01    0.1267619    0.1114272 -82.91 -5.281512e-05    1.032    0.031
       427 -11.4821     19.1436     29.7814   5.9956780360e+01   6.7798201684e+01    0.1902465    0.1363637 -30.79 0.0004823121    1.166    0.142
       428 -11.4298      2.8977     29.8595   6.8037908424e+01   6.9050223344e+01    0.1819611    0.1157835 -24.59 0.0006164897    1.266    0.210
       429 -11.3396     81.6490     28.2870   3.4163427699e+01   5.8905909996e+01    0.1182657    0.1047581  88.53 0.0005133017    1.663    0.399
       430 -12.6891     68.3369     26.5197   3.7866219165e+01   6.1578113088e+01    0.3378378    0.2573214 -39.93  0.002035229    1.611    0.379
       431 -12.2296     80.8336     18.9367   3.0702256916e+01   6.0136178397e+01    0.2423878    0.2101201  85.31  0.001504837    1.686    0.407
       432 -11.9833     86.7689     25.9858   3.1705608302e+01   5.8177848708e+01    0.2084872    0.1578141  22.67 0.0005182729    1.225    0.184
       433 -12.0771     84.0246     23.7793   3.1664895834e+01   5.8975748751e+01    0.2289268    0.1773135 -40.26 0.0009298851    1.577    0.366
       434 -11.7595     58.9746     25.9633   4.1039657746e+01   6.3234370991e+01    0.1904469    0.1550649   6.98 0.0003413758    1.020    0.019
       435 -12.3409    139.0115    247.7771   7.0931615397e+01   4.3509623364e+00    0.3945426     0.260194  50.00  0.002250493    1.481    0.325
       436 -11.4438    166.3538     22.5323   1.3897236803e+01   4.0450290521e+01    0.2234945    0.1925279 -62.84 0.0009264711    1.197    0.165
       437 -11.2877    143.4005     18.7998   1.6381458470e+01   4.6313564734e+01    0.2142954    0.1590888  72.80 0.0004397556    1.267    0.211
       438 -10.9926      4.5119     24.8909   6.5412973314e+01   6.9785646169e+01     0.169145   0.08782446 -43.53  0.001019196    1.564    0.361
       439 -10.9176    131.3112     18.1030   1.8307504807e+01   4.9231588629e+01    0.1700438    0.1621945  16.80 0.0008303331    1.147    0.128
       440 -12.1528     75.5245     14.8965   3.0682996346e+01   6.1582902416e+01     0.188327    0.1700589  52.12 0.0005691634    1.331    0.249
       441 -11.4853     36.4445    241.2600   9.0638778819e+01   1.9765104290e+01    0.3676943    0.1834423  28.31  0.001626809    2.435    0.589
       442 -13.7317     38.1490    247.1486   9.0731147365e+01   1.8438527324e+01    0.4400788    0.3696345  -0.79  0.003061502    1.970    0.492
       443 -12.7359     33.7907    245.3720   9.1411453124e+01   1.9271423232e+01     0.227067    0.1684392  34.41  0.001115842    1.525    0.344
       444 -11.4645    162.4239    247.0028   6.6100650764e+01   8.6345570482e-01     0.237464    0.1556624  19.27  0.001053631    1.572    0.364
       445 -10.5884     80.2940    246.2790   8.2594328405e+01   1.3283392511e+01    0.1047495   0.09415765   1.22 0.0001844019    1.531    0.347
