#   1 NUMBER                 Running object number                                     
#   2 MAG_AUTO               Kron-like elliptical aperture magnitude                    [mag]
#   3 X_IMAGE                Object position along x                                    [pixel]
#   4 Y_IMAGE                Object position along y                                    [pixel]
#   5 X_WORLD                Barycenter position along world x axis                     [deg]
#   6 Y_WORLD                Barycenter position along world y axis                     [deg]
#   7 A_WORLD                Profile RMS along major axis (world units)                 [deg]
#   8 B_WORLD                Profile RMS along minor axis (world units)                 [deg]
#   9 THETA_WORLD            Position angle (CCW/world-x)                               [deg]
#  10 FWHM_WORLD             FWHM assuming a gaussian core                              [deg]
#  11 ELONGATION             A_IMAGE/B_IMAGE                                           
#  12 ELLIPTICITY            1 - B_IMAGE/A_IMAGE                                       
         1 -13.4360    234.4533     26.0552   3.5625872183e+02   2.3935020724e+01    0.8287601    0.6844522 -47.50  0.004050429    1.100    0.091
         2 -10.4171    250.0235     10.9844   3.5219056569e+02   2.2554896424e+01    0.1435286    0.1026072 -47.94 0.0006530902    1.063    0.060
         3 -10.1359    227.3467      9.6120   3.5299661625e+02   2.7110077894e+01    0.2085625    0.1795803 -60.51 0.0006575107    1.132    0.117
         4 -10.8050     34.5225     15.4431   3.6986262867e+01   7.3405215031e+01    0.3107683    0.1595546  45.07  0.001421205    2.063    0.515
         5 -10.1735    101.2940    250.1931   6.4787992184e+01   1.0767199181e+01    0.2679409    0.2126077 -31.76 0.0008727973    1.650    0.394
         6 -10.2905    100.4922    245.9812   6.4576911788e+01   1.1539699928e+01     0.308769    0.2136391  72.74  0.001890532    2.040    0.510
         7  -8.8869     96.7740    250.3109   6.5768513819e+01   1.1305302962e+01    0.1518072    0.1267692  39.12   0.00106476    1.157    0.136
         8  -9.0638     75.0000    250.0272   7.0447839324e+01   1.3971423214e+01    0.1789652     0.135903 -55.04 0.0008057213    1.758    0.431
         9 -11.7136     76.0706    244.6773   6.9818727961e+01   1.4748993771e+01    0.2269451    0.2058938  35.08 0.0004450263    1.212    0.175
        10 -18.7001     16.0882    214.5901   8.1860958948e+01   2.6942231873e+01     6.869055     3.690995 -86.17   0.03895218    1.946    0.486
        11  -9.3544     81.0661    214.7896   6.6084664235e+01   1.9613611623e+01    0.1987606    0.1424135  47.53 0.0005681398    1.222    0.182
        12 -10.9985    106.0524    213.7301   5.9932911797e+01   1.6417387146e+01    0.3573651    0.2358999 -59.00  0.001348443    1.865    0.464
        13  -8.9178    165.0072    210.9600   4.6316287125e+01   8.4345667244e+00    0.1482637    0.1253055 -12.58  0.000968831    1.205    0.170
        14 -10.0122    210.7403    198.8475   3.5571861062e+01   3.9117910902e+00     0.222329    0.1627393  12.56 0.0005428977    1.147    0.128
        15 -10.5629    192.8430    194.7999   3.8163757825e+01   6.9295931213e+00    0.6575608    0.3849504 -63.34  0.001963985    8.735    0.886
        16 -11.5515     68.8802    193.7802   6.7084155976e+01   2.5577960487e+01    0.3932145    0.2425712  71.24  0.001195176    1.909    0.476
        17  -9.1831     74.4823    193.7892   6.5598858085e+01   2.4832774090e+01    0.2311368    0.1275855 -58.75 0.0009791594    2.049    0.512
        18 -12.2247     71.7501    185.3530   6.5403403140e+01   2.7070367015e+01    0.3457939    0.2560685  59.99 0.0005206452    1.329    0.247
        19 -11.1022    129.0488    184.9828   5.0355347457e+01   1.8468603783e+01    0.3545995    0.1933343  26.61  0.001595548    1.780    0.438
        20 -11.7591     97.9091    227.4405   6.3355157062e+01   1.5022900047e+01    0.8138348    0.3434395  39.80  0.003884814    1.865    0.464
        21  -9.0624     78.3267    184.0820   6.3453077666e+01   2.6448607503e+01    0.1834206    0.1620159  54.71 0.0004322839    1.079    0.073
        22 -10.3383    102.8321    238.5088   6.3351727970e+01   1.2470557827e+01    0.3236228    0.1592745 -52.11  0.001176858    2.555    0.609
        23 -10.4465     63.5880    181.6919   6.7261634629e+01   2.8990227245e+01    0.3577807    0.2021197  53.14  0.001681286    1.699    0.411
        24  -9.6935    174.6207    179.7299   3.9142038087e+01   1.2041523737e+01    0.2433055    0.1799225 -31.34 0.0007097776    1.367    0.268
        25 -11.1934    180.0186    166.9868   3.5666220396e+01   1.3310065208e+01    0.6690785     0.490666 -29.19  0.003768012    1.334    0.251
        26 -11.0036    171.8620    175.2841   3.8907669675e+01   1.3238194458e+01    0.3509178    0.3254181 -27.64  0.001014681    1.230    0.187
        27 -10.7651    173.9633    171.7065   3.7804446396e+01   1.3507124784e+01     0.352242    0.2988288  79.13  0.001802728    1.877    0.467
        28 -10.5308    110.2832    223.0037   6.0021040979e+01   1.4146924876e+01     0.212659    0.1882142  57.87 0.0005114043    1.299    0.230
        29 -10.8952    113.5682    231.7544   6.0256847768e+01   1.2196434925e+01    0.2747317    0.2420331 -15.07  0.001185238    1.335    0.251
        30 -10.5194    104.9093    172.2371   5.4527994237e+01   2.5052646036e+01    0.2583934    0.2159137 -46.95 0.0003918145    1.334    0.251
        31 -12.1181    110.3242    227.8510   6.0556749045e+01   1.3294970854e+01    0.6973619    0.3321661  25.32  0.003371122    1.872    0.466
        32 -10.5213    110.9005    166.8528   5.2023888749e+01   2.5245372452e+01    0.3374092    0.2551109  79.54  0.001417653    1.768    0.434
        33 -14.7566     67.6570    145.7661   6.1412629411e+01   3.7194421556e+01     3.194806     2.040833  71.99   0.01396693    1.901    0.474
        34  -9.1981    117.6127    159.0247   4.8828861497e+01   2.5807317355e+01    0.1977657    0.1885089 -57.12 0.0006736181    1.155    0.134
        35  -9.9101     91.0467    154.0078   5.5472665575e+01   3.1520542223e+01    0.2219214    0.2009227  49.26  0.001196622    1.037    0.036
        36 -11.6549    133.0322    144.9353   4.1973430733e+01   2.6021121112e+01     1.018111    0.3727106 -54.41  0.003249239    3.504    0.715
        37 -11.0443    108.9043    145.2929   4.8632690391e+01   3.0476453397e+01    0.3204992    0.3116598  28.78 0.0006476623    1.045    0.043
        38 -11.8521     88.8205    144.4791   5.4476496536e+01   3.4200757381e+01    0.6589267    0.4763474 -21.43  0.002188161    1.886    0.470
        39  -8.4718    116.6276    144.2744   4.6241506260e+01   2.9281174615e+01     0.158821    0.1146615  63.12 0.0004551417    1.685    0.406
        40  -9.4330    147.3342    143.3025   3.8061357100e+01   2.3603327960e+01    0.1524407    0.1138797   2.37 0.0005058106    1.659    0.397
        41  -9.8677     99.1967    140.1413   5.0475685460e+01   3.3451719233e+01    0.2131792    0.1743663  63.70 0.0003546916    1.314    0.239
        42  -9.5195    108.4075    138.2675   4.7352982562e+01   3.2206189106e+01    0.3237809    0.1875446 -51.90  0.001017928    1.820    0.451
        43  -9.4983    127.1550    137.1412   4.1850110986e+01   2.8852028212e+01    0.2201646    0.2027557  -0.23 0.0002905327    1.138    0.122
        44  -9.6776     25.0000    137.1302   7.4741432214e+01   4.4469209427e+01    0.3537276      0.15147  35.14  0.001488099    2.081    0.520
        45 -11.6009    104.7058    131.4358   4.7004003886e+01   3.4518523251e+01    0.6170149    0.4556926  -8.67  0.001618137    1.909    0.476
        46 -11.3531     90.3907    131.5032   5.1480446860e+01   3.7133143813e+01    0.3267005    0.2808444 -41.02 0.0002750654    1.266    0.210
        47 -11.0880     43.5671    130.5478   6.7425245430e+01   4.4324755625e+01    0.4231582    0.3293539 -75.86  0.001350265    1.266    0.210
        48  -9.7736    194.4840    224.5160   4.2570494213e+01   2.5684536142e+00    0.2158343    0.1064588 -36.49  0.001210427    2.165    0.538
        49 -10.2543    135.8688    128.6959   3.7648336395e+01   2.8930727332e+01    0.4224875    0.1034065 -49.79  0.001076985    4.846    0.794
        50  -9.7659     26.6525    128.4625   7.3300722375e+01   4.6617656687e+01    0.3205017    0.2023221   5.21  0.001501262    1.933    0.483
        51 -10.9717    111.9319    125.9208   4.3612759730e+01   3.4413338044e+01    0.3482944    0.2846679  10.16  0.000848615    1.440    0.306
        52 -10.4107     45.0416    123.9791   6.5945670093e+01   4.5905938699e+01    0.3456272    0.1995886 -59.62  0.001100122    1.695    0.410
        53 -10.3393     98.9181    121.0770   4.6481080647e+01   3.8117303918e+01    0.3169381    0.2618598  10.25 0.0008466868    1.419    0.295
        54  -9.8300    135.0000    120.4293   3.5901168269e+01   3.0878314406e+01    0.3326883   0.08864743 -45.56 0.0009246706    3.854    0.741
        55  -9.5767     79.7652    126.6035   5.3990891847e+01   4.0201950065e+01     0.348511    0.2124205  73.28  0.001194144    2.473    0.596
        56  -9.8516    125.4316    237.1198   5.8248414726e+01   9.7512299309e+00    0.1485129    0.1232824 -46.97 0.0006437963    1.548    0.354
        57  -9.2033    107.6815    235.3793   6.1957642722e+01   1.2365338337e+01    0.2482187    0.1062637 -52.10  0.001182766    2.884    0.653
        58 -11.4575     88.8386    222.2593   6.4952460627e+01   1.7163767183e+01    0.6479747    0.3615369  53.06  0.002067808    1.845    0.458
        59  -9.7421    107.9438    115.9802   4.2445576120e+01   3.7544415544e+01    0.2338906    0.2265961  38.24 0.0002963702    1.025    0.024
        60 -13.0752    129.4795    229.6356   5.6490039316e+01   1.0407381652e+01     1.062012    0.3826735  30.14  0.004655799    2.247    0.555
        61 -10.5193     40.7336    113.2603   6.5941150267e+01   4.9285524312e+01    0.4483936    0.1923997  32.19  0.001143089    2.183    0.542
        62  -9.6593     94.2465    109.9373   4.5327512604e+01   4.1736603871e+01    0.2819442    0.2102676  62.60 0.0006689304    1.514    0.340
        63 -11.1240    114.8863    108.6616   3.8494859612e+01   3.7783107750e+01    0.2996666    0.2848277  -8.94 0.0009362337    1.129    0.114
        64 -11.0628    111.8759    104.2374   3.8220402710e+01   3.9438115280e+01    0.3936687    0.2858469 -84.02  0.001639552    1.954    0.488
        65  -9.0120     70.9682    232.6262   7.0041363637e+01   1.7497544198e+01    0.2291807    0.1037647  22.39  0.001060727    2.212    0.548
        66 -10.6472     83.6820    222.9976   6.6244212254e+01   1.7696938202e+01    0.4836676    0.2675219  55.02  0.002491615    1.901    0.474
        67 -10.2783     39.2534    104.3624   6.5058829604e+01   5.1850227987e+01    0.2337995    0.2149093  17.70 0.0008369646    1.153    0.132
        68 -11.8280     33.3476    100.6119   6.6926326850e+01   5.3487342220e+01    0.5711064    0.4122562  53.77  0.001650355    1.437    0.304
        69 -12.4798     24.5821     96.2856   7.0079666086e+01   5.5461613578e+01    0.6164538    0.4072563 -46.95  0.003027569    1.528    0.345
        70  -9.3326    113.6344     94.6978   3.5030762005e+01   4.1189810723e+01    0.1647413     0.127843   8.51 0.0007035088    1.735    0.424
        71 -10.7097     58.2853     93.5575   5.4758819277e+01   5.2221790183e+01    0.3165815    0.1943507  51.36  0.001320538    1.793    0.442
        72  -9.7303    103.0372     92.0724   3.7568734181e+01   4.4132900481e+01    0.4509016    0.2894968  82.98  0.001551484    2.949    0.661
        73 -10.5432    175.0855    222.7006   4.6016420999e+01   5.3102266961e+00    0.2240742     0.159488 -18.63 0.0008959881    1.422    0.297
        74 -10.9496    159.7381    223.1478   4.9184297571e+01   7.3031374610e+00    0.2499138    0.1392159   9.50  0.001244631    2.122    0.529
        75  -9.7843     97.7385     84.6390   3.7083214703e+01   4.6975372782e+01    0.3293781    0.2557483  80.98  0.001198451    1.634    0.388
        76 -11.4040     16.5887     95.3773   7.3521914599e+01   5.6312256818e+01    0.2911331    0.2634004  71.86  0.001714694    1.093    0.085
        77 -11.2741     51.5695     82.0318   5.4763713681e+01   5.6186308018e+01     0.779598    0.2790669  47.89   0.00234261    3.743    0.733
        78  -8.9089     77.4655     83.5842   4.4165305720e+01   5.1414115283e+01    0.1562824    0.1492682  55.84  0.000256208    1.041    0.039
        79 -10.6086     55.6141     76.1240   5.1241761092e+01   5.7068290819e+01     0.571758    0.2537391  49.23  0.001974931    2.816    0.645
        80  -8.7108     87.2041     75.3600   3.7830333426e+01   5.1341145728e+01    0.2218219    0.1420595  52.94 0.0004970731    1.629    0.386
        81 -10.7949     31.6185     72.2480   6.2034645724e+01   6.1179490805e+01    0.2966783    0.2035623   0.68  0.001425918    1.680    0.405
        82  -8.8040    133.5014     69.4872   2.1896950793e+01   4.1516314981e+01    0.1574198    0.1470451 -88.91 0.0008098127    1.061    0.057
        83 -11.9833    186.5580     64.2365   1.0437792348e+01   2.9373474421e+01    0.4319442    0.3979219 -53.12 0.0007702101    1.032    0.031
        84  -9.9847     72.1466     63.1000   3.9514430220e+01   5.7179853689e+01    0.2281713    0.2194746  50.35 0.0005681183    1.051    0.048
        85 -13.5800    203.4483     52.2546   5.1731646440e+00   2.7244152336e+01     1.207001    0.9085953  42.00  0.004480982    1.666    0.400
        86 -12.4976    209.4099     47.7065   3.3986180606e+00   2.6538036349e+01    0.4974886    0.4311251 -85.71  0.001142734    1.166    0.142
        87  -9.5287     38.4954     53.9213   5.2871450861e+01   6.4919057625e+01    0.2157844    0.1374384 -55.81 0.0005317493    1.549    0.354
        88 -10.2297     34.0995     48.6951   5.3590681058e+01   6.6701889522e+01    0.2429677    0.2311776  73.44 0.0005005795    1.212    0.175
        89  -9.2046    194.1228    218.1532   4.1680398910e+01   3.4585501062e+00    0.1448751    0.1277813   8.08 0.0004650959    1.314    0.239
        90  -9.3000     48.7614     39.3039   4.1073156542e+01   6.6575061565e+01    0.2485909    0.1676101  39.35 0.0008603706    1.457    0.313
        91 -10.5353     69.1336    243.3923   7.1257056940e+01   1.5791502508e+01    0.2777883    0.1927724  24.78  0.001045879    1.299    0.230
        92 -10.0816     60.6338     21.3089   2.5615056459e+01   6.7414366777e+01    0.2534815    0.2108033  51.20 0.0006472755    1.179    0.152
        93  -9.2067     70.4219    238.9087   7.0643960646e+01   1.6428668398e+01    0.1448308    0.1190712 -74.77 0.0004987309    1.531    0.347
        94  -8.8252    114.2981    240.3453   6.1017383975e+01   1.0690578676e+01    0.1191744    0.0846341  -0.62 0.0003875021    1.675    0.403
