#   1 NUMBER                 Running object number                                     
#   2 MAG_AUTO               Kron-like elliptical aperture magnitude                    [mag]
#   3 X_IMAGE                Object position along x                                    [pixel]
#   4 Y_IMAGE                Object position along y                                    [pixel]
#   5 X_WORLD                Barycenter position along world x axis                     [deg]
#   6 Y_WORLD                Barycenter position along world y axis                     [deg]
#   7 A_WORLD                Profile RMS along major axis (world units)                 [deg]
#   8 B_WORLD                Profile RMS along minor axis (world units)                 [deg]
#   9 THETA_WORLD            Position angle (CCW/world-x)                               [deg]
#  10 FWHM_WORLD             FWHM assuming a gaussian core                              [deg]
#  11 ELONGATION             A_IMAGE/B_IMAGE                                           
#  12 ELLIPTICITY            1 - B_IMAGE/A_IMAGE                                       
         1 -15.8313    193.3697    160.8632   4.4724394153e+01   1.2717232640e+01     9.182709     7.373567 -69.11   0.05088595    1.839    0.456
         2 -16.3476    248.2726     98.4921   2.3826042516e+01   1.3891374301e+01     6.798218     2.556963 -55.15  0.007933193    4.622    0.784
         3 -15.0075    248.0266     75.0034   1.9215281445e+01   1.7197355251e+01     3.630806    0.6005427 -42.58  0.005961745    4.058    0.754
         4 -17.4152    244.8398    117.2042   2.7904727640e+01   1.1699903424e+01     3.760016     3.076697 -50.83   0.01636194    1.229    0.187
         5  -9.0470    189.8190     14.5394   1.1344749916e+01   3.5951035764e+01     0.252545    0.1196277 -47.14  0.001096289    1.854    0.461
         6 -11.1095    119.2799      9.9167   1.8264569906e+01   5.2937426302e+01    0.6306895    0.3801854  49.64  0.002448009    1.595    0.373
         7  -9.0495     98.6465      1.3739   1.8707844004e+01   5.8640771902e+01    0.2379892     0.111628  72.92 0.0006129027    1.999    0.500
         8 -10.2782    161.9545    228.7737   6.2993824130e+01   5.5024200407e+00    0.4286315    0.2668598  53.79  0.002082666    2.745    0.636
         9 -11.5218    247.5805    247.5367   5.0210560975e+01  -6.7300236710e+00    0.6620911    0.3818702 -18.38  0.004698765    1.351    0.260
        10 -10.6389    237.4847    249.3312   5.2087174720e+01  -5.9950231485e+00    0.2652212    0.1868295  -7.61  0.001177384    1.048    0.045
        11 -12.2764    225.0083    248.0046   5.3963585295e+01  -4.6081648729e+00    0.7945631    0.3122432  28.81  0.004404692    2.328    0.570
        12 -12.1961    221.7451    243.4749   5.3850327909e+01  -3.7025218031e+00    0.6709895    0.1708855  29.62  0.002910831    3.641    0.725
        13 -11.9398    227.2957    238.6959   5.2188290259e+01  -3.6672719250e+00    0.8034698    0.2777254 -28.93  0.003828658    2.917    0.657
        14 -10.3048    200.1542    249.8864   5.8615580006e+01  -2.2304498037e+00    0.2348839    0.1641083  20.85  0.001624174    1.275    0.216
        15 -10.2660    189.2359    248.4289   6.0435591871e+01  -8.1120207061e-01    0.2554328    0.1683751  40.99  0.001106241    1.990    0.497
        16  -8.2967    138.2442    199.4575   6.3663607663e+01   1.4123086416e+01    0.1990368     0.169496 -87.85  0.000417785    1.657    0.397
        17  -9.0691    188.9337    183.3951   4.9906061447e+01   9.4495104876e+00    0.2305534     0.205623   9.78  0.000779718    1.136    0.120
        18  -8.6370     61.6491    182.4564   8.0948354873e+01   2.8863315057e+01    0.2080074    0.1532697 -41.71 0.0003107647    1.536    0.349
        19  -9.6858    162.5801    177.2913   5.4224095885e+01   1.4654021717e+01    0.5136262    0.3262126 -71.15  0.002039213    3.336    0.700
        20  -8.6851    159.5069    172.5572   5.4000307011e+01   1.6075065689e+01    0.2085162    0.1710934  15.53 0.0005190902    1.186    0.157
        21  -8.3650    135.4940    195.4781   6.3655711305e+01   1.5328951315e+01    0.2993115    0.1957731 -80.55  0.001152279    3.053    0.672
        22  -9.2946    110.5998    167.6259   6.5096323388e+01   2.5284485504e+01    0.2471185    0.2257923  59.38  0.000595313    1.187    0.157
        23  -8.5176    142.1755    164.5721   5.6453747965e+01   2.0625043019e+01     0.230755    0.1900659 -55.62 0.0003397914    1.348    0.258
        24  -9.5280     72.2998    159.2245   7.4578254775e+01   3.3190186182e+01    0.3213952    0.1896461  21.85  0.001390851    1.844    0.458
        25  -9.5650    118.0159    198.1974   6.8307874987e+01   1.7405965528e+01    0.2047952    0.1924153 -30.26 0.0002996334    1.131    0.116
        26 -10.8468    116.0381    152.3847   6.0693938206e+01   2.7873880037e+01     0.510438    0.3592091 -24.48  0.002319442    1.719    0.418
        27  -9.9625    109.7602    148.9833   6.1730946689e+01   2.9760302444e+01    0.2379082    0.2259674  25.72 0.0004689232    1.032    0.031
        28 -11.8695     67.9615    144.5816   7.3462928602e+01   3.7508371366e+01    0.8562046    0.6608613 -85.37  0.004234676    1.459    0.314
        29 -10.7365    125.0189    146.0060   5.6957647334e+01   2.7720733112e+01    0.5701076      0.27129 -42.44  0.002192457    2.170    0.539
        30  -8.8092    102.8402    248.7380   7.8338069067e+01   9.7017912490e+00    0.1779945    0.1565013 -17.67 0.0003763947    1.291    0.225
        31  -8.3183     19.0546    137.5072   8.8636197945e+01   4.4765089229e+01     0.182328    0.1376848  15.10 0.0003530627    1.467    0.318
        32  -8.8659     91.8525    128.7692   6.2703816224e+01   3.7724340125e+01    0.3856835    0.1941462 -57.78  0.001331651    2.106    0.525
        33 -10.2084    115.6174    125.6948   5.4930200987e+01   3.4092432871e+01    0.4109082    0.3938273 -63.79  0.001299488    1.094    0.086
        34  -8.4290    248.5630    195.4875   4.1798689880e+01  -2.0299670890e-01    0.1783096   0.09436695  17.82 0.0006829495    2.176    0.540
        35  -8.5366    125.6742    125.6843   5.2176706143e+01   3.2139591795e+01    0.2422929    0.1550318 -44.06 0.0004519368    1.554    0.357
        36  -9.9887    121.3203    124.5252   5.3071356798e+01   3.3250556093e+01    0.3743078    0.3251076 -87.67 0.0007908378    1.382    0.276
        37 -10.5601     41.4277    124.9254   7.9063299019e+01   4.5962810628e+01    0.2586663    0.2425013 -16.65 0.0004069752    1.123    0.109
        38 -12.9267     21.4913    112.7669   8.4543852681e+01   5.1050930236e+01     1.222062    0.9369255  28.20  0.006051797    1.391    0.281
        39 -13.2340     60.5228    113.0127   6.9785163555e+01   4.6633107381e+01     1.990868     1.160039  30.22  0.008707471    1.742    0.426
        40 -11.7010     48.1386    112.5247   7.4284768877e+01   4.8401821396e+01    0.5166081    0.4582563  34.80 0.0009318191    1.169    0.145
        41 -11.0014    122.9115    104.6761   4.7600101337e+01   3.7256436508e+01    0.6468683    0.4513573 -76.54  0.002705785    2.171    0.539
        42  -8.5305    132.6067     97.6736   4.3198510180e+01   3.6629735105e+01     0.286247    0.1438271 -38.27   0.00107625    2.064    0.515
        43  -9.2051    165.1339     94.2269   3.5111658304e+01   3.0223776128e+01    0.4330384    0.1666765 -43.08  0.001178126    2.468    0.595
        44  -9.4305    157.0265     93.1855   3.6460890292e+01   3.2163374156e+01    0.4098179    0.2457922 -34.42  0.001291405    1.716    0.417
        45  -8.4096    157.2228     87.9395   3.5040377483e+01   3.3064282430e+01    0.2173711    0.1831683 -59.77  0.000545636    1.212    0.175
        46  -9.0142    114.9627     93.8891   4.6816805963e+01   4.1193235459e+01     0.229121     0.199339   6.38 -0.0009232552    1.298    0.230
        47 -10.7837      5.3138     84.2959   8.6842618720e+01   5.9419015089e+01    0.4029409    0.2634839 -84.19  0.002113211    1.601    0.375
        48 -11.4569    213.9814    242.1425   5.5001163313e+01  -2.7077211773e+00    0.3964452     0.229604  -9.05  0.002296363    1.636    0.389
        49  -8.1373    122.2578    205.0835   6.8326280056e+01   1.5368195637e+01    0.1762809    0.1660263 -24.32 0.0009943312    1.134    0.118
        50 -10.0160    191.5497     62.8389   2.2919083056e+01   2.9601993102e+01    0.2661251    0.2191305 -12.03 0.0007739654    1.530    0.346
        51  -9.4998    180.5768     66.0631   2.5265378409e+01   3.1492775949e+01    0.2549911     0.183027  89.73  0.001135385    1.589    0.371
        52 -10.4594    172.7151     64.9704   2.6188599350e+01   3.3393378476e+01    0.3266309    0.1944474 -54.37 0.0009799212    1.743    0.426
        53 -10.0832    162.0993     63.3619   2.7501566805e+01   3.6036921428e+01    0.3116491    0.2175755  73.55  0.001588167    1.525    0.344
        54 -11.6394    178.0405     58.1863   2.3625108517e+01   3.3206548807e+01    0.5221068    0.4268051  41.22  0.001563632    1.454    0.312
        55  -8.5306    143.3867     59.7191   2.9902875539e+01   4.0941970291e+01    0.2354208    0.1798021 -22.76 0.0007506082    1.514    0.339
        56  -8.4233    137.9028     59.7263   3.1014903883e+01   4.2230927009e+01    0.1951927    0.1747839  72.18 0.0003064024    1.086    0.079
        57  -9.1066    169.3188     51.5025   2.3141718241e+01   3.6115358035e+01    0.2529454    0.1330589 -28.43  0.001137659    2.129    0.530
        58  -9.0943    160.5999     49.2501   2.3853382454e+01   3.8437992235e+01    0.1829244    0.1322724 -21.13 0.0009489998    1.659    0.397
        59 -10.6480    193.5116    196.0210   5.1295644927e+01   6.6537023400e+00     0.538886     0.429822 -68.88   0.00304743    2.189    0.543
        60  -9.8752    140.9299     42.2785   2.5113494586e+01   4.4041456578e+01    0.3253823    0.2357466   3.77   0.00150325    2.015    0.504
        61  -9.1973    176.4444     41.5025   1.9519655167e+01   3.5829445669e+01    0.2118405    0.1953907   1.37 -1.822614e-05    1.368    0.269
        62 -10.4393    179.9165     37.5602   1.8073560296e+01   3.5543840396e+01    0.4849968    0.3027355   3.92  0.002105899    3.314    0.698
        63  -9.7320    130.6545     38.9661   2.5984937674e+01   4.6951484198e+01    0.2835611    0.2162749   9.47  0.001126489    1.769    0.435
        64  -9.1136    156.3936    222.7449   6.3266061500e+01   7.2524806203e+00    0.2288941    0.1811409  44.46 0.0007722387    1.515    0.340
        65  -8.6004     27.8368    242.9241   9.4402577827e+01   1.9245198496e+01    0.1538825    0.1467508  40.73 0.0004019256    1.231    0.187
        66 -11.2747    247.7038     25.8916   9.6323905027e+00   2.3318569639e+01    0.4248306     0.336795  71.54  0.003233595    1.502    0.334
        67  -8.5426     29.7219    218.9800   9.2560741931e+01   2.3986101864e+01     0.170717    0.1460109  65.34 0.0004643884    1.065    0.061
        68  -9.2912    244.9630     14.9595   7.6984457621e+00   2.4981613748e+01    0.1904229   0.09146892 -59.17  0.001145286    1.719    0.418
        69  -9.9664    192.3262    239.9319   5.8621948780e+01   2.6408752936e-02     0.247435    0.1440507  37.06 0.0008938974    1.905    0.475
        70  -9.0984    138.3953     14.1479   1.6790074995e+01   4.7899763470e+01    0.2158455    0.1570444  62.39 0.0005800017    1.262    0.207
        71 -10.3258    171.7791    237.0991   6.2205554932e+01   2.9252976347e+00    0.3691793    0.2391421  49.76  0.001643431    2.396    0.583
        72  -8.2623     94.8048     12.5809   2.4011179591e+01   5.8586442372e+01    0.1733941     0.117489  74.61 0.0002526499    1.488    0.328
        73  -7.9393     36.2904    216.7139   9.0837379467e+01   2.3819708048e+01    0.1310943    0.0784581  55.56 0.0001858104    1.537    0.349
        74  -8.0646     65.7355    209.3584   8.2915842851e+01   2.2135482111e+01    0.1375636   0.09081491  62.06 0.0003402024    1.633    0.388
        75 -10.3595    191.4917    191.9895   5.0969915830e+01   7.6100200950e+00    0.4330696    0.2883421 -60.96  0.002132191    2.576    0.612
        76  -8.1065     11.2869    214.3111   9.6627450944e+01   2.6690357740e+01    0.1105756   0.08910874 -43.68 0.0002807759    1.578    0.366
