#   1 NUMBER                 Running object number                                     
#   2 MAG_AUTO               Kron-like elliptical aperture magnitude                    [mag]
#   3 X_IMAGE                Object position along x                                    [pixel]
#   4 Y_IMAGE                Object position along y                                    [pixel]
#   5 X_WORLD                Barycenter position along world x axis                     [deg]
#   6 Y_WORLD                Barycenter position along world y axis                     [deg]
#   7 A_WORLD                Profile RMS along major axis (world units)                 [deg]
#   8 B_WORLD                Profile RMS along minor axis (world units)                 [deg]
#   9 THETA_WORLD            Position angle (CCW/world-x)                               [deg]
#  10 FWHM_WORLD             FWHM assuming a gaussian core                              [deg]
#  11 ELONGATION             A_IMAGE/B_IMAGE                                           
#  12 ELLIPTICITY            1 - B_IMAGE/A_IMAGE                                       
         1 -12.6917      1.9428     81.6594   2.9225534997e+02   6.7235536793e+00    0.1045331  0.009431606 -62.52  0.004356018    9.962    0.900
         2 -14.2622      5.2475     18.3094   2.9184841311e+02   7.4186987960e+00    0.2149435   0.04304216 -57.05   0.01408393    3.938    0.746
         3 -13.7810    188.9891     22.4731   2.8974975275e+02   6.3815151590e+00    0.1097966   0.03194215 -52.23  0.007765386    3.048    0.672
         4 -14.3639    196.4319     16.9212   2.8963141988e+02   6.4035601091e+00    0.1105005   0.07538037 -16.98  0.009518973    1.740    0.425
         5 -13.8287    201.6607      9.7669   2.8952923604e+02   6.4555736754e+00   0.06695737   0.04085971 -17.70  0.001547138    2.151    0.535
         6  -9.0521    136.6934     94.2870   2.9077266800e+02   5.8567323529e+00  0.006530781  0.004882008  58.28 0.0002867392    1.569    0.363
         7 -10.6648    205.0307    249.5355   2.9088948630e+02   3.7403645332e+00    0.0109039  0.009579963  32.76 0.0006372869    1.150    0.130
         8  -9.2703    183.6442    250.2164   2.9113948922e+02   3.8480314461e+00  0.009640214  0.005509429 -51.27 0.0009019015    1.683    0.406
         9  -9.5152    150.9211    239.4614   2.9145365512e+02   4.1454708776e+00   0.01217651  0.005921039  29.62 0.0007007673    1.981    0.495
        10 -11.7375    143.4915    249.4714   2.9159730425e+02   4.0727641772e+00   0.03107538   0.01783229  80.86  0.002553862    3.115    0.679
        11 -11.5356    146.0970    240.7083   2.9151643742e+02   4.1574142881e+00   0.01800259   0.01258801  40.10 0.0006512702    1.470    0.320
        12 -11.6012    150.2405    247.9941   2.9151103358e+02   4.0530537707e+00   0.02725224   0.01163543  30.42  0.002379891    2.224    0.550
        13 -10.3276    152.5763    244.0427   2.9146120240e+02   4.0849671760e+00   0.01337458  0.009386307 -80.87   0.00118681    1.706    0.414
        14 -11.0973    134.1950    249.5571   2.9170483139e+02   4.1218501223e+00   0.02005783    0.0121674  35.34  0.002054646    1.635    0.388
        15  -9.8879    123.2101    250.0223   2.9183401262e+02   4.1757323617e+00   0.01258623  0.009405325  75.91  0.001360103    1.693    0.409
        16 -10.0572    126.2571    248.8572   2.9179216878e+02   4.1724572239e+00   0.01685043  0.008719063  48.46  0.001395569    2.311    0.567
        17 -10.8019    121.5588    244.7500   2.9182244525e+02   4.2439995714e+00   0.01825784   0.01161431  50.98  0.001766255    1.826    0.452
        18 -12.4859    126.2376    240.8661   2.9174603051e+02   4.2625642666e+00   0.02276997   0.01918701 -52.98  0.001878176    1.169    0.145
        19 -10.4084    116.1327    249.9898   2.9191532065e+02   4.2141761654e+00   0.02126806   0.01141339  27.30  0.001293534    1.822    0.451
        20 -11.2337    110.0095    248.0005   2.9197429993e+02   4.2695204074e+00   0.02916343   0.01882722  11.76  0.003010881    1.689    0.408
        21  -9.6057    100.6886    250.3021   2.9209498843e+02   4.2937176738e+00   0.01209373  0.009019482  55.33 0.0006887583    1.539    0.350
        22 -11.4708     97.8422    246.6031   2.9210633231e+02   4.3506879884e+00   0.03924177  0.009961309  27.66    0.0027068    3.579    0.721
        23 -10.7983     81.5573    247.1338   2.9229698265e+02   4.4322295982e+00   0.02223907    0.0127601 -72.04  0.002104157    2.011    0.503
        24  -9.5462     74.6518    250.6174   2.9239670216e+02   4.4300775376e+00   0.01528526  0.006477095  19.14  0.001240024    2.637    0.621
        25 -12.9366     61.5758    245.9563   2.9252034541e+02   4.5528012025e+00   0.05959148   0.03334045  18.54  0.003707335    1.885    0.469
        26 -13.7390     46.0969    246.1628   2.9269986956e+02   4.6335352408e+00   0.04592968    0.0342478  26.92  0.005227883    1.327    0.247
        27 -13.6586     48.3368    228.5692   2.9257222884e+02   4.8197639091e+00   0.08766908    0.0420018   1.59  0.006421998    3.645    0.726
        28 -15.3120     57.3641    216.8869   2.9240051414e+02   4.9029496384e+00     0.220258    0.1490835  43.13    0.0236798    1.557    0.358
        29 -11.9762    136.1923    228.5577   2.9155994022e+02   4.3475945782e+00   0.02320989   0.01312487 -61.94  0.002288325    1.771    0.435
        30 -11.2671    132.5847    224.7273   2.9157924824e+02   4.4101615828e+00   0.01288597   0.01115174 -19.28  0.000842445    1.176    0.149
        31 -12.2515    134.9436    236.1979   2.9161868015e+02   4.2682724761e+00   0.02103394   0.01684516 -58.00  0.001389499    1.242    0.195
        32 -10.7896     90.0009    236.0294   2.9213536605e+02   4.5119552044e+00   0.01687224  0.008835228  47.15  0.001531696    2.211    0.548
        33  -9.7253     83.6304    238.2814   2.9222180970e+02   4.5208217057e+00    0.0157962  0.008305779  26.37  0.001502855    1.867    0.464
        34  -9.8234     86.4516    237.4340   2.9218439800e+02   4.5152072134e+00   0.01141913  0.009742642 -27.82 6.790757e-05    1.183    0.154
        35 -10.6408    173.4163    240.1530   2.9119872004e+02   4.0164617483e+00    0.0158267   0.01101049  86.15 0.0009481686    1.907    0.476
        36 -10.4995    116.0188    240.3881   2.9186094455e+02   4.3229377522e+00   0.01126061  0.008418922 -44.76 0.0008163744    1.317    0.240
        37 -11.8020     96.4653    239.1419   2.9207894007e+02   4.4421406666e+00   0.02322933   0.01823138 -80.95  0.001806149    1.450    0.310
        38  -9.5107     92.4891    231.7308   2.9208177809e+02   4.5470056373e+00   0.01373597  0.006285321 -61.69  0.001210905    2.167    0.539
        39 -10.5096     73.0172    237.4676   2.9233937024e+02   4.5870076181e+00   0.02338287   0.01358192  74.47   0.00196298    2.965    0.663
        40 -12.7799     42.4784    237.2121   2.9268977014e+02   4.7538013231e+00   0.02704506   0.01805278  18.45 0.0009858689    1.535    0.348
        41 -10.9129    121.3240    232.7908   2.9175576029e+02   4.3799626090e+00    0.0205262   0.01267278 -51.87  0.002126262    1.563    0.360
        42 -11.0849     84.6428    241.6457   2.9222964265e+02   4.4774794682e+00   0.02877064   0.01511976 -12.64  0.002252443    3.219    0.689
        43 -11.1798     98.6888    231.3096   2.9200790968e+02   4.5184176818e+00   0.02166198   0.01720055 -73.22  0.001550749    1.361    0.265
        44 -12.2116    110.3605    230.0518   2.9186615288e+02   4.4698091558e+00   0.03972235   0.02357133  19.17  0.002417902    1.747    0.428
        45 -11.3506     88.0730    249.3010   2.9223448657e+02   4.3728054593e+00   0.02408766   0.01958386  10.39   0.00199877    1.254    0.203
        46 -11.4842    142.1632    229.7237   2.9149794768e+02   4.3023054781e+00   0.02226429   0.01233206 -58.52  0.001712166    1.756    0.430
        47 -14.5448     11.1244    206.6511   2.9287433228e+02   5.2662523205e+00   0.09999847   0.08161226 -47.31  0.009033104    1.198    0.165
        48 -15.6798      7.5924    247.3952   2.9315061995e+02   4.8259987188e+00    0.1482353   0.07033964 -53.97   0.01366633    1.987    0.497
        49 -10.7280     79.5151    229.1181   2.9221611720e+02   4.6461699894e+00  0.009723445  0.008563384  65.00 0.0006719646    1.269    0.212
        50 -10.1782    180.9643    229.4982   2.9104991543e+02   4.0957195163e+00  0.009144858  0.008416698   4.55 0.0004786878    1.075    0.070
        51 -10.8042    165.1835    227.2191   2.9121832927e+02   4.2064653569e+00    0.0165683   0.01138271 -87.26  0.001126164    1.870    0.465
        52 -10.5750    156.6685    231.5781   2.9134169411e+02   4.2032756712e+00   0.01195766   0.01105253 -29.62 0.0005846653    1.058    0.055
        53 -10.3684    190.9122    228.0692   2.9092711330e+02   4.0581496829e+00  0.009468589  0.009157894 -19.41 0.0003163326    1.006    0.006
        54  -8.8497    175.2570    228.0061   2.9110693610e+02   4.1432947636e+00   0.01247165  0.005643243  54.34 0.0009023267    3.586    0.721
        55 -10.7876     92.5012    226.2851   2.9205005987e+02   4.6082899644e+00   0.01720078   0.01227459  34.68  0.001812274    1.401    0.286
        56 -10.1400     93.8074    217.2010   2.9198231532e+02   4.7036052000e+00   0.01899477   0.01146538 -88.97  0.001724966    2.452    0.592
        57 -11.2964     98.6195    223.1630   2.9196145365e+02   4.6105630199e+00    0.0208881   0.01548126  29.30  0.000290043    1.335    0.251
        58 -10.2688    110.5287    222.6676   2.9182136611e+02   4.5520816021e+00   0.01745011    0.0138836  26.86  0.001414821    1.247    0.198
        59  -9.9084    104.7519    222.9911   2.9188980028e+02   4.5795163678e+00   0.01037787  0.009180825 -16.41  0.000373275    1.140    0.123
        60 -11.5649    105.0277    218.9304   2.9186305794e+02   4.6237757076e+00   0.01202732    0.0114668 -88.55  0.001529701    1.129    0.114
        61 -10.6708    117.4498    224.4941   2.9175223316e+02   4.4942653454e+00    0.0123185   0.01163857 -36.88 0.0005572613    1.035    0.034
        62 -14.1895     12.8440    238.9971   2.9304158139e+02   4.8925180528e+00   0.06240143   0.02205501  22.48  0.003637598    2.995    0.666
        63  -9.1177    155.5426    223.5197   2.9130783550e+02   4.3000851634e+00  0.006355694  0.006284409  23.77 1.558757e-05    1.053    0.050
        64 -10.5661    149.9531    222.3869   2.9136561989e+02   4.3429629744e+00   0.01164186  0.009078288 -55.06 0.0002393209    1.261    0.207
        65  -9.4781    149.5643    218.5272   2.9134766961e+02   4.3885230397e+00  0.009720604  0.008265844  36.52  0.000108183    1.197    0.165
        66 -11.5722    141.7656    213.0624   2.9140573623e+02   4.4920849998e+00   0.04006068   0.02143544 -77.59  0.003510234    2.520    0.603
        67 -10.4013    137.5518    214.7880   2.9146430131e+02   4.4953518361e+00   0.01774694   0.01136275  85.09  0.001490862    2.274    0.560
        68 -11.6090    142.0020    221.9665   2.9145474785e+02   4.3905346632e+00   0.01228252    0.0109928  45.06 0.0003301559    1.174    0.148
        69 -11.7378    142.3199    218.7048   2.9143213721e+02   4.4255544935e+00   0.01624715   0.01159303  56.39  0.000297309    1.653    0.395
        70  -9.7350    164.3239    220.8857   2.9119141308e+02   4.2824127838e+00   0.01624916  0.006862047 -52.75  0.001055168    2.211    0.548
        71 -10.2566    246.0326    218.9727   2.9024008383e+02   3.8629279073e+00   0.01116345  0.007378619 -28.55  0.001140655    1.710    0.415
        72 -10.3040    177.1744    218.5396   2.9102982184e+02   4.2395339708e+00   0.01895142   0.01264098  76.36  0.001438956    2.117    0.528
        73 -10.1482     89.2844    218.7103   2.9204319279e+02   4.7109206856e+00   0.01177744  0.009712121 -48.06 0.0005442689    1.186    0.157
        74 -10.1522    183.3223    214.2271   2.9093396312e+02   4.2549228984e+00   0.01365794  0.009666422  51.76 0.0009245366    1.603    0.376
        75 -10.7052    101.8839    212.3055   2.9186083449e+02   4.7153169809e+00   0.02005494   0.01385377  34.44  0.002189588    1.442    0.307
        76 -10.5910     88.1968    213.2900   2.9202428408e+02   4.7778321254e+00   0.01390857   0.01247511 -18.79 0.0004037696    1.114    0.103
        77 -11.4709    131.6142    211.8946   2.9151589166e+02   4.5599201816e+00   0.01202934   0.01151062 -72.89 0.0003234356    1.100    0.091
        78 -10.1953    134.4992    208.4900   2.9146287375e+02   4.5827254938e+00   0.01432535   0.01034447 -17.59  0.001193795    1.570    0.363
        79  -9.3873    152.1544    211.9476   2.9127959806e+02   4.4486567478e+00  0.009762533  0.008625749  66.40 0.0005094893    1.267    0.211
        80  -9.4153     33.0884    211.4697   2.9264898173e+02   5.0942401542e+00   0.00930467  0.006330027  22.04 0.0003971835    1.473    0.321
        81  -9.6287    166.0426    241.6915   2.9129253098e+02   4.0388841093e+00   0.01506286  0.008002906   3.94  0.001274776    2.615    0.618
        82  -9.1525    197.7975    208.1800   2.9073215368e+02   4.2448815729e+00  0.008716987  0.007114506 -28.08 0.0002703145    1.257    0.205
        83 -10.6106    174.7794    205.9760   2.9098432144e+02   4.3939022939e+00   0.01705637   0.01000383 -44.81  0.001129459    1.703    0.413
        84 -11.7184     93.1914    205.2086   2.9191982381e+02   4.8420196152e+00   0.03265773   0.01753531  34.83  0.001800012    1.827    0.453
        85 -11.3653    247.7478    205.5618   2.9014223276e+02   4.0045352164e+00    0.0208048    0.0140789   0.87  0.002164009    1.715    0.417
        86 -10.7005    166.0253    204.7485   2.9107798850e+02   4.4549392852e+00   0.02149177   0.01407317 -42.38  0.002121428    1.538    0.350
        87  -9.7620    169.8352    200.4100   2.9100887540e+02   4.4832387543e+00  0.009893148  0.008781797 -74.47  0.000354622    1.202    0.168
        88  -8.6534    183.3016    206.3416   2.9088832579e+02   4.3438081500e+00  0.006992795   0.00465521 -29.76 0.0002748263    1.674    0.403
        89  -9.9944    125.8700    205.4687   2.9154473909e+02   4.6632293107e+00   0.01064977  0.009089219 -82.97 0.0006334489    1.304    0.233
        90 -10.8528    108.4744    203.5657   2.9173414342e+02   4.7783094854e+00   0.02008326   0.00917996 -52.53 0.0008975602    2.061    0.515
        91  -9.6517    149.3600    204.6592   2.9126941465e+02   4.5457939828e+00   0.01418947  0.008107712 -30.84  0.001315831    2.109    0.526
        92 -10.0292    103.6259    203.3745   2.9178891119e+02   4.8065526921e+00   0.01263543   0.01045295 -20.87 0.0008946043    1.255    0.203
        93  -9.6574     75.4706    203.7217   2.9211546391e+02   4.9540339909e+00   0.02021649   0.01042335  12.17  0.001782915    2.338    0.572
        94  -9.6622    224.8422    202.6107   2.9038850666e+02   4.1615153700e+00   0.01027606  0.008352613 -45.63 0.0004035977    1.205    0.170
        95 -10.1347    133.0669    202.9929   2.9144743135e+02   4.6523518530e+00  0.009450764  0.009254607 -36.44 0.0003068625    1.035    0.034
        96 -11.0403    134.2227    197.6304   2.9140294606e+02   4.7065201801e+00   0.01602983   0.01209345 -62.76  0.000201409    1.344    0.256
        97 -10.9023    197.1707    200.7304   2.9069600567e+02   4.3321197856e+00   0.02386715   0.01138892  39.10  0.002158913    2.125    0.529
        98  -9.4466    122.7541    200.9875   2.9155460732e+02   4.7304813072e+00   0.00844519  0.005442662 -60.84  0.000429532    1.546    0.353
        99  -9.0220    115.4068    200.9013   2.9163877571e+02   4.7710097681e+00  0.008714883  0.005561689  80.22 0.0008000243    2.333    0.571
       100 -11.2661     57.1881    195.9842   2.9228137182e+02   5.1394200273e+00   0.03050268   0.01357993 -71.16  0.002469699    2.811    0.644
       101  -9.4532    141.6890    198.2939   2.9132077871e+02   4.6588186968e+00   0.01278061  0.007692319 -28.91  0.001222285    1.983    0.496
       102 -10.2680    100.6674    198.1980   2.9179295245e+02   4.8807823696e+00   0.01308805  0.009997359 -36.03 0.0003407955    1.331    0.249
       103  -9.5621     86.1293    199.0737   2.9196562024e+02   4.9491080991e+00  0.009711566   0.00792484 -30.61 0.0003056765    1.248    0.199
       104  -9.1987    158.1354    241.8313   2.9138436426e+02   4.0799190231e+00  0.009142979  0.007216388 -30.60 0.0004208564    1.306    0.234
       105  -9.5845    192.0025    198.0244   2.9073974753e+02   4.3904796886e+00  0.009339162  0.009211294 -22.24            0    1.036    0.034
       106 -11.9426     76.8394    187.8907   2.9200781663e+02   5.1250367292e+00   0.01691369   0.01205256 -35.55 0.0009357126    1.458    0.314
       107 -11.9589     72.2216    194.7290   2.9210074839e+02   5.0728106110e+00   0.02538245   0.01474795 -33.56  0.001311725    1.972    0.493
       108 -10.7222     70.7866    190.1977   2.9209100051e+02   5.1315744066e+00   0.01118181   0.00995737 -27.06  0.000254318    1.115    0.104
       109  -9.3515     95.3419    197.0072   2.9184742509e+02   4.9228461408e+00  0.009268044  0.008287016 -48.82 0.0004919106    1.100    0.091
       110  -9.9573    113.2694    195.9745   2.9163478720e+02   4.8380102459e+00   0.01274271  0.007383641  37.63  0.001263281    1.734    0.423
       111  -9.2912    107.5251    195.9656   2.9170094380e+02   4.8690290093e+00  0.009803474  0.006389063 -63.46 0.0008451231    1.561    0.360
       112  -9.6429    177.2724    194.3971   2.9088823917e+02   4.5108124227e+00   0.01307066  0.008827918 -25.69  0.001353891    1.689    0.408
       113 -10.5545    159.4271    194.1506   2.9109233631e+02   4.6098527591e+00   0.01725857   0.01072893  38.14  0.001024992    1.627    0.385
       114 -10.3298    120.6964    194.5619   2.9154098282e+02   4.8139351154e+00   0.02056568  0.008786299  36.20  0.001780655    2.276    0.561
       115 -10.4545     84.3407    193.8118   2.9195569746e+02   5.0180048380e+00   0.02400948   0.01520332  21.23  0.001912085    1.598    0.374
       116 -10.1851     38.6079    192.9863   2.9247825509e+02   5.2729188140e+00   0.01711835   0.01091092 -48.45  0.001245204    1.529    0.346
       117 -10.2501    172.9104    192.7022   2.9092861011e+02   4.5534306289e+00   0.01649113  0.009129276 -48.72  0.001041861    1.755    0.430
       118  -9.0494     47.4614    192.9156   2.9237574345e+02   5.2262100772e+00  0.009354118  0.006177275 -57.21 0.0004390989    1.480    0.324
       119 -10.5618    191.4539    191.4818   2.9070797247e+02   4.4670899700e+00   0.01262504   0.01181892 -26.24 0.0005887585    1.042    0.040
       120  -9.7118    113.0911    192.1247   2.9161447485e+02   4.8823343566e+00  0.009855427  0.008261615 -27.19            0    1.214    0.176
       121  -9.2252    101.9081    192.3027   2.9174441390e+02   4.9405174335e+00  0.008940701  0.008130436   6.37 0.0004358614    1.092    0.084
       122  -9.7016    135.3586    190.4515   2.9134812214e+02   4.7812512696e+00   0.01107676   0.00806309 -67.98  0.000636639    1.447    0.309
       123  -8.9287    197.9740    190.0040   2.9062430125e+02   4.4485198201e+00  0.007663194  0.007196215   8.61 -0.003769674    1.051    0.049
       124 -11.3105    249.8944    187.8021   2.9001403257e+02   4.1927235690e+00   0.01948244    0.0104323 -48.98  0.001876581    1.810    0.447
       125 -10.2527     44.0982    188.5992   2.9238950335e+02   5.2928966104e+00   0.02057885    0.0114013   5.41  0.001845274    2.332    0.571
       126 -10.0091    175.8579    186.9972   2.9086145728e+02   4.6017554980e+00  0.009517846  0.009328687 -39.70 0.0004029074    1.039    0.038
       127  -9.2403     67.6261    186.8109   2.9210779179e+02   5.1867135054e+00  0.008678474  0.007624875  -5.40 0.0004740332    1.154    0.134
       128  -9.0248    123.8358    185.8945   2.9145442335e+02   4.8946497252e+00    0.0084998  0.007374106  59.51 0.0002429997    1.279    0.218
       129 -11.1824    141.3445    183.9737   2.9124147119e+02   4.8219421961e+00   0.02904629   0.01026572  44.18  0.002113124    3.399    0.706
       130 -10.2706     87.0971    183.6321   2.9186481103e+02   5.1178646732e+00   0.02193609   0.01084993  25.07  0.002025702    2.004    0.501
       131 -10.7410      9.2094    183.2037   2.9276066954e+02   5.5407456476e+00   0.01435584   0.01135027 -34.74  0.001317471    1.281    0.219
       132  -9.6010    217.2865    183.3720   2.9036336444e+02   4.4188385815e+00   0.01059779  0.007650546  35.63  0.000324418    1.391    0.281
       133  -9.3933     38.3365    184.0606   2.9242964312e+02   5.3749512958e+00   0.00917818   0.00812599 -54.48 0.0009377153    1.122    0.109
       134 -10.4352     17.5317    181.0039   2.9265191871e+02   5.5209480891e+00   0.02022158  0.008555659 -40.41  0.001620837    2.731    0.634
       135 -10.1465     52.9739    198.0361   2.9234186355e+02   5.1389249296e+00   0.01073537   0.00965446 -70.34 0.0005569588    1.166    0.142
       136 -10.8802    248.5912    177.7811   2.8997058912e+02   4.3125017612e+00   0.01103602  0.008554432 -86.93  0.001231792    1.531    0.347
       137  -9.5954    115.9282    181.4087   2.9151949440e+02   4.9877600405e+00   0.01262404  0.009203699  85.09  0.001339863    1.754    0.430
       138 -11.4569    104.3557    180.9141   2.9165003116e+02   5.0556314962e+00    0.0110667   0.01051739  13.68 0.0002528418    1.046    0.044
       139  -9.0322     65.9151    182.0105   2.9209966331e+02   5.2499899487e+00  0.007693186  0.007203431  10.20 0.0004051107    1.056    0.053
       140  -8.8629    133.2968    184.6188   2.9133796634e+02   4.8580483954e+00  0.006839324  0.004896514  65.45 0.0007021055    1.761    0.432
       141 -10.1648    128.9594    179.3324   2.9135721245e+02   4.9409543134e+00   0.01079519  0.009020579 -56.24 0.0004431414    1.188    0.158
       142  -9.6746     48.1983    179.8571   2.9229151240e+02   5.3693937174e+00  0.009191052  0.008406615  45.03 0.0004381176    1.148    0.129
       143  -9.6386     37.2084    180.1738   2.9242011830e+02   5.4247994612e+00  0.009463823  0.008407301 -25.64 0.0004332998    1.121    0.108
       144 -11.2484     11.3296    178.8222   2.9271082902e+02   5.5787638568e+00   0.02224292  0.009033113  35.80  0.001887047    2.374    0.579
       145 -10.6613    181.4247    176.4041   2.9073566173e+02   4.6909625752e+00   0.02327488   0.01320498  49.25  0.002205247    2.073    0.518
       146 -11.4833     96.4931    159.1671   2.9161428857e+02   5.3429013181e+00    0.0239961   0.01336766 -56.86  0.002368969    1.730    0.422
       147 -10.9197     80.5106    163.5427   2.9182407159e+02   5.3795928860e+00   0.01342411   0.01296102  88.00   0.00172205    1.111    0.100
       148 -10.7082     85.0405    165.9458   2.9178578553e+02   5.3281615600e+00   0.01915165   0.01011191 -61.93  0.001126063    1.893    0.472
       149 -12.0252     85.6956    175.9704   2.9183647168e+02   5.2117130025e+00   0.02385526   0.01825122  38.84  0.001293519    1.337    0.252
       150 -12.8345     90.9471    167.2119   2.9172501886e+02   5.2821278291e+00   0.03669585   0.02742678 -53.50  0.003366211    1.307    0.235
       151 -11.3607      2.0027    168.2314   2.9275708573e+02   5.7480588960e+00   0.02012776  0.008555634 -68.33  0.001630413    2.723    0.633
       152  -8.5567     66.2808    178.2921   2.9207386291e+02   5.2899188631e+00  0.006624778  0.004712723 -28.39 0.0002960823    1.530    0.347
       153  -9.2379     67.6152    174.8267   2.9203835439e+02   5.3217904136e+00  0.009654264  0.006366479 -61.20 0.0004298655    1.516    0.340
       154 -10.6693     77.1494    175.6029   2.9193289745e+02   5.2618043343e+00   0.01099879   0.01041625 -64.63 0.0004169698    1.093    0.085
       155 -12.0897     71.8475    174.5861   2.9198814299e+02   5.3017574480e+00   0.01947588   0.01373827 -30.92 0.0006804996    1.524    0.344
       156 -11.1664      6.0027    174.2478   2.9274578744e+02   5.6588437288e+00   0.01274928  0.007562123 -44.21   0.00127278    1.691    0.408
       157 -12.2352    248.2722    171.9050   2.8993998593e+02   4.3803275930e+00   0.02641344   0.01986474   2.13  0.002962498    1.442    0.307
       158 -10.2804    154.7577    172.8157   2.9102198047e+02   4.8752638549e+00   0.01462678   0.01027618 -25.73 0.0008123799    1.586    0.369
       159 -11.0454     43.8599    169.6263   2.9228220446e+02   5.5079517087e+00   0.01797529   0.01390155  -6.48  0.000887766    1.408    0.290
       160  -9.6165     48.3103    169.3472   2.9222924037e+02   5.4872085854e+00   0.01227128  0.007390893 -48.11  0.000940956    1.619    0.382
       161 -11.6389     18.1527    171.1727   2.9258777736e+02   5.6284012587e+00   0.03426066     0.018497 -89.97  0.002690847    3.360    0.702
       162 -14.6329     27.4101    248.2874   2.9292745013e+02   4.7097890817e+00   0.06571633   0.04433797  17.05  0.004369057    1.530    0.346
       163  -9.9369    100.2072    170.5850   2.9163783244e+02   5.1943056432e+00   0.01306405  0.007366036  41.53 0.0008619506    1.854    0.461
       164 -10.9600     69.0075    168.0755   2.9198309278e+02   5.3903670312e+00   0.01919926   0.01045624 -52.97 0.0007442288    1.754    0.430
       165 -10.2027    107.4670    168.3841   2.9154132420e+02   5.1800173305e+00    0.0113195   0.00941661  27.01 0.0003438327    1.195    0.163
       166  -9.4946     58.5667    167.6872   2.9210128103e+02   5.4508367016e+00   0.01042692  0.007152446  46.07 0.0005992406    1.577    0.366
       167 -11.8070    249.5064    150.8106   2.8980270913e+02   4.6109241399e+00   0.03062019   0.01807327 -59.70  0.002395964    1.669    0.401
       168 -12.3085    245.1296    162.4633   2.8992106020e+02   4.5035374748e+00   0.02823212   0.01730086 -65.33  0.002878651    1.697    0.411
       169 -11.8367    240.9946    151.0078   2.8990179429e+02   4.6547713784e+00   0.02165327   0.01548996 -29.84  0.002362076    1.506    0.336
       170 -12.0562    245.3280    156.3434   2.8988306965e+02   4.5713042703e+00   0.05433881   0.01811509  42.38  0.003950379    3.378    0.704
       171 -10.2534    250.4533    166.0001   2.8988045157e+02   4.4349503383e+00   0.01006391  0.006295376 -61.02  0.001029928    1.595    0.373
       172  -9.3273    175.9427    166.3192   2.9074006767e+02   4.8340846299e+00  0.008915596  0.008050526  21.15 0.0002221097    1.101    0.092
       173 -10.0633    109.0309    176.0524   2.9156787312e+02   5.0852277250e+00  0.009651967  0.009343287 -35.32 0.0003618432    1.026    0.026
       174  -8.8619    124.4626    165.4892   2.9132852823e+02   5.1210856222e+00  0.006434663  0.006218475 -19.03 -2.221457e-05    1.004    0.004
       175 -10.5871     47.1612    163.4818   2.9220845729e+02   5.5594607890e+00   0.01136411   0.00909698 -62.25 0.0005970319    1.265    0.209
       176  -8.6202     36.2982    170.6722   2.9237551432e+02   5.5367431038e+00   0.00664557  0.004919536  62.49 0.0005111264    1.635    0.389
       177  -9.2230     36.9364    162.5485   2.9232102090e+02   5.6248508827e+00  0.009545662  0.006275701  24.25 0.0006157282    1.512    0.338
       178 -10.9096     12.6206    161.4796   2.9259542222e+02   5.7672669388e+00   0.01283144   0.01066628  48.62   0.00151948    1.291    0.225
       179 -10.7938     23.9351    149.4823   2.9239524812e+02   5.8417974173e+00   0.01271521  0.009346163 -52.32 0.0006386656    1.325    0.245
       180 -11.1888     33.4119    159.8656   2.9234612365e+02   5.6739859185e+00   0.02414618   0.01343755 -28.50  0.001631442    2.289    0.563
       181 -13.0312     31.7793    154.9723   2.9233657005e+02   5.7378757242e+00   0.03444009   0.02810639  -8.88   0.00268167    1.295    0.228
       182 -12.1226     23.4874    155.0247   2.9243257275e+02   5.7817530103e+00     0.024693   0.01919299  -6.49 0.0009454821    1.397    0.284
       183 -11.1180     73.1558    156.7006   2.9186915900e+02   5.4962115376e+00   0.02271449   0.01260837  24.43  0.002220682    1.793    0.442
       184  -9.4592     59.1279    159.7755   2.9204886716e+02   5.5369551213e+00  0.009416889  0.008497858  48.68 0.0003579305    1.177    0.150
       185  -9.4034    119.9135    159.1546   2.9134412456e+02   5.2169326800e+00  0.009262778  0.008401441  51.45  0.001140657    1.179    0.152
       186  -9.8436     78.9874    159.2754   2.9181684558e+02   5.4358538494e+00  0.009075288  0.008194446  16.29 0.0004518125    1.099    0.090
       187  -9.5677     52.3970    158.4507   2.9211883752e+02   5.5880316354e+00   0.01097287  0.006419211  18.05 0.0006207391    1.797    0.443
       188 -11.4579     22.9919    163.9091   2.9248982360e+02   5.6843067835e+00   0.01789699  0.009151764  28.20  0.001689059    1.900    0.474
       189  -9.7179     89.0097    156.9843   2.9168791540e+02   5.4077552032e+00   0.01026148  0.007261882 -24.76  0.001091028    1.576    0.365
       190  -9.7485    134.5177    155.8232   2.9115635284e+02   5.1757431602e+00    0.0109585  0.009026682 -45.93 0.0005612383    1.188    0.159
       191  -9.3562     13.5559    154.9588   2.9254681671e+02   5.8357291596e+00  0.009536839  0.004506255 -40.13 0.0003798314    2.356    0.576
       192  -9.4988     62.2340    153.4373   2.9197621380e+02   5.5916696673e+00   0.01568322  0.008477255 -73.58 0.0006454778    2.252    0.556
       193 -10.3022    113.2782    152.3265   2.9138091204e+02   5.3295733236e+00    0.0144592   0.01227135  30.40 0.0009463373    1.179    0.152
       194  -8.9877    148.7089    152.6274   2.9097414846e+02   5.1351967415e+00  0.007096013  0.004580601 -31.61 8.186307e-05    1.725    0.420
       195 -10.9307    102.8557    151.1822   2.9149446441e+02   5.3985867308e+00   0.01859829   0.01367133 -63.24  0.002085055    1.383    0.277
       196 -10.5245    105.6141    146.1961   2.9143363969e+02   5.4398879451e+00   0.02014942   0.01700911  60.39  0.002402316    1.333    0.250
       197 -10.1667     95.1405    153.1549   2.9159493060e+02   5.4178980381e+00  0.009987816  0.008323348 -19.99 0.0004281141    1.243    0.196
       198 -11.3955     56.6549    149.6566   2.9201862975e+02   5.6642322299e+00   0.02773774   0.01747305 -36.16  0.002358737    1.704    0.413
       199  -9.8737     53.2238    146.4002   2.9203930950e+02   5.7193449976e+00   0.01035308  0.008816341 -31.54 0.0004497839    1.175    0.149
       200  -9.7883     46.5185    150.9824   2.9214330676e+02   5.7037303187e+00   0.01033652  0.008620205  19.39 0.0005811311    1.194    0.163
       201  -9.1558     91.4530    150.5377   2.9162224791e+02   5.4672191028e+00  0.006412305  0.006211898 -17.44 2.900723e-05    1.007    0.007
       202 -12.5170     66.1966    127.8889   2.9178198413e+02   5.8581465660e+00   0.04063486   0.01930502 -78.18  0.003140166    3.272    0.694
       203 -12.4331     74.4620    138.8273   2.9175019614e+02   5.6905118214e+00   0.03301831   0.02524789  76.69  0.001627438    1.627    0.385
       204 -13.2865     67.3770    144.1157   2.9186270101e+02   5.6690357788e+00   0.04114372   0.03034128  65.77  0.004477167    1.678    0.404
       205 -10.8003     65.0649    134.0249   2.9183072546e+02   5.7951213751e+00   0.01447496   0.01186546  47.18 0.0004044786    1.302    0.232
       206 -11.5680    133.4518    142.9692   2.9109380173e+02   5.3262241640e+00   0.04012971   0.01538696 -69.75  0.002955862    3.370    0.703
       207 -12.2702     32.7190    141.3000   2.9224636101e+02   5.8868670210e+00   0.02988298   0.01193731 -65.75  0.002160771    2.718    0.632
       208 -13.6049      3.2186    141.3859   2.9258742814e+02   6.0440290455e+00   0.07634035    0.0241811 -56.50  0.005908315    2.815    0.645
       209 -12.3419      2.0895    109.1923   2.9241362538e+02   6.4127259356e+00   0.06103976    0.0121102 -63.94  0.003400308    5.625    0.822
       210 -11.3189      1.8015    131.1933   2.9254466088e+02   6.1664464787e+00   0.02705967   0.01404248 -61.40   0.00256622    1.911    0.477
       211 -12.3190      1.7430    121.8449   2.9249108654e+02   6.2720677535e+00   0.04098403    0.0170449 -62.70  0.003470896    2.416    0.586
       212 -10.3828    236.5926    145.9530   2.8992295302e+02   4.7354513517e+00   0.01618414  0.008724325  11.85  0.001466328    2.202    0.546
       213  -8.9766    142.6783    147.3110   2.9101270635e+02   5.2275835283e+00  0.006715197  0.004878629  59.43 0.0004640763    1.650    0.394
       214 -11.6133    248.8105    141.1625   2.8975439648e+02   4.7232052869e+00   0.04616074   0.01961122  11.09  0.003345445    3.562    0.719
       215 -12.4198    248.3246    134.5352   2.8972129352e+02   4.8003685884e+00   0.04281208   0.03870333 -54.58  0.005354875    1.104    0.094
       216 -10.4831     61.1261    137.3492   2.9189551157e+02   5.7788464189e+00   0.01152969   0.01063346 -27.70 0.0004451921    1.062    0.058
       217 -10.8056     48.0917    143.3517   2.9208083316e+02   5.7812455636e+00   0.01782555  0.007843016  20.21   0.00150084    2.450    0.592
       218 -11.0809     27.1578    141.0614   2.9230917313e+02   5.9193849717e+00   0.01723783   0.01281792  88.33  0.001220535    1.671    0.402
       219 -10.0473    164.1433    139.6542   2.9072065798e+02   5.1979502178e+00  0.009875375  0.008873901 -81.41 0.0004067702    1.210    0.173
       220  -9.9471     53.5475    140.4321   2.9200090076e+02   5.7848345477e+00  0.009783832  0.009568158 -62.84 0.0004663624    1.066    0.062
       221 -10.2987     46.5112    139.4436   2.9207637298e+02   5.8337550429e+00   0.01080018  0.008669071   1.82 0.0008634867    1.308    0.235
       222 -11.2745     50.5114    138.0000   2.9202181242e+02   5.8285370227e+00   0.02187925  0.008617734  26.21  0.001814287    2.473    0.596
       223 -10.2007    119.6966    137.8086   2.9122238469e+02   5.4584776600e+00   0.01860023   0.01054321 -27.78  0.001666053    2.239    0.553
       224  -8.5748    156.2130    137.9964   2.9080240782e+02   5.2594200313e+00  0.007994046  0.005190629 -61.33            0    1.541    0.351
       225 -11.1842    113.0396    136.3570   2.9129072044e+02   5.5106925817e+00   0.01887052   0.01399595  21.90  0.001220583    1.346    0.257
       226  -8.8014     82.3355    136.2583   2.9164439664e+02   5.6771000836e+00  0.006659227  0.004767733 -20.98 0.0003262121    1.574    0.365
       227 -11.5744     35.1187    149.0217   2.9226349170e+02   5.7870024044e+00    0.0196658   0.01039553  45.61  0.001810186    2.122    0.529
       228 -10.5414     87.7394    133.2751   2.9156468393e+02   5.6816229386e+00    0.0133134  0.009249191 -42.79 0.0002230923    1.436    0.304
       229 -12.6602     45.1791    130.5390   2.9204001289e+02   5.9412105031e+00   0.02763262   0.02049977 -66.19  0.001869738    1.398    0.285
       230 -11.6274     32.7878    127.0053   2.9216254549e+02   6.0475216260e+00   0.01542414   0.01242307  79.95 0.0009101013    1.487    0.328
       231  -9.8302     86.1009    126.7220   2.9154546209e+02   5.7642366457e+00    0.0135799  0.008977029 -16.93  0.001116535    1.837    0.456
       232 -11.5500     59.0499    133.4825   2.9189699938e+02   5.8335548414e+00   0.01679042   0.01410473 -40.42   0.00115655    1.172    0.147
       233 -10.7151    250.3299    125.0401   2.8964276675e+02   4.8962869481e+00   0.02538594   0.01628047  78.46  0.002399339    2.320    0.569
       234 -10.7396    243.7491    121.0613   2.8969525828e+02   4.9766697514e+00   0.01931735   0.01239575  89.29  0.001853181    2.201    0.546
       235 -10.4358    249.5256    117.9370   2.8961052886e+02   4.9805155545e+00   0.02025135    0.0113657 -38.80  0.001936285    1.924    0.480
       236 -11.8380    248.3927    112.8247   2.8959369828e+02   5.0441339843e+00   0.02774496   0.02254629 -39.17  0.003283635    1.222    0.181
       237 -10.3719    209.8576    125.7667   2.9011293822e+02   5.1071819560e+00   0.01105151    0.0100174 -61.11  0.000500151    1.123    0.110
       238  -9.2200    160.3075    126.3368   2.9068723963e+02   5.3685589114e+00  0.006992995  0.004667632 -29.13 0.0006470621    1.677    0.404
       239  -8.6780     93.2811    127.6614   2.9146806825e+02   5.7150144331e+00  0.006586214  0.004946566  65.09 0.0003442997    1.623    0.384
       240 -10.0950     28.1746    126.3876   2.9221222406e+02   6.0792281623e+00  0.009633294  0.005562011  36.59 0.0009470314    1.727    0.421
       241 -11.4596     19.0056    125.2842   2.9231169281e+02   6.1408272280e+00   0.01786396  0.008249807  39.84 0.0007193927    2.222    0.550
       242  -9.2735    124.5513    125.5127   2.9109477582e+02   5.5707512554e+00  0.006365482  0.006268542 -10.69 5.578715e-05    1.033    0.032
       243 -11.5596      9.3652    126.9521   2.9243270362e+02   6.1737070215e+00   0.01429064  0.009083928 -32.42  0.001444297    1.747    0.428
       244  -9.4482    106.9968    130.0012   2.9132342935e+02   5.6148124472e+00   0.01750144  0.005302879  43.78  0.001139709    4.146    0.759
       245 -10.2419    118.0166    128.9537   2.9119020031e+02   5.5672338812e+00   0.01099816  0.007159376 -31.98 0.0009849054    1.697    0.411
       246  -9.2606    238.5885    122.2259   2.8976145687e+02   4.9915182568e+00  0.009541327  0.005622341 -49.63 0.0009490881    1.644    0.392
       247  -8.6609     79.6741    122.2822   2.9159380187e+02   5.8488123679e+00  0.006620857    0.0048397  56.51 0.0003319169    1.599    0.374
       248  -9.3216    143.5038    121.5312   2.9085297787e+02   5.5133506588e+00  0.006384214  0.006269894  32.09 0.0001372574    1.060    0.057
       249 -10.8463     20.6181    120.8882   2.9226754146e+02   6.1816985426e+00   0.01133202   0.00881463   0.26 0.0007115838    1.376    0.273
       250  -8.7470    130.6977    119.2938   2.9098764047e+02   5.6076203812e+00  0.006534138  0.004897584  59.30 0.0001929722    1.574    0.364
       251 -12.4820     29.8682    115.9872   2.9213224171e+02   6.1872872153e+00   0.02676108   0.01775658  44.74  0.000961591    1.616    0.381
       252 -10.3284     72.8802    115.0670   2.9163023992e+02   5.9666053307e+00   0.01039941  0.009116187  -5.73            0    1.158    0.136
       253 -10.9009     55.5475    111.2258   2.9180801138e+02   6.1030344799e+00   0.01221655  0.009934463 -10.16 0.0004798504    1.302    0.232
       254 -10.4663     70.0379    111.2717   2.9164096767e+02   6.0246268682e+00  0.009699552  0.009637233 -17.34 0.0001916207    1.047    0.045
       255 -10.8265    168.2570    113.5227   2.9052085705e+02   5.4698371546e+00   0.01612102   0.01206371  61.49  0.001001753    1.600    0.375
       256 -10.3502    134.4704    105.2117   2.9086202948e+02   5.7457788832e+00   0.01977395  0.005858918 -60.28  0.001443003    3.155    0.683
       257 -10.7861     62.3292    107.0528   2.9170542351e+02   6.1135786069e+00  0.009427138   0.00850306 -55.92  0.001006384    1.110    0.099
       258 -11.7094    248.2768    100.9211   2.8952547065e+02   5.1785944778e+00   0.03412797    0.0181853 -48.96  0.003291832    1.820    0.450
       259  -8.9014     42.6852    104.2976   2.9191625287e+02   6.2501407067e+00  0.006618232  0.004877179  58.66 0.0003233338    1.606    0.377
       260  -9.9356     63.1452     99.5055   2.9165207585e+02   6.1941716751e+00   0.01408333  0.007396504 -45.28  0.001323261    1.908    0.476
       261 -10.3841    222.9689    244.8488   2.9065591516e+02   3.6963208060e+00   0.01134912  0.007171396 -14.72  0.001090592    2.021    0.505
       262 -12.4638    248.8491    240.7823   2.9033469174e+02   3.6023538353e+00   0.02430796   0.02354597 -66.73  0.003140865    1.078    0.072
       263  -9.5503     45.7411     90.1542   2.9179866958e+02   6.3929790145e+00   0.01632724  0.004940984  21.87  0.001066404    3.717    0.731
       264  -9.3813    101.9434     88.0907   2.9113759091e+02   6.1138535408e+00  0.009113344  0.008280762  59.43  0.001121488    1.201    0.167
       265  -9.6324    154.5378     76.4867   2.9046291185e+02   5.9606527872e+00  0.006439862   0.00620854 -19.33 8.889517e-05    1.003    0.003
       266 -10.3736    101.6696    242.1971   2.9203670642e+02   4.3797418896e+00   0.01928744  0.009180266 -71.35  0.001629252    2.563    0.610
       267 -11.0666    107.9601    240.3557   2.9195357266e+02   4.3666546399e+00   0.01744125   0.01277793 -66.84  0.001943858    1.424    0.298
       268 -10.5334    104.3436    238.2717   2.9198314371e+02   4.4095802494e+00   0.01166747  0.009031025 -19.85 0.0008677265    1.394    0.283
