#   1 NUMBER                 Running object number                                     
#   2 MAG_AUTO               Kron-like elliptical aperture magnitude                    [mag]
#   3 X_IMAGE                Object position along x                                    [pixel]
#   4 Y_IMAGE                Object position along y                                    [pixel]
#   5 X_WORLD                Barycenter position along world x axis                     [deg]
#   6 Y_WORLD                Barycenter position along world y axis                     [deg]
#   7 A_WORLD                Profile RMS along major axis (world units)                 [deg]
#   8 B_WORLD                Profile RMS along minor axis (world units)                 [deg]
#   9 THETA_WORLD            Position angle (CCW/world-x)                               [deg]
#  10 FWHM_WORLD             FWHM assuming a gaussian core                              [deg]
#  11 ELONGATION             A_IMAGE/B_IMAGE                                           
#  12 ELLIPTICITY            1 - B_IMAGE/A_IMAGE                                       
         1 -14.4382    157.4887     52.8157   8.2863115587e+01   3.9133650502e+01     1.378778     1.183209  12.07  0.003835265    1.292    0.226
         2 -14.6312    169.6379     37.0292   7.5474477211e+01   3.8140528561e+01     1.228198     1.036204  13.28  0.004470554    1.361    0.265
         3 -11.9192    189.6107     14.7703   6.5784506206e+01   3.5409957567e+01     0.307468    0.2518825 -72.23  0.001153678    1.211    0.174
         4 -14.1417    184.9430      5.4958   6.3680295533e+01   3.7548203074e+01     1.013686    0.7311759  70.98  0.004050113    1.222    0.182
         5  -9.8049      4.3897    228.1238   1.5143878081e+02   2.7905031624e+01   0.08059163   0.05911956  38.49 0.0003432668    1.657    0.396
         6 -19.9086     63.3583    170.9088   1.3560363931e+02   3.2794896780e+01     17.64433     6.088075 -68.88   0.07154599    2.920    0.658
         7 -12.4164     10.5817    215.0260   1.4981580085e+02   2.9694013637e+01    0.2703991    0.1535139 -54.60  0.001716569    2.581    0.613
         8 -13.4460    206.3964    180.0415   1.0529005976e+02   5.3026325753e+00    0.8691896    0.4157998  34.69  0.003192551    2.037    0.509
         9 -12.8888    196.8649    172.7043   1.0571595405e+02   8.3634601668e+00    0.7843248     0.419459 -48.52   0.00256714    2.346    0.574
        10  -9.8632    110.7538    212.3784   1.3034984272e+02   1.7280336172e+01    0.1837605    0.1221224 -78.10 0.0007395218    1.803    0.445
        11 -11.7225    109.2829    207.9940   1.3010905622e+02   1.8332452031e+01    0.2911514    0.2469556  30.29 0.0007809059    1.363    0.266
        12 -10.0589    115.4599    211.1699   1.2923559759e+02   1.6732629197e+01    0.1518784     0.123323 -79.35  0.000297643    1.369    0.269
        13 -10.1206    111.1844    175.8504   1.2517039118e+02   2.4403911356e+01    0.2508984    0.1943634 -66.49 0.0008202855    1.367    0.268
        14 -12.4766    112.7896    169.3867   1.2374887045e+02   2.5487058202e+01    0.4210317    0.3838306  64.69  0.001499289    1.013    0.013
        15 -12.5036    138.0674    171.3982   1.1820899840e+02   2.0383629299e+01    0.6202456      0.39612  64.28  0.002799867    1.928    0.481
        16 -11.4194    125.7426    172.3304   1.2121608969e+02   2.2524565586e+01    0.2677813    0.2513714  89.39   0.00158367    1.103    0.093
        17 -10.8069    140.3092    248.8824   1.2895358141e+02   6.4937403411e+00    0.2250535    0.1654865 -52.47  0.001101296    1.789    0.441
        18 -11.8815    144.3056    168.3869   1.1622289594e+02   1.9770392515e+01    0.3772773    0.2318437  62.46  0.001627965    2.034    0.508
        19 -11.6323     25.2966    165.7195   1.4372300189e+02   3.8221779646e+01    0.2449173    0.1972418   8.66  0.000841604    1.859    0.462
        20 -10.9470    223.9850    164.4153   9.8738310685e+01   4.3381985790e+00    0.2424633    0.1881291 -45.72 0.0005741572    1.552    0.356
        21 -10.9931    237.5202    159.4925   9.5250049606e+01   2.4948981516e+00    0.1364066    0.1207222   3.37 0.0001679632    1.036    0.035
        22 -12.0692    163.5118    155.7816   1.0932492796e+02   1.8333488757e+01    0.3392746     0.295712 -46.59  0.001136853    1.242    0.195
        23 -14.2035    132.7125    145.0825   1.1433195494e+02   2.6935436882e+01     1.078568    0.6507229 -60.83  0.004120077    1.961    0.490
        24 -11.7688     29.1859    206.4380   1.4596562727e+02   2.9458681462e+01    0.2439224    0.2208793 -38.05  0.001336677    1.776    0.437
        25 -10.1854    126.8403    250.7211   1.3161144046e+02   8.3466545312e+00     0.157085   0.07735421  47.25 0.0008676835    1.537    0.350
        26 -10.6786    174.8816    149.0868   1.0534114115e+02   1.7187922703e+01    0.2315798    0.2079219  78.15 0.0006961526    1.304    0.233
        27 -12.7112    144.7062    145.7042   1.1154272963e+02   2.4335541262e+01     0.524346    0.3826101  88.53  0.002320094    1.986    0.496
        28 -12.4720    143.2573    139.8720   1.1061095169e+02   2.5863615571e+01    0.3539149    0.2825343  12.19  0.001697473    1.559    0.359
        29 -10.2930    136.7754    197.6132   1.2286909330e+02   1.5550904113e+01    0.4124121     0.218455  67.50  0.001525351    3.502    0.714
        30 -11.5230      5.0051    140.4006   1.4627315513e+02   4.5416443435e+01     0.224615    0.2003075  60.15  0.000820707    1.276    0.217
        31  -9.6222     16.7309    249.9703   1.5037344189e+02   2.2961867147e+01    0.1597942    0.1302262  15.57  0.001247786    2.357    0.576
        32 -13.6450    135.8677    125.2625   1.0906654119e+02   3.0549113229e+01     1.333711    0.3158457 -49.18  0.003426603    4.764    0.790
        33 -11.7395      2.3633    126.4098   1.4573123290e+02   4.8672187536e+01    0.2431217    0.1406954 -68.07  0.001521928    1.390    0.281
        34 -12.6926    113.9662    118.5082   1.1323995240e+02   3.6524355124e+01    0.3954157    0.3033203  33.71   0.00193729    1.375    0.273
        35 -12.2853    115.8529    115.1217   1.1189915444e+02   3.6906463812e+01    0.4017476    0.2309777  53.87  0.001127137    1.944    0.486
        36 -12.4923    175.1295    194.3805   1.1427199391e+02   8.9752983036e+00    0.3409691    0.2744359 -58.31  0.001297181    1.582    0.368
        37 -11.1494    167.8730    113.2709   9.8277692533e+01   2.5749247760e+01    0.4499858    0.3173086 -84.51  0.001590114    2.305    0.566
        38 -11.3167      2.8445    112.4997   1.4426473775e+02   5.1733806098e+01    0.1944326     0.128412 -60.81  0.001209523    1.308    0.235
        39 -12.1783    180.2298    192.4089   1.1287550966e+02   8.3330923657e+00    0.3137543    0.2669361  73.87 0.0005373663    1.525    0.344
        40 -12.1189    176.5750    188.2639   1.1287816707e+02   9.7314792744e+00    0.2965693    0.2538764 -39.46   0.00107993    1.331    0.249
        41  -9.4280    153.3047    194.2927   1.1881990300e+02   1.3115383766e+01    0.1332882    0.1033705  13.67  0.000199203    1.576    0.366
        42 -10.8165    205.5045    110.1441   8.9633518941e+01   1.7357878582e+01    0.3325586    0.2151736  41.96 0.0009925412    1.572    0.364
        43 -10.6404    110.1773    222.9272   1.3171338556e+02   1.5477904243e+01    0.1831124    0.1380464  62.93 0.0004284457    1.183    0.154
        44 -12.4477    167.1182    191.1642   1.1537018498e+02   1.1051249555e+01    0.4076234    0.3363068  50.72  0.002339371    1.175    0.149
        45 -11.4373    160.7342    127.5125   1.0352915768e+02   2.4576883439e+01    0.3302711    0.2722009 -50.87  0.001619646    1.293    0.227
        46 -11.1616     96.9745     80.2478   1.0793595125e+02   4.8112758251e+01    0.5146068    0.2131674  48.28  0.001760378    2.751    0.637
        47 -10.0499    156.6815    191.3265   1.1760350611e+02   1.3011370920e+01    0.1389583    0.1043423  70.96 0.0007046073    1.678    0.404
        48 -12.4550     13.3794    245.0598   1.5069321062e+02   2.4118100878e+01    0.3907904    0.1078808 -70.30  0.002098681    3.466    0.711
        49 -10.4745      6.5675    247.5307   1.5184423777e+02   2.4380638008e+01   0.09801074   0.06651597  68.79 0.0002130136    1.045    0.043
        50 -12.9414    173.1511     29.8509   7.2636932181e+01   3.8098721140e+01    0.4275562    0.3738961  14.22  0.001075255    1.301    0.231
        51 -10.6237     13.5241     59.7964   1.3256689695e+02   6.2744562444e+01    0.1761032     0.156986 -23.87 0.0003925555    1.220    0.180
        52 -10.9524    135.2618     30.3876   8.0030582560e+01   4.7942246260e+01    0.2955946    0.2357412  74.31  0.001522068    1.367    0.268
        53 -12.0165    184.0130    186.4948   1.1101806431e+02   8.5898006394e+00    0.3691563    0.2553925  36.91  0.001241161    1.275    0.216
