#   1 NUMBER                 Running object number                                     
#   2 MAG_AUTO               Kron-like elliptical aperture magnitude                    [mag]
#   3 X_IMAGE                Object position along x                                    [pixel]
#   4 Y_IMAGE                Object position along y                                    [pixel]
#   5 X_WORLD                Barycenter position along world x axis                     [deg]
#   6 Y_WORLD                Barycenter position along world y axis                     [deg]
#   7 A_WORLD                Profile RMS along major axis (world units)                 [deg]
#   8 B_WORLD                Profile RMS along minor axis (world units)                 [deg]
#   9 THETA_WORLD            Position angle (CCW/world-x)                               [deg]
#  10 FWHM_WORLD             FWHM assuming a gaussian core                              [deg]
#  11 ELONGATION             A_IMAGE/B_IMAGE                                           
#  12 ELLIPTICITY            1 - B_IMAGE/A_IMAGE                                       
         1 -13.2535    249.0318     83.5827   6.6148893761e+01   1.2433582845e+01     2.256372    0.4342826 -26.25  0.005673218    5.741    0.826
         2 -13.2170     40.9274     17.9826   9.3831613805e+01   6.8234311903e+01    0.7226291    0.6146353  73.82  0.002312772    1.866    0.464
         3 -10.5019     49.2808      2.7091   8.2248568138e+01   6.9497993335e+01    0.4414314    0.2274711  39.90  0.001640639    2.119    0.528
         4 -11.1102     51.5587      9.6768   8.5077621136e+01   6.8146710333e+01    0.3630368    0.2371196 -15.25    0.0011203    1.551    0.355
         5 -11.8304     43.6928      9.3937   8.8350007905e+01   6.9305192903e+01    0.6150853    0.4142753   3.45  0.002334392    1.746    0.427
         6 -11.9864     65.2792     26.9864   8.7935499005e+01   6.3243378308e+01    0.6545849    0.3676497 -30.50  0.003246301    1.704    0.413
         7 -12.8675     10.3075     18.3368   1.0876253606e+02   7.1100650760e+01    0.5483114    0.4663015  62.80  0.002198011    1.670    0.401
         8 -12.0644      2.1593     10.4666   1.1009733781e+02   7.3132939979e+01    0.6043637    0.1690773 -50.59 0.0008266722    2.294    0.564
         9 -11.7862     20.0385     27.7945   1.0744642137e+02   6.8509847597e+01    0.6432607    0.3158197 -20.36  0.002812666    3.301    0.697
        10 -11.2000     20.7187     22.8744   1.0533236638e+02   6.9422484510e+01    0.3432421    0.2853612 -17.14  0.001804843    1.274    0.215
        11 -11.7714     18.2628     40.2860   1.1213984541e+02   6.6083446554e+01    0.7621095    0.3267642 -62.53   0.00389927    1.883    0.469
        12 -12.1563     77.1670      3.4536   7.2245593017e+01   6.4584493682e+01    0.9983335    0.5612627  16.83  0.004582266    2.290    0.563
        13 -11.2443     60.1949     10.7851   8.2154566708e+01   6.6641187282e+01    0.5702133    0.3456998  19.54   0.00205187    2.054    0.513
        14 -10.6714     66.8017      8.5855   7.8513482568e+01   6.5840750021e+01    0.2741497    0.2630775 -65.60  0.001275891    1.401    0.286
        15 -10.0034     70.4992      7.4871   7.6613609319e+01   6.5331006614e+01    0.2264953     0.181733  16.37 0.0008792664    1.209    0.173
        16 -11.1895     30.8338     14.9594   9.7113057564e+01   6.9929565154e+01    0.3297309    0.1880881 -44.11 0.0009675488    1.417    0.294
        17 -10.9217    249.6858     15.8784   4.8501928479e+01   2.0461081490e+01    0.2129347    0.1671666  -0.44  0.001188974    1.465    0.317
        18 -10.5134     58.4537     16.3405   8.5633512922e+01   6.6070567812e+01    0.3993096    0.3172022  77.25  0.002265378    2.172    0.540
        19 -11.0106     82.6279      8.4086   7.3061871459e+01   6.2913819317e+01    0.2810866    0.2406836  76.55  0.001663056    1.576    0.366
        20 -10.7580     26.1086      7.4961   9.5830745858e+01   7.1724089994e+01    0.2926945    0.2163775 -29.60 0.0008529149    1.081    0.075
        21 -11.3099     21.7061      3.7091   9.6175653637e+01   7.2810168203e+01    0.4031463    0.2304213 -28.42  0.002157487    1.580    0.367
        22 -11.1553     16.1872      3.2155   9.8943180515e+01   7.3416107793e+01    0.2879577     0.259577 -62.02  0.001173427    1.502    0.334
        23 -10.6331     59.1577      3.6195   7.8725812224e+01   6.7809163307e+01     0.536679    0.2417578 -16.59   0.00218066    2.977    0.664
        24  -9.0782    148.2477      6.0074   5.7010928296e+01   4.7737950051e+01     0.174602    0.1223922 -18.15 0.0003576152    1.456    0.313
        25  -9.8181    243.3156      4.3314   4.5979889124e+01   2.3131026745e+01     0.133875   0.09862365  31.63 0.0004996144    1.683    0.406
        26  -9.1351    222.5626      3.5374   4.7413774339e+01   2.8324102337e+01    0.1359559    0.1280158 -57.63 0.0001201907    1.024    0.023
        27  -9.4641     35.1670      2.2532   8.8453650183e+01   7.1520032701e+01    0.1498626      0.12274 -35.53   0.00102459    1.252    0.202
        28  -9.7394      8.1505      1.8637   1.0286321050e+02   7.4313527750e+01    0.1884673     0.149564  36.53  0.001386321    1.753    0.430
        29 -11.6077    204.8188    231.6909   1.0250828661e+02   1.9634661482e+00    0.3632001    0.1924748  35.61 0.0005298886    1.482    0.325
        30  -9.2959    249.7881    250.1844   9.8260969231e+01  -6.1680554890e+00    0.1407501   0.08313464  22.44 0.0005271147    1.328    0.247
        31 -11.0258    225.2306    247.7901   1.0151503161e+02  -2.5822726710e+00    0.2508313     0.192199  55.29  0.001677533    1.788    0.441
        32  -9.4044    231.9788    250.7817   1.0090954992e+02  -3.7842884783e+00    0.2905792   0.07667188  42.54  0.001425042    2.793    0.642
        33  -9.5968    233.6375    247.7779   1.0027497450e+02  -3.7637959097e+00    0.1466759    0.1142879  33.22 0.0005690103    1.230    0.187
        34 -10.1573    233.9854    244.0392   9.9726978513e+01  -3.4955781843e+00    0.2117772    0.1337951  27.75 0.0004306527    1.182    0.154
        35  -9.9906    230.4797    244.4766   1.0030315813e+02  -3.0375721909e+00    0.1689394    0.1472567  20.24 0.0006002852    1.317    0.241
        36 -10.3401    218.7405    249.9997   1.0276036136e+02  -1.8561443996e+00    0.2392605    0.1179105  31.49   0.00142654    1.635    0.388
        37 -11.2829    166.2901    248.6264   1.1060211109e+02   5.9187054058e+00    0.1851958    0.1532933  47.78 0.0004761948    1.162    0.140
        38 -11.9539    139.5582    247.1152   1.1463521869e+02   9.9930129115e+00    0.3807662    0.2069393  32.70   0.00103522    1.997    0.499
        39  -9.3301     72.7318    250.6610   1.2528433317e+02   1.8487371367e+01    0.1303607   0.06283802  50.38 0.0004044853    1.445    0.308
        40 -10.9658     61.5103    248.6162   1.2685619165e+02   2.0121360827e+01    0.1868312    0.1395889  66.27 0.0005894678    1.141    0.124
        41 -11.2045     46.1010    250.0186   1.2922341810e+02   2.1679138579e+01    0.2734993    0.1194238  45.95  0.001422361    1.685    0.407
        42 -10.0114      1.7066    249.0611   1.3552451430e+02   2.6296569480e+01    0.1662872   0.08858563 -82.98  0.001400882    1.795    0.443
        43 -10.4864    202.0858    239.9989   1.0401913040e+02   1.5222725052e+00    0.2029775    0.1449862  43.67 0.0004727694    1.210    0.174
        44 -11.5052    197.5682    237.8866   1.0445266193e+02   2.4169695988e+00    0.4715612    0.2103444  35.06  0.002229331    1.879    0.468
        45 -11.2664    118.6014    239.0179   1.1721353188e+02   1.4044949609e+01    0.3871654    0.2516444  30.14  0.001713339    1.919    0.479
        46  -8.8418     35.3550    240.3056   1.3036286559e+02   2.4277639312e+01    0.0761293   0.07168221  63.29 0.0007041138    1.717    0.418
        47 -11.0760     26.6471    238.5785   1.3158947219e+02   2.5447812351e+01    0.2796205    0.2338986 -30.86  0.001357623    2.823    0.646
        48  -9.9394    247.0394    238.9411   9.7113353131e+01  -4.8969510527e+00    0.1618492    0.1078812  23.76 0.0005804196    1.107    0.097
        49 -10.3035     17.1189    248.8843   1.3336423208e+02   2.4866757413e+01    0.1421389    0.1032928  56.20 0.0004919752    1.318    0.241
        50 -13.4856    239.1051     67.6461   6.3357229735e+01   1.6756628348e+01     1.268091    0.6872913 -50.58  0.005412846    2.139    0.533
        51 -12.7887    247.8321    142.4541   8.0061345270e+01   5.0149786837e+00     1.608961    0.8069045 -16.06   0.00736527    2.261    0.558
        52 -12.5571    235.4681    161.6421   8.5953004633e+01   4.8982570039e+00     1.324372    0.7177303 -34.25  0.006829048    1.941    0.485
        53 -12.2923    229.8180    196.4432   9.3214679784e+01   1.7890319966e+00    0.7501442    0.4821834   1.47  0.004512292    1.759    0.431
        54 -12.4313    234.0468    185.2645   9.0609233644e+01   2.3385152071e+00    0.7633339    0.3571855  42.89  0.003980236    1.869    0.465
        55 -13.0084    216.6750    205.6383   9.6824272105e+01   2.9161750508e+00    0.6276932    0.4300743   2.34  0.003147793    1.659    0.397
        56 -11.7947    224.7425    204.7120   9.5380176112e+01   1.7091121621e+00    0.3816705    0.2652795  46.44 0.0005746295    1.435    0.303
        57 -12.2018    241.9956    174.6422   8.7410469027e+01   2.2019061962e+00    0.9916686    0.4096276 -16.84  0.003995881    3.622    0.724
        58 -11.1360    248.5091    212.8416   9.2994682031e+01  -2.8117020305e+00     0.284568    0.1788355  21.01 0.0005091201    1.338    0.253
        59 -13.2714    240.5023    195.1496   9.1310096517e+01   1.9179650694e-01     1.589272    0.8083374   2.56  0.007288346    3.211    0.689
        60 -12.4952    242.8761    198.6093   9.1527775630e+01  -5.4769076649e-01     1.124158    0.5173147  -3.56  0.004363171    4.724    0.788
        61 -11.6997    249.6356    183.4610   8.7843168655e+01  -4.6995931274e-02    0.3197407    0.2174786  -3.48 0.0007330405    1.420    0.296
        62 -12.6061    247.8136    175.9514   8.6746442342e+01   1.0702553475e+00    0.9471838     0.396342 -16.43  0.004023453    3.302    0.697
        63 -11.7010    243.2957    231.9797   9.6671514771e+01  -3.7777692114e+00    0.5001867    0.2230887  26.71  0.002772741    2.119    0.528
        64 -12.3385    244.8310    224.8448   9.5394984321e+01  -3.3687135353e+00    0.5327345    0.4651201  71.29  0.003975614    2.128    0.530
        65 -11.9164    246.7713    218.1073   9.4080275766e+01  -3.0416614844e+00     0.265424     0.184594 -24.29 0.0008262762    1.645    0.392
        66 -10.8095    148.4297    238.2218   1.1231740455e+02   9.8012584999e+00    0.2412423    0.1417893  42.79 0.0004534356    1.298    0.230
        67 -10.1809    134.9834    238.8226   1.1455041896e+02   1.1711014612e+01    0.1577713    0.1348193  56.30 0.0003776693    1.164    0.141
        68 -10.0614     62.4243    239.1221   1.2615922526e+02   2.1400416659e+01    0.2399335    0.1029615  45.81  0.001383134    1.740    0.425
        69 -10.3207      9.6793    238.8484   1.3409324470e+02   2.7074055954e+01    0.1595944    0.1083576  69.63 0.0005540853    1.099    0.090
        70 -10.7886    184.0588    236.7156   1.0643330285e+02   4.5905461305e+00     0.217997    0.1465666  31.54 0.0004460625    1.290    0.225
        71  -9.7045     41.4710    236.5901   1.2925725018e+02   2.4181111810e+01    0.1430989   0.09877112  52.88 0.0005664535    1.254    0.203
        72 -11.1904    159.0348    235.1665   1.1026606463e+02   8.5848442441e+00    0.2710885    0.1617141  42.53 0.0007771282    1.274    0.215
        73 -10.6419     91.1875    235.8068   1.2136596687e+02   1.8266314731e+01    0.2091924    0.1584795  35.74 0.0005521008    1.598    0.374
        74 -11.4723     86.7394    233.3704   1.2189635240e+02   1.9212601279e+01    0.4088841    0.1762191  52.72  0.001593594    1.755    0.430
        75 -10.6933     77.1334    235.2985   1.2358604611e+02   2.0163469345e+01    0.2627247    0.1458671  59.92  0.001062021    1.384    0.278
        76 -10.7503    128.6952    233.7754   1.1507152907e+02   1.3304871312e+01    0.2741694    0.1726971  61.37  0.001866567    1.479    0.324
        77 -10.7150    123.9573    230.6564   1.1554318576e+02   1.4429159008e+01    0.2485599    0.1563746  35.61 0.0005854693    1.618    0.382
        78  -9.5324      3.7569    235.2437   1.3483799983e+02   2.8173070996e+01    0.1093186   0.08576077  75.28 0.0006306845    1.349    0.259
        79 -10.0120    249.1478    232.7650   9.5923511320e+01  -4.6766952359e+00    0.2476045    0.1345594   0.21  0.001542406    2.201    0.546
        80 -10.8806    230.3759    233.3513   9.8798951439e+01  -2.0283332822e+00    0.2128095    0.1510787  38.31 0.0004252289    1.224    0.183
        81 -10.3295    226.7527    230.1402   9.8896341829e+01  -1.1929492190e+00    0.2229838    0.1610261  -9.26  0.001163187    1.530    0.346
        82 -11.0259    236.2456    226.2823   9.6897506953e+01  -2.2393411084e+00    0.2312613    0.1577931  18.30 0.0004266582    1.251    0.201
        83  -9.6965    229.5119    225.4980   9.7807766177e+01  -1.1616557965e+00    0.1704435    0.1208098  -3.53 0.0005386047    1.500    0.333
        84 -10.8862    232.9886    222.0955   9.6774376899e+01  -1.3575949171e+00    0.3238474     0.170995  39.42 0.0009759488    1.491    0.329
        85 -10.8934    177.5661    232.3111   1.0692966765e+02   6.0872556446e+00    0.2568641    0.1766701  18.71 0.0009841538    1.738    0.425
        86  -9.7907    170.9964    232.9177   1.0806528035e+02   7.0280897183e+00    0.1648376    0.1257594  41.22 0.0004787367    1.019    0.019
        87 -11.1315    140.6756    234.8092   1.1321555675e+02   1.1395702711e+01    0.3381167      0.15723  48.98  0.001163158    1.663    0.399
        88  -9.0123    108.3755    233.2559   1.1835688131e+02   1.6291728247e+01   0.09797312   0.07386248  31.36 0.0004794185    1.653    0.395
        89 -11.3782     34.9572    231.0131   1.2998600426e+02   2.5747593424e+01    0.2863769    0.2250577  24.18  0.002005663    2.210    0.547
        90 -10.3476      9.6860    232.0107   1.3386288026e+02   2.8123398325e+01     0.177653    0.1185573  83.43 0.0007428128    1.264    0.209
        91  -9.7390    164.6985    232.4789   1.0903544921e+02   8.0495335836e+00    0.2440696   0.08427968  43.34  0.001218256    2.196    0.545
        92 -10.8421    145.5578    230.4274   1.1194204168e+02   1.1237382990e+01    0.2224364    0.2084833   6.17 0.0008240097    1.411    0.291
        93  -9.8725    143.9741    225.9937   1.1171182729e+02   1.2071745093e+01    0.1678704    0.1545967  68.22 0.0004478921    1.228    0.186
        94 -11.0020     55.3042    230.4645   1.2675668085e+02   2.3561290173e+01    0.2672876    0.1977865 -80.95    0.0015482    1.473    0.321
        95 -10.8119    189.1367    230.7331   1.0487005451e+02   4.4791508621e+00    0.4116938    0.1459417  37.98  0.002024607    2.371    0.578
        96 -10.2171    100.5126    230.4844   1.1940710845e+02   1.7787306353e+01    0.1680501    0.1369626  74.92 0.0006340398    1.193    0.162
        97 -11.0191    103.8723    227.8791   1.1862074047e+02   1.7706270610e+01    0.2704773    0.1817583  38.55  0.001034164    1.507    0.336
        98 -10.8628    216.7028    230.4884   1.0049074803e+02   2.8062630679e-01    0.2087653    0.1472861  26.36 0.0004942989    1.151    0.131
        99  -9.7620    134.2396    230.4308   1.1381586820e+02   1.2941135086e+01    0.1949834     0.101101  48.87 0.0007598017    1.480    0.324
       100 -10.0873     44.9874    229.4394   1.2833499853e+02   2.4900461387e+01    0.1495788    0.1203921 -83.95 0.0005383038    1.460    0.315
       101  -9.1080    158.4939    229.4003   1.0969003015e+02   9.3890681449e+00    0.1120386   0.08393379  43.94 9.939654e-05    1.032    0.031
       102 -10.7213    113.7836    227.9971   1.1697773681e+02   1.6283581441e+01    0.2595733    0.1606735  38.27  0.001183091    1.559    0.359
       103 -10.6018    115.1903    222.6274   1.1621837417e+02   1.6868910641e+01    0.3143217    0.1842761 -80.44  0.001553232    2.306    0.566
       104 -11.0568    163.6579    225.4281   1.0836028213e+02   9.0908101458e+00    0.3116779    0.2654864  16.22  0.001636997    1.377    0.274
       105 -11.1217    169.8478    222.5457   1.0697129563e+02   8.4800329028e+00    0.3022126    0.2388884 -57.38    0.0021927    1.690    0.408
       106 -10.0721    165.9717    220.2874   1.0733246566e+02   9.3847493774e+00    0.1746956    0.1291426  32.48 0.0003873498    1.267    0.211
       107  -9.6113     92.9817    227.9931   1.2044159809e+02   1.9187522422e+01    0.1363073    0.1210567  33.14 0.0004370679    1.567    0.362
       108 -10.1585     78.8523    226.9535   1.2269672218e+02   2.1213557768e+01    0.2847718    0.1349784 -77.59  0.001248686    2.444    0.591
       109 -11.1105     18.6603    226.1472   1.3228663515e+02   2.8185439956e+01    0.3454205    0.1907016  73.20  0.002168737    1.323    0.244
       110 -10.4844     16.2961    221.1420   1.3244901173e+02   2.9221691377e+01    0.1668974    0.1303468  78.16 0.0006951301    1.276    0.216
       111  -9.8260    174.2499    227.1934   1.0683170226e+02   7.2114149626e+00    0.1607707    0.1242924  32.65 0.0005242183    1.164    0.141
       112 -10.5642     67.9431    227.0704   1.2449683998e+02   2.2572658178e+01    0.1928825    0.1187186  46.39 0.0005141067    1.383    0.277
       113  -9.7446      1.7506    227.2298   1.3488584151e+02   2.9601550920e+01    0.1396131    0.0830063  65.50  0.001177859    1.089    0.081
       114 -10.6557    184.5668    225.5432   1.0493341943e+02   5.7878680830e+00    0.1934996    0.1580225  39.61 0.0007320713    1.076    0.071
       115 -10.3002    199.7223    224.4511   1.0233488744e+02   3.5299443938e+00    0.1873776    0.1547199 -33.19  0.001004214    1.546    0.353
       116  -9.7054    120.6766    225.0154   1.1552804704e+02   1.5714416885e+01    0.1425384    0.1206731  62.65 0.0004952661    1.132    0.117
       117  -9.4132      7.8368    225.1931   1.3390418476e+02   2.9369925214e+01    0.1130133   0.09032398  70.07 0.0004634384    1.335    0.251
       118 -10.2836    191.0139    223.2849   1.0358295738e+02   5.0334100017e+00    0.1790065    0.1513795   8.00 0.0004541931    1.301    0.232
       119  -9.8181    129.6488    223.7066   1.1387499913e+02   1.4567575393e+01    0.1742336    0.1423201  39.25  0.000523132    1.265    0.209
       120 -10.8679    207.0849    222.4269   1.0087426395e+02   2.5973762019e+00    0.2122532    0.1741552  11.25 0.0004734554    1.231    0.188
       121  -8.6968    155.4530    223.4486   1.0949036148e+02   1.0633201983e+01    0.1131861   0.08786409  44.74 0.0001724487    1.028    0.027
       122  -9.9015    135.6642    222.9907   1.1277787048e+02   1.3757745687e+01    0.1455321    0.1265327  61.94 0.0004333726    1.149    0.130
       123 -10.1624     82.6543    222.9297   1.2175068260e+02   2.1345845412e+01    0.1691909    0.1203814  46.14 0.0005194733    1.312    0.238
       124 -10.0480     50.1496    222.5143   1.2710730710e+02   2.5419591724e+01     0.154666    0.1353432  75.87 0.0004993353    1.388    0.280
       125  -9.0797     97.8340    222.0919   1.1911717140e+02   1.9423181636e+01     0.128257    0.1128932  52.76 0.0004040594    1.300    0.231
       126 -10.3001     73.7725    222.3518   1.2319335199e+02   2.2586336004e+01    0.2264601    0.1272695  36.17  0.001443742    1.967    0.492
       127  -9.9377     28.6153    221.9556   1.3054473464e+02   2.7857914436e+01    0.1474574     0.108026  58.44 0.0004711001    1.221    0.181
       128  -9.9692    180.9205    220.9492   1.0492534148e+02   6.9152283903e+00    0.1717235    0.1332447  36.89 0.0004017173    1.046    0.044
       129 -10.1127    174.9034    220.8515   1.0591104250e+02   7.8881056852e+00    0.1680594    0.1268733  31.33 0.0003578319    1.214    0.176
       130 -10.3457    148.6067    219.9436   1.1022854827e+02   1.2179108009e+01    0.2024425    0.1846997   6.13 0.0008413761    1.414    0.293
       131  -9.8065     68.7721    220.7329   1.2390995696e+02   2.3475453290e+01    0.1501615    0.1173423  44.07 0.0008527674    1.434    0.303
       132 -10.0933     59.6132    220.3061   1.2540779558e+02   2.4666014953e+01    0.1547893    0.1141031 -79.38 0.0006943686    1.451    0.311
       133 -10.5316     40.2154    220.8111   1.2862432764e+02   2.6810312346e+01    0.1744502    0.1475199  60.45  0.000702818    1.384    0.278
       134 -11.7029    137.6757    215.3996   1.1157040394e+02   1.4533346375e+01    0.3430898    0.3265311  67.03  0.001862752    1.232    0.188
       135 -10.3648    132.1902    213.5050   1.1230562697e+02   1.5666028514e+01    0.1918247    0.1657314  38.89 0.0005532053    1.248    0.199
       136 -10.1042    186.0908    219.0646   1.0381643782e+02   6.3156470610e+00    0.1748953    0.1340289  34.67 0.0004451061    1.070    0.066
       137 -10.5982    158.0606    218.1323   1.0839816874e+02   1.0930097335e+01    0.4482726    0.1482373  42.66  0.001930186    2.413    0.586
       138 -10.0433    129.1022    219.0934   1.1346953193e+02   1.5316442689e+01    0.1629605    0.1329529  39.00 0.0004221125    1.268    0.211
       139  -9.4062    109.2474    218.8171   1.1685816779e+02   1.8307647692e+01    0.1361821    0.1151298  44.19  0.000452225    1.293    0.226
       140 -11.4231    206.7083    206.2673   9.8550051905e+01   4.4788367004e+00    0.5883615    0.3876778  19.29  0.003605178    1.593    0.372
       141 -10.5541    193.7359    215.8206   1.0210283190e+02   5.4714643953e+00     0.231907    0.1672986  29.11 0.0004546467    1.219    0.180
       142 -11.1522    202.6772    215.8990   1.0064963830e+02   4.0214519913e+00    0.3109274    0.2264474  12.81 0.0005199088    1.465    0.318
       143 -11.1796    198.2165    213.0257   1.0096229330e+02   5.0751949712e+00     0.315352     0.245843  15.03  0.001634844    1.307    0.235
       144 -10.9356    119.1189    212.4020   1.1447522156e+02   1.7835295389e+01    0.3062167    0.1428684  38.54  0.001290077    2.032    0.508
       145 -10.4028      7.8466    216.2659   1.3358084671e+02   3.0816682736e+01    0.1691612    0.1574068  44.39  0.001076156    1.761    0.432
       146  -9.3523     21.6825    216.7054   1.3140581571e+02   2.9421399307e+01   0.07935345   0.07106747 -84.05 0.0002563393    1.606    0.377
       147  -9.0701    179.5975    215.4566   1.0440468173e+02   7.8081710170e+00    0.1143776    0.0914133  37.91 9.610986e-05    1.027    0.026
       148  -9.3402     83.0886    215.4805   1.2106347049e+02   2.2476886212e+01    0.1525751   0.08782526  44.63 0.0005037451    1.484    0.326
       149 -10.1867     31.4269    214.2957   1.2970775775e+02   2.8828693653e+01    0.1664066    0.1433117  70.90 0.0006736109    1.386    0.278
       150  -9.3017    186.5065    213.9745   1.0304163730e+02   6.8683374403e+00    0.1362659    0.1150975 -30.25 0.0003762439    1.456    0.313
       151 -10.2353    171.2799    213.9729   1.0560886911e+02   9.3513033623e+00    0.2053302    0.1393514  47.17 0.0005029174    1.213    0.175
       152  -9.5387    165.8306    213.8974   1.0652800040e+02   1.0247404263e+01    0.1703427    0.1328632  29.11  0.000436251    1.280    0.219
       153  -9.7926    143.3821    214.3233   1.1045220626e+02   1.3792056601e+01    0.1938563    0.1148144  37.74 0.0005306009    1.542    0.352
       154 -10.7277     63.5184    213.2217   1.2425067327e+02   2.5356878787e+01    0.1969084    0.1433123  59.92 0.0004557288    1.087    0.080
       155  -9.6715     51.8422    212.7673   1.2620949092e+02   2.6829885082e+01     0.143158    0.1172702  66.80 0.0005357174    1.225    0.184
       156  -9.7558     41.0977    212.6577   1.2801321785e+02   2.8065111275e+01    0.1418838    0.1009062  59.14 0.0006016766    1.145    0.127
       157  -9.4106    154.6188    212.2372   1.0824264856e+02   1.2291156864e+01    0.1303143    0.1107466 -29.15 0.0003805633    1.544    0.352
       158  -9.3850     96.9481    212.5045   1.1838419802e+02   2.1058117669e+01    0.1596423   0.09070775  44.18 0.0005525234    1.495    0.331
       159 -10.0750     56.0656    216.8568   1.2576876450e+02   2.5653272675e+01    0.1647315    0.1138686  83.17 0.0007352313    1.252    0.202
       160  -9.8764     25.5208    210.4803   1.3048507577e+02   3.0079766046e+01    0.1385654    0.1196456 -74.12 0.0006387547    1.623    0.384
       161 -10.3465     18.1401    210.8307   1.3171232924e+02   3.0751961894e+01    0.1748511    0.1484942  43.30  0.001096046    1.628    0.386
       162  -8.9054    106.5644    210.4133   1.1648179888e+02   2.0013626123e+01    0.1118281   0.08883806  57.03 0.0001457043    1.055    0.053
       163 -10.5528     56.4441    209.8368   1.2522284925e+02   2.6782955038e+01    0.1690453    0.1235105  48.45 0.0005461411    1.336    0.251
       164 -11.5584     56.2538    202.0269   1.2469017534e+02   2.8152518748e+01    0.2118669    0.1618776 -83.20 0.0004627407    1.315    0.240
       165 -10.4566    145.2975    207.7611   1.0930375989e+02   1.4440064498e+01    0.3179124    0.1499266  40.60  0.001194105    1.825    0.452
       166  -9.5957    149.0486    205.4760   1.0834450529e+02   1.4166730112e+01    0.1755771    0.1244397  44.22  0.001132196    1.164    0.141
       167  -9.2105     93.4488    208.7920   1.1864796695e+02   2.2154717786e+01    0.1297375    0.1016848 -59.23 0.0005718384    1.614    0.380
       168  -9.4275    177.0975    208.1334   1.0380902689e+02   9.1607880619e+00    0.1642971    0.1313276  30.05 0.0003075423    1.167    0.143
       169 -10.8865    132.5456    206.9044   1.1146374012e+02   1.6607223497e+01    0.3418418     0.215523  39.90  0.001892377    1.435    0.303
       170 -11.1697    139.3116    203.6897   1.0985337803e+02   1.6017736686e+01    0.3577407    0.2469676  16.40  0.001359928    2.349    0.574
       171 -10.6709    145.2729    200.3701   1.0834680243e+02   1.5550845678e+01    0.3251621    0.1523961  47.17  0.001411805    1.766    0.434
       172  -9.7288     72.6760    207.8039   1.2223740505e+02   2.5115062290e+01    0.1471814    0.1116567  56.07 0.0005311898    1.152    0.132
       173 -10.1063    119.8360    216.6693   1.1480834826e+02   1.7075355731e+01    0.1820808    0.1720735  61.82 0.0007010087    1.279    0.218
       174 -10.6060    115.1154    206.7289   1.1456439226e+02   1.9331842120e+01    0.3191101    0.1570206  57.92  0.001716378    1.962    0.490
       175  -9.2258    120.2321    206.5748   1.1362912496e+02   1.8576990176e+01     0.154554   0.09582273  38.59 0.0005504763    1.551    0.355
       176 -10.3385     46.9596    206.3333   1.2662112743e+02   2.8487632916e+01    0.1763233    0.1487557  61.93 0.0004797864    1.308    0.236
       177 -10.7050    124.1171    205.9930   1.1286479699e+02   1.8069138444e+01    0.1867268    0.1346926  45.36  0.001241126    1.198    0.165
       178  -9.3056     32.0178    206.5091   1.2918902132e+02   3.0089950711e+01     0.138239   0.08190428  46.71  0.000423169    1.489    0.328
       179  -8.6587    183.5316    205.4907   1.0232616788e+02   8.4331097778e+00     0.119627    0.0961061  35.42 0.0001164191    1.045    0.043
       180  -9.8109     86.4675    204.9630   1.1953307695e+02   2.3761729037e+01    0.1834884    0.1405696  39.02 0.0005615042    1.475    0.322
       181 -10.7797      6.7677    203.9581   1.3327916413e+02   3.2988106689e+01    0.1779891    0.1738637  76.51 0.0009589484    1.737    0.424
       182 -10.9387    109.9958    201.4150   1.1490152890e+02   2.0968747392e+01    0.3295683    0.2186358 -85.63  0.002060557    1.754    0.430
       183  -9.0862    179.3977    202.4201   1.0258630051e+02   9.5336328019e+00    0.1180943   0.09680913  37.33 0.0001208491    1.027    0.027
       184 -10.9386    164.0883    200.5203   1.0499582887e+02   1.2385433157e+01    0.4945138    0.2084654  36.82   0.00206797    2.343    0.573
       185  -9.1251     20.8641    202.3850   1.3085945239e+02   3.1936745287e+01    0.1159355   0.08736086  39.92 0.0005341694    1.630    0.386
       186  -9.9308    198.2649    201.1220   9.9161307662e+01   6.5097187796e+00    0.1678231    0.1361368  22.50 0.0004185195    1.141    0.124
       187  -9.2265    186.9920    201.0225   1.0106638039e+02   8.4316976061e+00    0.1409471    0.1141125  37.29 0.0009499589    1.009    0.009
       188  -9.8065     90.7595    200.7627   1.1835074580e+02   2.3880329618e+01    0.1562543    0.1328977  64.18  0.000784414    1.141    0.124
       189  -9.6615    132.2441    199.8092   1.1064166834e+02   1.7760863920e+01    0.2082527    0.1425077  23.18  0.001187584    2.069    0.517
       190  -9.1190     98.4884    200.5383   1.1691337046e+02   2.2815750840e+01    0.1140625   0.09299502  60.85 9.100126e-05    1.066    0.062
       191 -10.1908     69.3246    200.3882   1.2221616948e+02   2.6822745383e+01    0.1332311    0.1307659   1.59 0.0005923805    1.632    0.387
       192 -10.0323    202.9382    180.1190   9.4883245084e+01   8.4094100604e+00    0.3684189    0.2423601 -54.15  0.001642453    2.237    0.553
       193 -11.0919    211.1028    180.0213   9.3462896067e+01   6.9590372484e+00    0.3417292    0.2445397 -18.61  0.001033316    1.537    0.349
       194 -10.5467    205.0561    175.1777   9.3633856096e+01   8.6900050714e+00    0.2451126    0.1907032   0.65 0.0008179744    1.388    0.280
       195 -10.2623    210.0085    174.0809   9.2577824385e+01   7.9340515974e+00    0.3137018    0.1981526  46.69 0.0009379538    1.479    0.324
       196 -10.3361    202.7367    194.8110   9.7401574059e+01   6.5383546255e+00    0.3010797    0.1977523  10.17  0.001165343    1.916    0.478
       197 -11.1863    207.2764    188.0863   9.5515008586e+01   6.6019879330e+00    0.6140656    0.3154018  27.78  0.002598455    2.201    0.546
       198 -10.7276    209.8780    198.1670   9.6747621639e+01   4.9112346856e+00    0.2601499    0.2166639 -55.23  0.001198795    1.737    0.424
       199 -10.5973    209.2075    192.3825   9.5910937594e+01   5.7295776107e+00    0.2934426    0.2156658  12.01  0.001200952    1.416    0.294
       200  -9.1989    138.6887    199.2621   1.0939567031e+02   1.6802259629e+01    0.1178107   0.07976212  64.57            0    1.534    0.348
       201  -9.9891     41.9875    199.1784   1.2701864308e+02   3.0298631667e+01    0.1426548    0.1232654  74.90 0.0005459978    1.308    0.236
       202 -10.2732    103.2240    198.0759   1.1577753521e+02   2.2539937700e+01    0.2728268    0.1496085  42.54 0.0008420953    1.624    0.384
       203  -8.9667     80.6682    198.7422   1.2000311492e+02   2.5620088912e+01   0.09483821   0.08641958  30.08 0.0002442375    1.566    0.361
       204 -10.5772     75.5269    197.4734   1.2082953290e+02   2.6529246216e+01    0.1858372   0.08953066 -56.35   0.00103404    2.502    0.600
       205 -10.0815     49.4671    198.0830   1.2561213602e+02   2.9647315943e+01    0.1626355     0.136667  49.57 0.0005242454    1.406    0.289
       206 -10.4963    215.6233    195.9657   9.5437667262e+01   4.2051401648e+00    0.2376029    0.1908029  -5.11 0.0007455841    1.297    0.229
       207  -9.4530    169.8031    195.9872   1.0331817226e+02   1.2060307998e+01    0.1630698    0.1401565  43.50 0.0004627126    1.037    0.035
       208 -10.5880    157.6096    194.6740   1.0531935048e+02   1.4342298246e+01    0.3094571    0.2119342 -40.79  0.001632933    1.789    0.441
       209  -9.7352    149.0904    196.5031   1.0712833546e+02   1.5506564460e+01    0.1829568    0.1015456  43.04 0.0004886381    1.522    0.343
       210 -10.0323     89.0410    195.9400   1.1818310107e+02   2.4956536451e+01    0.1729222     0.140451  63.95 0.0004602709    1.061    0.057
       211 -10.2484    161.1098    208.5804   1.0663464898e+02   1.1743882141e+01    0.2169961    0.1623687  33.53 0.0007209987    1.268    0.211
       212  -9.8409    184.2967    194.7021   1.0056069713e+02   9.7365851741e+00    0.1599082    0.1201049  25.96  0.000485701    1.306    0.235
       213  -9.3326    176.4384    195.4932   1.0206548886e+02   1.0986942912e+01      0.12164    0.1018761  39.94  0.000105586    1.008    0.008
       214  -8.8276    140.3486    195.2870   1.0856381192e+02   1.7153399942e+01    0.1157379   0.08942637  21.40 0.0007022475    1.658    0.397
       215  -9.7104    113.1708    193.8640   1.1344102084e+02   2.1750134482e+01     0.145786    0.1328041  40.74 0.0003640665    1.302    0.232
       216 -10.5310     81.5841    193.6778   1.1934803453e+02   2.6388965258e+01     0.219308    0.1150089  47.83 0.0006072114    1.593    0.372
       217 -10.1626     74.4240    193.7475   1.2069129060e+02   2.7337177244e+01    0.1387461   0.09792139 -64.49 0.0005769571    1.595    0.373
       218  -9.6359    219.9521    193.2313   9.4270673485e+01   3.7969190173e+00    0.1735716    0.1290904  30.74 0.0004313282    1.104    0.094
       219  -9.3388     36.2198    192.8169   1.2763113761e+02   3.2068948961e+01    0.1282159    0.1084536  89.67 0.0004648821    1.322    0.243
       220 -10.2259    151.6075    191.4718   1.0595451950e+02   1.5856391925e+01    0.2172187    0.1919815  33.56 0.0006713041    1.176    0.149
       221 -10.3569    224.5795    190.2078   9.3000609473e+01   3.3681825381e+00    0.2226498    0.2065545  -4.50  0.001613619    1.265    0.210
       222 -10.3227    162.1772    190.3987   1.0385587472e+02   1.4198771437e+01     0.194853    0.1828369 -89.33 0.0004778181    1.232    0.188
       223 -11.3173    159.0407    186.7284   1.0387535524e+02   1.5305927814e+01     0.365142    0.2373577  43.12  0.002115965    1.321    0.243
       224  -9.8233     96.6298    189.0016   1.1600950540e+02   2.5092103363e+01    0.2800327    0.1331754 -66.72  0.001028442    2.319    0.569
       225 -10.8050     73.5939    189.0260   1.2040293686e+02   2.8300908089e+01    0.2425214    0.1432682  82.70 0.0008279815    1.722    0.419
       226  -8.8805    194.3999    192.5055   9.8453881601e+01   8.2759669319e+00      0.12059     0.102002  32.55 0.0001063696    1.021    0.021
       227 -10.0317     14.9349    188.9517   1.3120888306e+02   3.4899157549e+01    0.2505136     0.117141 -77.54  0.001636561    1.856    0.461
       228  -9.9829    199.5637    188.9284   9.6975318851e+01   7.8434268238e+00    0.2018395    0.1440428  32.19 0.0004077876    1.223    0.182
       229  -9.4912    172.5202    188.9978   1.0176141898e+02   1.2597669962e+01    0.1568571    0.1240246 -37.97 0.0003609179    1.491    0.329
       230  -9.2695     64.4946    189.5725   1.2217222829e+02   2.9373851716e+01    0.1118597   0.08780693  69.91 5.380961e-05    1.041    0.039
       231  -9.0640    179.3199    188.2373   1.0041818909e+02   1.1508157760e+01    0.1208566   0.08457894  25.71 0.0002447153    1.513    0.339
       232 -10.1537    116.2597    187.8114   1.1210909128e+02   2.2304668122e+01     0.357439    0.1837112  38.74  0.001391067    1.911    0.477
       233  -9.7754     77.5316    188.5448   1.1960770167e+02   2.7863754831e+01    0.1167181   0.09021361  68.85  2.32143e-05    1.025    0.024
       234  -9.8747    215.1752    186.7633   9.3958111439e+01   5.3920419246e+00    0.1749314    0.1477463  36.12 0.0006148972    1.136    0.120
       235  -9.9203    127.1568    185.7814   1.0975450496e+02   2.0894232714e+01    0.3322798    0.1487855  35.98  0.001505518    2.491    0.599
       236  -8.9677     20.5533    186.4630   1.3007146543e+02   3.4824093953e+01    0.1025198   0.07699447  78.24 0.0001313133    1.097    0.089
       237 -10.0989    166.8994    184.5629   1.0208687095e+02   1.4251651435e+01    0.1871935    0.1685102  -6.24 0.0005125353    1.301    0.231
       238  -8.9796     80.6726    184.7093   1.1861514010e+02   2.8140501275e+01   0.09822509   0.09356366  -6.16 0.0003542806    1.619    0.382
       239  -9.4342     34.8819    184.5107   1.2732295320e+02   3.3741677800e+01    0.1449531   0.09211076  44.75 0.0008317217    1.525    0.344
       240  -9.2782    140.4380    183.4495   1.0688389145e+02   1.9056917595e+01    0.1239817    0.1064939  53.12 4.093055e-05    1.015    0.015
       241  -9.5353     67.1179    182.6910   1.2104054913e+02   3.0317351752e+01    0.1564194    0.1226389  62.05 0.0005165374    1.108    0.098
       242  -9.2727    224.0225    181.9534   9.1645152430e+01   4.4419463241e+00    0.1431644    0.1186446  21.95 0.0003485836    1.008    0.008
       243  -8.9328    218.2566    181.6909   9.2553961175e+01   5.4812832315e+00     0.104285   0.09793469  87.49 0.0002497312    1.521    0.343
       244  -9.4565    184.2535    180.9566   9.8332588615e+01   1.1669897254e+01    0.1664387     0.147303  24.22 0.0003693574    1.093    0.085
       245  -8.9232      9.4900    181.5750   1.3181194219e+02   3.6749879764e+01    0.1023069   0.07362885  76.34 0.0001713248    1.047    0.045
       246 -10.5684    175.1490    179.5132   9.9746297346e+01   1.3533071417e+01    0.2433192    0.2278905 -44.26 0.0009736851    1.241    0.194
       247  -9.4685     55.5026    179.9947   1.2304786310e+02   3.2269686705e+01    0.1556611   0.09617766 -75.82 0.0005290702    1.511    0.338
       248  -9.4031    235.8030    179.1485   8.9226691102e+01   2.7418937952e+00    0.1672162     0.118516  15.11 0.0003720575    1.316    0.240
       249 -10.6706    160.1795    179.6174   1.0254892142e+02   1.6218072736e+01    0.1836626    0.1057278  37.43  0.000503006    1.660    0.398
       250 -10.0614     61.2379    177.7233   1.2171924793e+02   3.2002651720e+01    0.2871713    0.1547918 -89.39  0.001635676    1.887    0.470
       251  -8.9833    231.2470    178.3014   8.9804996641e+01   3.6253528905e+00    0.1198459   0.08156535  12.13 0.0002237256    1.493    0.330
       252  -9.7816    191.0311    176.9747   9.6429181086e+01   1.1006493895e+01    0.1906317    0.1628505  28.68 0.0003742737    1.055    0.052
       253  -9.1595    104.7063    191.6418   1.1477451805e+02   2.3425092152e+01    0.1040176   0.09418008  -8.40 0.0003610807    1.695    0.410
       254 -10.2550    101.0995    176.0253   1.1357930663e+02   2.6787194713e+01    0.2043113    0.1483735  71.07  0.001263771    1.292    0.226
       255  -9.2197     69.3199    177.3342   1.2008300792e+02   3.1048030920e+01    0.1022201    0.0907063 -40.37 0.0007049319    1.700    0.412
       256  -9.3115    169.4972    176.4699   1.0028368311e+02   1.5026988607e+01    0.1284964    0.1116329  40.23 0.0001056995    1.025    0.025
       257  -9.8927    140.1396    175.4290   1.0573717527e+02   2.0462814682e+01    0.2591522    0.1421989 -35.06   0.00117511    2.763    0.638
       258  -9.3800    125.5248    176.4821   1.0877050213e+02   2.2782140250e+01    0.1263274    0.1075971  61.91 0.0004317384    1.019    0.019
       259  -9.4651    219.4624    175.0484   9.1150137513e+01   6.1007834164e+00    0.1638772    0.1190598 -24.80 0.0003537474    1.461    0.315
       260 -11.0963    197.5932    174.1016   9.4749453240e+01   1.0206915157e+01    0.2643258    0.2331151 -74.63  0.001669116    1.554    0.356
       261  -9.4112    182.8894    174.1269   9.7403119817e+01   1.2920565369e+01    0.1710688    0.1393887  20.34 0.0003793406    1.264    0.209
       262 -11.0914    161.7576    173.9914   1.0132875256e+02   1.6832526986e+01    0.2446472    0.1684013  37.29  0.000511581    1.372    0.271
       263  -9.0622    129.2505    173.0123   1.0752007315e+02   2.2768731798e+01     0.145863    0.1078494 -57.99 0.0003333268    1.489    0.328
       264 -11.6893    235.0481    238.5267   9.8819563059e+01  -3.1692240293e+00    0.6401524    0.1536112  40.09  0.002918672    3.069    0.674
       265 -10.6244    154.0093    172.5235   1.0257298129e+02   1.8482849653e+01    0.2064116    0.1137599  44.79 0.0007834781    1.603    0.376
       266  -9.0697     24.5037    172.3942   1.2847415046e+02   3.7100183127e+01    0.1059081   0.08073635  77.86 0.0001876399    1.066    0.062
       267 -10.1398    225.8508    170.8216   8.9298361975e+01   5.4881304256e+00    0.1873042    0.1429075  20.50 0.0004345682    1.178    0.151
       268 -10.3456    192.9830    171.0991   9.5029341641e+01   1.1489148393e+01    0.1966215    0.1682795  30.09 0.0004330099    1.039    0.038
       269  -9.8345    188.1565    170.8213   9.5852659780e+01   1.2431117592e+01    0.1782012    0.1376185  23.34 0.0004124941    1.314    0.239
       270  -8.9064     76.4767    171.4659   1.1801756587e+02   3.1225772922e+01    0.1187708   0.09847666  74.39 0.0004582361    1.039    0.037
       271 -10.6626    201.0245    170.2466   9.3438595171e+01   1.0111780421e+01    0.1796795    0.1525123  30.69 0.0003218472    1.026    0.025
       272  -8.8982     44.6599    170.6947   1.2438047362e+02   3.5326792235e+01   0.09864175   0.08442176 -50.79 0.0007041005    1.679    0.405
       273  -9.0122     46.6787    175.3167   1.2437035661e+02   3.4198572267e+01     0.120652    0.0650357  68.24 0.0007041915    1.662    0.398
       274  -9.8920    158.4898    168.9635   1.0110701168e+02   1.8255230269e+01    0.1759013    0.1302867 -45.85 0.0004659473    1.519    0.342
       275 -10.0918    143.4816    169.4831   1.0413734084e+02   2.0898228868e+01    0.1288895    0.1147535  51.13 0.0002510997    1.037    0.036
       276 -10.0658    213.1733    160.3384   8.9421303008e+01   9.2046567203e+00    0.2164336    0.1665922   1.13 0.0004164622    1.366    0.268
       277 -10.4889    210.7555    166.0744   9.0951587009e+01   8.8738324623e+00     0.481314    0.3773735 -84.06  0.002614533    2.223    0.550
       278 -10.8839    205.2333    166.8874   9.2069054594e+01   9.7949998389e+00    0.2643374     0.207197  -4.51 0.0004047434    1.376    0.273
       279  -9.9801    200.0928    162.5240   9.2148208179e+01   1.1387229545e+01    0.2134882    0.1683997   9.93 0.0005993382    1.347    0.258
       280 -11.7472    205.9105    158.5167   9.0331958552e+01   1.0847887668e+01    0.5464976    0.3489384  -2.99  0.001553141    2.174    0.540
       281 -10.2744    206.0377    152.4655   8.9095751126e+01   1.1696172611e+01     0.235048     0.179175  -6.86  0.000443764    1.438    0.304
       282  -9.4956    134.8707    167.8397   1.0559329738e+02   2.2717734731e+01     0.184204    0.1684933  27.97 0.0004632059    1.255    0.203
       283  -9.8194    150.4241    166.7538   1.0230998692e+02   2.0112099001e+01    0.1581091    0.1264887 -33.94 0.0002851744    1.498    0.332
       284  -9.0131    140.5959    166.7956   1.0427389434e+02   2.1886474665e+01    0.1632378    0.1221568 -69.27 0.0005913844    1.550    0.355
       285  -8.6017     84.7003    167.3070   1.1583543919e+02   3.0887832482e+01    0.1263845   0.07988209  71.97 0.0003491003    1.594    0.373
       286 -10.2876    218.9094    165.3234   8.9411007767e+01   7.4589786491e+00    0.2088198    0.1704298  -3.28 0.0003756741    1.209    0.173
       287  -9.2885    179.0417    166.4896   9.6749554306e+01   1.4803724961e+01    0.1914957    0.1166965  43.69 0.0003453201    1.464    0.317
       288  -9.6002    169.7697    166.4432   9.8494751347e+01   1.6563388979e+01    0.1792879    0.1140515  37.06 0.0002765881    1.506    0.336
       289  -9.6828    191.9894    162.6639   9.3640458808e+01   1.2917972794e+01    0.1851458    0.1486205  38.55 0.0003857144    1.116    0.104
       290  -9.3573    185.0052    163.4783   9.5080882937e+01   1.4133183113e+01    0.1950416    0.1180401  44.29 0.0003754714    1.485    0.327
       291  -9.4143    111.0319    163.0683   1.0975676738e+02   2.7664422418e+01    0.1527863    0.1351866  79.61 0.0004844258    1.052    0.049
       292  -8.9512     80.5337    163.5185   1.1624145202e+02   3.2227691561e+01     0.122844    0.1016767  76.00 0.0001943656    1.002    0.002
       293 -12.6076    247.6569    204.1499   9.1717934470e+01  -1.8500020426e+00     1.198779    0.5658259  -0.25   0.00519648    3.901    0.744
       294  -9.9289    221.0712    159.5868   8.7923155541e+01   7.8163052894e+00     0.226059    0.1805371 -46.19 0.0009147577    1.571    0.363
       295 -10.5977    153.0032    160.2430   1.0066549360e+02   2.0760799431e+01     0.186373    0.1612418  48.48 0.0003393209    1.049    0.047
       296 -10.4342     53.4469    158.3744   1.2140920334e+02   3.6782312735e+01    0.3342757    0.1696658  37.27  0.001350229    2.088    0.521
       297 -10.3682    250.4595    156.7921   8.2624616897e+01   2.8054115762e+00    0.2849499    0.1321581 -25.90  0.001100289    2.120    0.528
       298 -10.1514    158.8393    158.2056   9.9132877605e+01   2.0009433406e+01     0.176767    0.1525169  19.34 0.0003716769    1.297    0.229
       299  -9.6216    141.2053    157.4395   1.0256388838e+02   2.3455714655e+01    0.3178615    0.1964369  70.04  0.001470803    2.217    0.549
       300  -8.5915    176.6724    156.6923   9.5364760308e+01   1.6816150939e+01    0.1362447    0.1009431  15.64 0.0002922582    1.656    0.396
       301  -8.7493     99.2759    156.2955   1.1125701865e+02   3.0878559624e+01    0.1114383    0.1016137 -23.84 0.0003042539    1.528    0.346
       302 -12.3996    246.2730    127.1785   7.6960406525e+01   7.2523370966e+00     1.091456    0.5686978   1.36  0.004164712    3.290    0.696
       303 -10.6883    226.1880    154.8473   8.6113392996e+01   7.4821434770e+00    0.1861973     0.174072  17.59 0.0007857413    1.150    0.131
       304 -10.4009    221.5176    150.5799   8.6022819110e+01   8.9468101989e+00    0.2991256    0.1685752 -29.93 0.0009047774    1.819    0.450
       305  -9.5186    197.2671    154.7395   9.1131950336e+01   1.3081835466e+01     0.177271    0.1426569  13.54 0.0003764586    1.298    0.230
       306  -8.7109    110.3009    155.2871   1.0872314237e+02   2.9296642433e+01    0.1159886    0.1043453  -3.24  0.000210116    1.558    0.358
       307 -10.7575    215.3675    152.7415   8.7518411770e+01   9.8372990351e+00    0.7895458     0.477216 -64.27  0.002982281    4.238    0.764
       308 -11.2444    210.7628    150.2224   8.7801783762e+01   1.1092353476e+01    0.8511104     0.362729  28.59  0.002803006    4.153    0.759
       309  -8.8953    192.7005    152.6677   9.1553937940e+01   1.4297242942e+01    0.1377156    0.1001061  12.50 0.0003206511    1.648    0.393
       310 -10.5540    227.7790    150.6928   8.4997465315e+01   7.7309824335e+00    0.2398604    0.1992236  35.41 0.0006923859    1.151    0.131
       311 -10.7499    145.1343    149.2720   1.0026727971e+02   2.4217572884e+01    0.3862182    0.2501012 -48.49  0.001600239    1.654    0.395
       312  -9.0178    108.2557    151.3516   1.0854227275e+02   3.0416051307e+01    0.1196953     0.102258 -28.56 0.0003598312    1.602    0.376
       313  -8.9317    157.6295    150.7422   9.7975298819e+01   2.1544393828e+01    0.1362322    0.1024645  20.92  0.000654394    1.646    0.392
       314  -9.2978    202.5071    149.5279   8.9125164310e+01   1.2826361562e+01    0.1355624    0.1213868  23.02 0.0001704978    1.014    0.014
       315  -8.8517    197.2638    147.7024   8.9699875289e+01   1.4149987620e+01    0.1233295    0.1079144 -81.36 0.0001644647    1.512    0.338
       316 -11.0570    160.2033    145.1627   9.6358410276e+01   2.2027138041e+01    0.3813307     0.241916 -64.33  0.001457609    2.176    0.540
       317  -8.9787     98.4966    146.5044   1.0993300127e+02   3.2984670632e+01    0.1302931    0.1147164  79.19 6.612897e-05    1.005    0.005
       318  -9.6787    119.2109    144.8965   1.0504147051e+02   2.9829337604e+01    0.3080203     0.242878  -3.39  0.001614682    2.049    0.512
       319 -10.9109     36.7592    145.1877   1.2372190545e+02   4.1372969598e+01    0.2823458    0.1405296  44.89   0.00162113    1.922    0.480
       320 -10.4016    235.0465    143.9304   8.2389567618e+01   7.2358483018e+00    0.2508825     0.170695  36.27 0.0005222915    1.381    0.276
       321  -9.4080    223.5228    144.5230   8.4414413175e+01   9.3882454380e+00    0.1351614    0.1176145  13.94 0.0002699746    1.029    0.028
       322  -9.8989    208.5084    142.9940   8.6681170351e+01   1.2594398629e+01     0.191736     0.131658 -30.39 0.0003799376    1.498    0.332
       323  -9.0463    113.6699    142.3738   1.0582936376e+02   3.1304902138e+01    0.1444604   0.09778889  80.67 0.0007026488    1.837    0.456
       324 -11.0570     25.3145    143.3256   1.2609766696e+02   4.2888236851e+01    0.2922678    0.1474055  69.36  0.001004171    1.880    0.468
       325 -10.2236     29.7218    141.0747   1.2490769977e+02   4.2944016059e+01    0.1593489    0.1187765 -87.94 0.0003823387    1.067    0.063
       326 -11.1356    238.5222    139.1423   8.0805808277e+01   7.1957315456e+00    0.2824492    0.2112393 -35.56 0.0005343676    1.431    0.301
       327  -9.3433     18.9496    140.7584   1.2729588571e+02   4.4000672751e+01    0.1255188   0.08957144  40.74 0.0006428015    1.581    0.368
       328 -10.0303    131.2969    139.0556   1.0128842331e+02   2.8783739566e+01    0.1861787    0.1716699 -70.58 0.0005263058    1.101    0.092
       329 -13.1607    236.1567    124.0563   7.7820315085e+01   9.6772032147e+00     1.294567    0.9857734  24.30  0.007246478    1.295    0.228
       330 -10.1356    166.4314    136.6760   9.3334640219e+01   2.2274642489e+01     0.322933     0.172851 -47.93  0.001227498    2.036    0.509
       331  -9.2351    218.5669    135.5480   8.3309478777e+01   1.1642223294e+01    0.1345293    0.1245526   9.60 3.427516e-05    1.047    0.045
       332 -10.5781    216.3399    133.2484   8.3180733364e+01   1.2431064443e+01     0.390644    0.2079575  25.29  0.001577947    2.604    0.616
       333  -9.6491    109.6429    138.7547   1.0609897931e+02   3.2737077407e+01    0.1917485    0.1629867 -44.20 0.0006272245    1.360    0.265
       334  -8.7168    198.4644    134.4898   8.6643077289e+01   1.5956401106e+01    0.1394511    0.1292131  19.30 0.0008095148    1.007    0.007
       335 -13.6845    245.9792    106.9319   7.2308340328e+01   9.9782713649e+00     1.618718     1.109689  22.94  0.008365852    1.598    0.374
       336  -9.4282     38.8150    131.4285   1.2179097580e+02   4.4102332514e+01    0.1353082     0.117983  20.49 0.0004496233    1.611    0.379
       337  -8.8735     80.6384    130.6813   1.1155098259e+02   3.9059457352e+01    0.1246016    0.1016399 -27.83 0.0004488624    1.769    0.435
       338 -10.8073    102.9820    125.4427   1.0519222825e+02   3.6661742907e+01    0.3579835    0.2726917 -11.35  0.001199458    2.214    0.548
       339  -9.6663     32.5483    128.4601   1.2296731932e+02   4.5376363716e+01    0.1175131   0.09361947 -84.65 9.312285e-05    1.063    0.059
       340 -11.4603    221.4370    125.6503   8.0588117113e+01   1.2480370939e+01    0.2943526    0.2477105 -26.81  0.001684616    1.180    0.153
       341  -9.0741    146.0024    123.2562   9.4728183001e+01   2.8980834027e+01    0.1896163    0.1201689  47.73  0.000881941    1.539    0.350
       342 -11.0554      5.5928    121.2178   1.2879408351e+02   4.9205805107e+01    0.3067259    0.1535529 -71.31  0.001116909    1.578    0.366
       343  -9.0737    153.5775    122.4456   9.2887701212e+01   2.7562708920e+01    0.1405517    0.1374992  40.29 2.437357e-05    1.038    0.037
       344 -10.4474     17.1562    115.3455   1.2538764683e+02   4.9605599507e+01    0.1866048    0.1141391  11.47  0.001092776    2.648    0.622
       345 -10.6780     90.2702    112.5291   1.0581026585e+02   4.1556190906e+01     0.253593    0.2263591 -56.02 0.0004142791    1.157    0.136
       346 -11.0038      5.5337    111.9712   1.2801914288e+02   5.1203063122e+01    0.1751787    0.1516362 -43.03 0.0007644353    1.544    0.352
       347 -11.6146     27.4000    106.7957   1.2170365416e+02   5.0635884225e+01    0.4386285    0.2739291 -41.91  0.001912681    2.053    0.513
       348  -9.4084     18.3031    109.3102   1.2444116737e+02   5.0841673704e+01    0.1125521   0.07414303 -53.44 0.0002842765    1.608    0.378
       349 -10.2371      2.0468    108.9532   1.2864296314e+02   5.2088962398e+01    0.2114448    0.1138904 -63.10 0.0007807043    1.617    0.382
       350 -10.5358      3.0000    105.0057   1.2803912288e+02   5.2885526309e+01    0.1819012    0.1216821  82.62 0.0006328254    1.244    0.196
       351 -12.8034    218.9949    222.9622   9.9068356770e+01   6.8998455406e-01     1.059512    0.7675958  82.64   0.00563357    3.849    0.740
       352  -9.6649     12.8325    105.8792   1.2551686242e+02   5.2017945799e+01    0.1609535    0.1090902  77.33 0.0005396791    1.331    0.249
       353 -10.1622     60.6232    103.9949   1.1210935994e+02   4.7714448654e+01    0.3789724    0.2137016 -75.38  0.001880915    1.801    0.445
       354  -9.6220      9.2857    104.3537   1.2630435118e+02   5.2607816355e+01    0.1148713   0.06802813 -55.76 0.0005964522    1.667    0.400
       355 -10.0277     89.2950    102.9384   1.0403060090e+02   4.3824341899e+01    0.2154033    0.1952447  54.55 0.0005917284    1.175    0.149
       356 -12.0015    223.5046    213.4562   9.6945003467e+01   9.7219558279e-01    0.6521404    0.3855142  23.15  0.004008437    1.626    0.385
       357 -10.3058     69.0088    100.7357   1.0914083295e+02   4.7344766937e+01    0.1774932    0.1606666 -85.66 0.0003520741    1.064    0.060
       358 -11.6724      6.3539     95.1892   1.2613007459e+02   5.4823413450e+01    0.3875815    0.1818709  79.93  0.002022386    2.257    0.557
       359 -10.9517     25.0235     98.8526   1.2130116608e+02   5.2619159174e+01    0.3392457    0.1685214 -56.44  0.001525189    1.794    0.443
       360  -9.1989    106.1801     98.7685   9.8559735429e+01   4.1824523203e+01    0.2437598    0.1532521  86.92 0.0009532468    2.812    0.644
       361 -10.0789     44.2825     97.2917   1.1554057573e+02   5.1133549975e+01    0.3611988    0.1559322 -62.06  0.001737565    1.889    0.471
       362 -10.2733    214.2527     97.4557   7.4916673160e+01   1.8249802619e+01    0.2684475     0.196025 -29.41  0.000673877    1.317    0.241
       363 -10.5618     87.0910     96.1974   1.0310064413e+02   4.5666436415e+01    0.3258849    0.2767992 -29.58  0.001368193    1.406    0.289
       364  -9.6047    147.9988     95.9904   8.7550624125e+01   3.3844460049e+01     0.218458    0.2167421   8.97 0.0004027453    1.035    0.034
       365 -10.6393     39.4275     94.0858   1.1640489904e+02   5.2362037583e+01    0.2420458    0.2083935  -1.67  0.001019682    1.607    0.378
       366 -11.0571     44.4025     90.9597   1.1437193287e+02   5.2553925960e+01    0.3980555    0.2625506  80.53  0.001497136    1.729    0.422
       367  -9.9601     68.8955     93.8585   1.0773405391e+02   4.8905562197e+01    0.2036703    0.1669171 -49.95 0.0009316403    1.218    0.179
       368 -11.5091     20.3645     93.9157   1.2195835871e+02   5.4105974724e+01    0.3423515    0.1799977  19.10  0.001884665    2.700    0.630
       369 -11.0687     13.4723     90.4984   1.2351578161e+02   5.5383830445e+01    0.2082237    0.1232568 -67.55   0.00128892    1.316    0.240
       370  -9.3817     35.2995     91.5793   1.1720152904e+02   5.3333657078e+01     0.135084    0.1214861  -5.89 0.0004891637    1.497    0.332
       371  -9.6586     23.9439     88.0451   1.2004122422e+02   5.5136694566e+01    0.1883267     0.118504 -45.88 0.0007113609    1.714    0.416
       372 -11.5361      6.6024     86.7738   1.2507897724e+02   5.6668676278e+01    0.3776772    0.1110441 -62.87  0.001783671    2.391    0.582
       373 -12.4606    238.7328     81.9167   6.7133702903e+01   1.4922272712e+01    0.6440994    0.2320428 -39.09  0.002367811    2.613    0.617
       374 -10.9280     11.1924     85.8690   1.2358544515e+02   5.6572139549e+01     0.230665    0.1023408 -54.38 0.0009977442    1.993    0.498
       375 -10.0304    229.8787     84.4049   6.9056682945e+01   1.6580820886e+01    0.2867201    0.1797663 -42.85 0.0008689214    1.619    0.382
       376  -9.4097    202.0225     84.6764   7.3596510404e+01   2.3089989012e+01    0.2056352     0.190991  43.57 0.0004780649    1.099    0.090
       377 -10.4045      2.1606     82.4370   1.2588948427e+02   5.7892647653e+01    0.3028908    0.1407406  81.40  0.001561723    2.343    0.573
       378 -11.0489    243.0668     81.5470   6.6438961086e+01   1.4007465700e+01      0.26678    0.1869121  -6.45 0.0008735408    1.535    0.349
       379 -10.5408     37.2069     80.2523   1.1454938140e+02   5.5707259237e+01    0.4209975    0.1842068 -44.18  0.001917592    2.557    0.609
       380 -11.2629     61.1927     79.6413   1.0680934175e+02   5.3121170799e+01    0.3708844    0.2640182  23.82  0.002063068    1.810    0.447
       381 -11.5610     45.6743     79.1725   1.1162048622e+02   5.5077685511e+01    0.4107505    0.2997934  41.89  0.002281394    1.586    0.369
       382 -10.2591     80.2050     76.7551   1.0018748433e+02   5.1023793178e+01    0.1838458    0.1544071 -30.73 0.0004481014    1.308    0.235
       383 -11.3923      6.5724     74.6663   1.2348058353e+02   5.9354035442e+01    0.3914096    0.2158747  48.64  0.002359736    2.121    0.529
       384 -10.5465    125.1207     74.0281   8.6746520204e+01   4.3148172891e+01    0.2290272    0.2149565  52.67 0.0003017396    1.109    0.098
       385  -9.0714    223.9839     71.9826   6.6615325237e+01   1.9706695393e+01    0.1722374    0.1642844 -16.03 0.0003530788    1.020    0.020
       386 -11.7886     53.1869     70.9736   1.0725878663e+02   5.6047733719e+01    0.3613578    0.3067725  78.66  0.001795443    1.325    0.245
       387 -10.5805      9.9619     71.3861   1.2187215793e+02   5.9873139913e+01    0.2986327    0.1734358  70.93  0.001563262    2.032    0.508
       388 -11.0070    228.2262    217.7257   9.6854008288e+01  -2.0195606918e-01    0.2349662    0.1733411  19.40 0.0005379558    1.148    0.129
       389 -11.0087    101.7960     68.1903   9.1252474413e+01   4.9059767133e+01    0.2755384    0.2215764 -35.34 0.0003443559    1.220    0.180
       390 -10.5252      6.7975     66.4041   1.2214696745e+02   6.1167573980e+01    0.1668684    0.1425213 -23.91 0.0006935039    1.491    0.329
       391 -10.7862     43.6643     64.5016   1.0886317982e+02   5.8559709822e+01    0.3600071    0.1649323 -50.30  0.001744621    1.832    0.454
       392 -11.8747    247.6567     61.5642   6.0685747496e+01   1.5594549530e+01    0.4294964    0.2760895 -22.92  0.002128027    1.448    0.309
       393 -12.5206      5.5487     56.4741   1.2088553311e+02   6.3418764871e+01    0.8083093    0.6436197 -76.33  0.005927498    1.109    0.098
       394 -11.9986     16.6965     51.6454   1.1566085286e+02   6.3768657626e+01    0.5461677    0.2693946 -68.85  0.001224527    1.703    0.413
       395 -10.3146      8.9222    248.3770   1.3450216809e+02   2.5727894192e+01    0.1473121   0.09879784  83.00 0.0004505226    1.311    0.237
       396 -12.0547     30.5498     38.1457   1.0630871024e+02   6.5495735387e+01    0.7651384    0.5487671 -19.87   0.00366145    1.611    0.379
       397 -10.7602     23.4311     34.8590   1.0829012168e+02   6.6802463733e+01    0.2551821    0.2085152 -28.12 0.0006306259    1.259    0.205
       398 -11.3001     30.8576     30.2000   1.0341936658e+02   6.7065013764e+01    0.6843088    0.3704521   5.71  0.003327723    3.065    0.674
       399 -11.0547    157.4152    245.6894   1.1167779449e+02   7.5611158465e+00    0.4583074    0.2232851  36.30   0.00278296    1.813    0.448
       400 -10.5362    154.8539    241.1696   1.1160169609e+02   8.4798488311e+00    0.2648862    0.1942534  13.42  0.001853407    1.963    0.490
       401 -11.2928    170.1091    240.1806   1.0906109369e+02   6.3112053933e+00    0.4199741    0.2314826  28.99  0.001806027    1.992    0.498
       402 -11.2837     47.6574     58.9327   1.0596676203e+02   5.9329397783e+01    0.2924789    0.1479672 -57.17  0.001451795    1.664    0.399
       403 -11.5459     45.4150     53.9728   1.0535825857e+02   6.0648016445e+01    0.4177744    0.2530663 -34.73  0.002219346    1.797    0.444
       404 -12.1126     84.3379     55.8305   9.2490300067e+01   5.4714037650e+01    0.5295924    0.3222513 -68.04  0.001934648    2.560    0.609
       405  -9.5552     39.1816     57.6080   1.0867001024e+02   6.0535544661e+01    0.1524566    0.1194379  -0.14 0.0006339296    1.659    0.397
       406  -9.4891     31.3460     57.3081   1.1147559053e+02   6.1356860228e+01    0.1945776    0.1162101 -40.76  0.001089662    1.668    0.401
       407 -10.9091     26.4768     55.7486   1.1290477588e+02   6.2122101819e+01    0.3776528    0.2115032  23.10  0.001119165    2.288    0.563
       408 -10.3017    250.4829     54.9438   5.8632048870e+01   1.5786779567e+01    0.2162871    0.1258705 -25.92 0.0006497841    1.554    0.357
       409 -11.8488    245.3154     55.0140   5.9247652601e+01   1.6957080812e+01    0.3343292    0.2395403  52.96  0.001750234    1.505    0.336
       410 -10.5865     50.9457     50.5965   1.0227960652e+02   6.0710397988e+01    0.2514394     0.149383 -41.07 0.0008258727    1.544    0.352
       411 -10.7439     47.6103     47.6668   1.0259149202e+02   6.1720795453e+01    0.2793213    0.2127514  47.84  0.001697002    1.624    0.384
       412  -9.4344     42.2832     49.5508   1.0521044593e+02   6.1932109007e+01    0.2204645    0.1208473 -40.89 0.0006088868    1.719    0.418
       413  -8.8912    172.2844     49.7518   6.8443911429e+01   3.5964447419e+01    0.1471215    0.1163981 -67.84            0    1.465    0.318
       414 -10.4121     65.1424     57.0319   9.9254973678e+01   5.7487840432e+01    0.1812693    0.1450768  -1.75 0.0004755346    1.576    0.366
       415  -9.1105     25.4636     49.4536   1.1170006006e+02   6.3568514660e+01    0.1216904   0.09654171 -57.96 0.0001964749    1.013    0.013
       416 -10.0337     69.5023     48.5115   9.4896201316e+01   5.8581914225e+01    0.1362575    0.1175738 -35.57 0.0008100573    1.051    0.048
       417 -11.6991    244.6550     44.1417   5.6441018524e+01   1.8451825991e+01    0.5935021    0.1928107 -45.92  0.001989281    3.317    0.698
       418 -12.0603    245.9895     22.8576   5.0650121449e+01   2.0587550957e+01    0.4628453    0.2776015 -73.21  0.002187025    1.975    0.494
       419 -11.9147    248.2135     35.9084   5.3887196295e+01   1.8596704847e+01    0.5317191     0.348024  28.09  0.002566766    1.980    0.495
       420  -9.8257    108.8126     45.1975   8.1294802027e+01   5.1989342636e+01    0.2021492    0.1680884   1.16 0.0006344329    1.330    0.248
       421 -10.4251     11.9824     44.3137   1.1580431080e+02   6.5663898061e+01    0.2676925    0.1603404 -40.43  0.001154678    1.603    0.376
       422 -11.5600     49.7905     42.1426   9.9893162294e+01   6.2585193246e+01    0.4427586    0.3167593  43.27  0.002615329    1.702    0.413
       423 -12.2785    248.0192     31.7965   5.2822284996e+01   1.9114502981e+01    0.4411023    0.3918466  19.03  0.002616441    1.271    0.213
       424  -9.5494     87.2392     41.5702   8.6363751748e+01   5.6910256681e+01    0.1805922    0.1307342  28.78 0.0003845984    1.574    0.365
       425 -10.8986    115.3577     37.3321   7.6493015649e+01   5.1867965546e+01    0.3914452    0.2799106  59.04   0.00176836    1.542    0.351
       426 -11.0264    239.8281     33.6862   5.4147632825e+01   2.0837140123e+01    0.2462801    0.1896245 -12.32 0.0009167691    1.351    0.260
       427 -10.5378     49.7897     33.0106   9.6493896076e+01   6.4374071294e+01    0.2532798    0.1489315 -33.96  0.001031044    1.613    0.380
       428  -9.6140      2.6333     34.0686   1.1726567190e+02   6.8371714845e+01    0.2334727   0.09930196 -32.02  0.001178719    2.828    0.646
       429 -10.0050      5.8470     28.9590   1.1442336381e+02   6.9254328111e+01    0.3686957    0.1598427 -39.36   0.00198709    2.162    0.537
       430  -9.6232    233.9524     32.6817   5.4491497727e+01   2.2376708471e+01    0.1930548    0.1822662 -74.89 0.0006106037    1.087    0.080
       431 -10.8372    165.9972    239.9861   1.0969324543e+02   6.9527436667e+00    0.2955787    0.2091463   6.96  0.001745427    2.171    0.539
       432  -9.8063    119.2405    248.3995   1.1794392973e+02   1.2707111738e+01    0.1527716   0.06950947  50.09 0.0009492754    1.616    0.381
       433 -10.9097    112.5653    245.3018   1.1872832084e+02   1.4039456147e+01    0.3343854    0.2472292   8.79   0.00217979    2.878    0.653
       434 -10.5585     31.5645    247.1630   1.3122323376e+02   2.3657947939e+01     0.190576    0.1271484  68.45 0.0006292274    1.074    0.069
       435 -11.7186    210.8689    246.1167   1.0345088996e+02  -3.6891762537e-01    0.2246653    0.1577749  26.81 0.0005281942    1.168    0.144
       436 -10.1449      1.6748     22.1110   1.1438993511e+02   7.0875982075e+01    0.2919677   0.08592184 -56.53  0.001425191    2.191    0.544
       437 -10.7675     78.8188     21.3206   8.0547271733e+01   6.1845110523e+01    0.3010653    0.2167988 -45.62 0.0008152723    1.497    0.332
       438 -12.0076     58.3403     27.6851   9.0893796464e+01   6.4179038003e+01    0.3371393    0.3143261 -61.53 0.0009081505    1.314    0.239
       439 -10.6107    235.9247     20.1325   5.0841246803e+01   2.3304428401e+01    0.2255146    0.1708865 -55.00 0.0006882157    1.274    0.215
       440 -10.1895     89.3587     19.3856   7.6256032383e+01   6.0104228335e+01     0.255945    0.1909995 -66.81 0.0009002139    2.008    0.502
       441  -9.8537    124.2296    247.0551   1.1704280912e+02   1.2184052753e+01    0.1429096    0.1132142  45.62 0.0004280079    1.198    0.165
       442 -10.6777    132.8734    245.3034   1.1551712088e+02   1.1181108522e+01    0.2018157    0.1536897  52.70 0.0004416938    1.056    0.053
       443 -11.5243    191.9978    244.1137   1.0609112755e+02   2.6031472754e+00    0.2327157    0.1646923  30.64 0.0005328745    1.184    0.156
       444 -10.0920     93.5383    244.7767   1.2167910764e+02   1.6674626900e+01    0.1780432    0.1047325  46.83 0.0005459501    1.305    0.234
       445 -10.1852     80.8413    244.5292   1.2364287157e+02   1.8346741074e+01    0.1533846    0.1238567  51.26 0.0004691726    1.319    0.242
       446  -9.5727     41.3580    244.8717   1.2967873712e+02   2.2950217082e+01    0.1231759   0.08932935  71.80  0.000633146    1.156    0.135
       447 -11.0821    177.0760    243.3947   1.0833164302e+02   4.9034160293e+00    0.2180615    0.1589883  33.76  0.000559437    1.167    0.143
       448 -10.4319     87.3661     14.0785   7.4375314164e+01   6.1236337046e+01    0.1959714     0.161385 -20.94 0.0006780418    1.118    0.106
       449 -10.7182    225.7581    240.2678   1.0044437225e+02  -1.9878116814e+00    0.2051307    0.1622071  20.45 0.0004259462    1.141    0.123
       450  -9.2913    179.1245     14.8614   5.5642798294e+01   3.8619877943e+01    0.2003823    0.1646262  38.26  0.000371613    1.269    0.212
       451 -12.0070    210.5652    237.7398   1.0241803775e+02   4.8334832044e-01    0.4722935    0.2537294  39.15  0.002426769    1.384    0.277
       452 -11.0377    218.1059    241.2608   1.0173018565e+02  -9.6695833092e-01    0.2691866    0.2383049 -88.93  0.001608083    2.027    0.507
       453 -11.3286    221.5554    236.6756   1.0059424232e+02  -1.0422394202e+00    0.3855303    0.2184179  20.18  0.001565515    1.834    0.455
       454  -9.7883     87.5191    249.9808   1.2298787931e+02   1.6733854880e+01    0.1469468   0.09910703  54.36 0.0004179836    1.064    0.060
       455 -10.1487     98.4233    241.5588   1.2066063096e+02   1.6476941524e+01    0.1829019    0.1417726  53.61 0.0006579982    1.152    0.132
       456 -10.9894    125.2579    240.3218   1.1626245010e+02   1.2920967173e+01    0.2247265    0.1564547  39.77 0.0005931961    1.327    0.246
       457 -10.4709    103.2954    240.2102   1.1977536687e+02   1.6007833274e+01    0.1777983    0.1234615  53.51 0.0003859148    1.054    0.051
       458 -10.4130     68.8913    240.1557   1.2521522901e+02   2.0466680361e+01    0.1924884    0.1298784  41.77 0.0005231741    1.515    0.340
       459 -11.1392     50.5963    239.8166   1.2802672471e+02   2.2674061788e+01    0.3027151    0.1421162  59.23  0.001525311    1.550    0.355
