#   1 NUMBER                 Running object number                                     
#   2 MAG_AUTO               Kron-like elliptical aperture magnitude                    [mag]
#   3 X_IMAGE                Object position along x                                    [pixel]
#   4 Y_IMAGE                Object position along y                                    [pixel]
#   5 X_WORLD                Barycenter position along world x axis                     [deg]
#   6 Y_WORLD                Barycenter position along world y axis                     [deg]
#   7 A_WORLD                Profile RMS along major axis (world units)                 [deg]
#   8 B_WORLD                Profile RMS along minor axis (world units)                 [deg]
#   9 THETA_WORLD            Position angle (CCW/world-x)                               [deg]
#  10 FWHM_WORLD             FWHM assuming a gaussian core                              [deg]
#  11 ELONGATION             A_IMAGE/B_IMAGE                                           
#  12 ELLIPTICITY            1 - B_IMAGE/A_IMAGE                                       
         1 -14.8618      3.3143    135.0007   1.4363697701e+02   4.6461672595e+01     6.253471     0.612646 -71.13   0.01601058    7.726    0.871
         2 -12.2869      5.3546     51.9083   1.2887432916e+02   6.3779309341e+01    0.3719369    0.3370075 -84.04  0.002233946    1.504    0.335
         3 -13.5197    198.4564     27.0235   6.8040257923e+01   3.2436278108e+01     1.470694     1.302535  29.43  0.007205224    1.410    0.291
         4 -13.4793    213.7909      8.5608   6.1799617549e+01   3.0841251489e+01    0.9655302    0.7763262  64.20  0.003466971    1.264    0.209
         5 -10.3586     10.8804    195.0292   1.4753551536e+02   3.2734680785e+01     0.236586    0.1412771  49.86   0.00086562    1.644    0.392
         6 -11.8905    239.6537    249.0071   1.1038069634e+02  -1.2727562567e+01    0.4300589    0.1756555  40.86  0.002137844    2.198    0.545
         7 -11.6179     99.1046    248.4298   1.3620869448e+02   1.0590569396e+01    0.3782277    0.3053707  24.97  0.002412258    1.809    0.447
         8 -11.5708     47.9422    248.2538   1.4504610307e+02   1.7931009766e+01    0.4133174    0.3750598  38.90  0.002976148    1.721    0.419
         9 -12.5494     20.4150    242.1485   1.4908394203e+02   2.2358451021e+01    0.7063316      0.38102 -79.22  0.003759101    1.584    0.369
        10 -12.7518     10.4854    233.5712   1.5014915306e+02   2.5039147093e+01    0.7592679    0.6091877 -43.14   0.00557831    2.341    0.573
        11 -10.9984     16.8306    249.6589   1.5007691853e+02   2.1373040598e+01     0.358674    0.2391078  48.01  0.002691546    1.565    0.361
        12 -11.5684      4.9986    248.8235   1.5181252963e+02   2.2781801213e+01    0.6954102    0.3350977  61.21  0.004747855    1.543    0.352
        13 -12.4329     11.5937    240.8668   1.5039085998e+02   2.3551538101e+01    0.4788825    0.3649162  88.99  0.003481418    1.260    0.206
        14 -11.7185     29.3636    248.3336   1.4805204246e+02   2.0193883778e+01    0.5389051    0.3062633 -77.52  0.003665426    1.586    0.369
        15 -12.3898     34.9260    244.3450   1.4689970382e+02   2.0272338349e+01    0.6655491     0.414278  87.78  0.004601824    1.299    0.230
        16 -10.9664    198.9038    248.0072   1.1760072243e+02  -6.1282737125e+00     0.305681    0.2074416 -70.27  0.001546346    2.976    0.664
        17  -9.7754    190.6628    246.3276   1.1887609877e+02  -4.4998300213e+00     0.122051   0.09298504  65.66 1.359996e-05    1.727    0.421
        18 -11.1305    122.1967    249.8036   1.3215432171e+02   6.6306671776e+00    0.3609603    0.1482902  52.12  0.001668499    2.139    0.533
        19 -11.9390    152.1230    248.7719   1.2646095880e+02   1.7456733926e+00    0.5932608    0.2058629  49.99  0.002406694    2.701    0.630
        20  -9.7192    181.3165    244.3318   1.2032918435e+02  -2.6016267088e+00    0.1266268   0.09151751  13.35 0.0007046938    1.686    0.407
        21 -10.8672    216.1029    248.7553   1.1455993617e+02  -9.0467464870e+00    0.2552287    0.1303139  36.20   0.00135829    1.640    0.390
        22  -9.5186    206.6717    242.6752   1.1531952186e+02  -6.6724118491e+00    0.1288729   0.08684703  12.48 0.0004345115    1.698    0.411
        23  -9.0961     57.3266    240.3083   1.4283825364e+02   1.8189629894e+01   0.09648047   0.09135039 -60.66 0.0002723869    1.655    0.396
        24 -12.9024     46.8844    215.4990   1.4256220299e+02   2.4476710788e+01     1.022446     0.666093 -84.96  0.005079856    1.304    0.233
        25 -12.9483     31.5538    233.5210   1.4670693343e+02   2.2728328836e+01    0.3035737    0.2377915 -79.04 0.0007541172    1.368    0.269
        26 -14.0699     36.6009    227.0149   1.4536704597e+02   2.3405258511e+01    0.9240711    0.5454494  63.76  0.002356441    1.380    0.275
        27 -12.3110     92.0181    227.5310   1.3525562827e+02   1.5633674587e+01     1.562058    0.1629766  48.56    0.0034668    9.249    0.892
        28  -9.2103     55.0244    230.0242   1.4236707727e+02   2.0489435370e+01    0.2022139    0.1078158  68.68  0.001058416    1.715    0.417
        29 -11.7417      5.1847    227.4582   1.5064278820e+02   2.6745410212e+01    0.3891641    0.1815018 -67.07  0.002421865    2.053    0.513
        30 -13.1093    113.9167    231.3794   1.3149442328e+02   1.1335708110e+01     1.933182    0.1307844  43.79  0.004340435    8.449    0.882
        31 -10.0649    174.0904    222.9751   1.1837968164e+02   2.1455612948e+00    0.3539283    0.2545248  72.72  0.001823394    1.916    0.478
        32 -13.4684     49.9369    206.5430   1.4114360127e+02   2.5968603958e+01     4.322155     1.353854  63.62   0.01066325    9.069    0.890
        33 -13.5399     10.0422    156.8749   1.4440627512e+02   4.1095396036e+01     2.264519    0.8825439  86.69   0.00919556    3.496    0.714
        34 -11.9916     65.5199    190.9356   1.3628442548e+02   2.7304302380e+01    0.2684458    0.2328235 -74.91 0.0004727706    1.205    0.170
        35 -10.8295     76.1056    177.9204   1.3225813622e+02   2.8739709870e+01    0.2492162    0.2044572 -72.21 0.0003383628    1.139    0.122
        36 -13.1806     62.5816    176.0149   1.3502614083e+02   3.1083300508e+01    0.5161026    0.2761236 -46.94  0.001718094    2.326    0.570
        37  -8.9132     97.0178    174.0202   1.2687978906e+02   2.6349277883e+01    0.2365797    0.1579531  77.36  0.001121582    1.746    0.427
        38 -11.8576    139.1641    245.8163   1.2850674919e+02   4.4564042429e+00    0.3593075     0.254687  69.20  0.002111636    1.510    0.338
        39 -11.8443     83.8793    168.8547   1.2910811156e+02   2.9664077932e+01    0.6505972    0.5679608   6.52  0.003722099    1.605    0.377
        40 -10.1086     96.6017    152.9936   1.2328970254e+02   3.1334161709e+01    0.3125128      0.27659 -51.74 0.0008485912    1.183    0.155
        41  -9.3318     99.8961    148.6309   1.2162931205e+02   3.1801292188e+01    0.2369384    0.1875644 -49.81 0.0004503788    1.272    0.214
        42 -12.0525     85.1476    151.8806   1.2593594327e+02   3.3461047858e+01    0.2990148    0.2426236 -48.20   0.00053117    1.301    0.231
        43 -12.2580     67.4691    143.5551   1.2892641347e+02   3.8024944216e+01    0.6573959    0.4356762  69.46  0.002179035    1.795    0.443
        44  -9.9647    108.8981    137.6357   1.1706628630e+02   3.2781743973e+01    0.4637876    0.3205582 -10.04  0.001383449    2.642    0.621
        45 -12.5330      9.5638    207.1875   1.4864325650e+02   3.0339258365e+01    0.6389194     0.469905  31.45  0.003350915    1.926    0.481
        46 -10.5380     95.8757    134.8926   1.1986922142e+02   3.5730725256e+01     0.243038    0.2195597 -37.72  0.000330704    1.200    0.167
        47  -9.0597     77.5853    130.5101   1.2383110167e+02   3.9670782949e+01    0.3066889     0.167963  62.93  0.001218486    2.774    0.640
        48 -10.9458     28.5473    130.0363   1.3675998542e+02   4.5590592687e+01    0.2959144    0.1933853  49.02  0.001222341    1.757    0.431
        49 -11.7666     20.9856    126.0876   1.3813977973e+02   4.7141355078e+01    0.5304558    0.2136868  48.85  0.002422359    3.180    0.686
        50  -8.9927    106.2652    124.0601   1.1470003799e+02   3.6421071859e+01    0.1939584    0.1775601 -64.17 0.0003037459    1.045    0.043
        51  -8.9369    152.6417    213.0361   1.2109819185e+02   7.9350340019e+00    0.1782914    0.1681705  79.49 0.0004342617    1.107    0.096
        52  -9.4404    167.9891    113.2717   9.6625806251e+01   2.5583581043e+01    0.2738824    0.2146337 -74.03 0.0007822698    1.524    0.344
        53  -9.1382     41.9254     96.8243   1.2703115782e+02   5.1813107216e+01    0.2753856    0.1380026  52.09  0.001217374    3.080    0.675
        54 -11.2838    242.1956     92.8980   7.7843717064e+01   1.2035681294e+01    0.2751803    0.2469205   1.85  0.001556418    1.388    0.280
        55  -9.6660    158.3212     76.9588   8.8872971365e+01   3.4962356389e+01    0.2169886    0.2006551 -40.81 0.0006099843    1.105    0.095
        56 -11.7151     58.9409    199.5585   1.3864029798e+02   2.6299040650e+01    0.3102655     0.223357 -80.29 0.0004640868    1.212    0.175
        57  -9.5949    192.1780    193.5116   1.0946401526e+02   3.9623537500e+00    0.4591736    0.2163071 -62.21  0.001234966    6.243    0.840
        58 -11.5439    171.7326    247.5955   1.2261471280e+02  -1.4469164370e+00     0.327937    0.2435017  24.97  0.001981381    1.410    0.291
        59 -11.1742    161.6423    248.6134   1.2465386760e+02   1.3341701975e-01    0.2504871    0.2021654  55.46   0.00133513    1.165    0.142
        60 -10.5580     81.4661    248.9684   1.3939747596e+02   1.3174195493e+01    0.2464101    0.1267517  57.87  0.001325164    1.622    0.384
