#   1 NUMBER                 Running object number                                     
#   2 MAG_AUTO               Kron-like elliptical aperture magnitude                    [mag]
#   3 X_IMAGE                Object position along x                                    [pixel]
#   4 Y_IMAGE                Object position along y                                    [pixel]
#   5 X_WORLD                Barycenter position along world x axis                     [deg]
#   6 Y_WORLD                Barycenter position along world y axis                     [deg]
#   7 A_WORLD                Profile RMS along major axis (world units)                 [deg]
#   8 B_WORLD                Profile RMS along minor axis (world units)                 [deg]
#   9 THETA_WORLD            Position angle (CCW/world-x)                               [deg]
#  10 FWHM_WORLD             FWHM assuming a gaussian core                              [deg]
#  11 ELONGATION             A_IMAGE/B_IMAGE                                           
#  12 ELLIPTICITY            1 - B_IMAGE/A_IMAGE                                       
         1 -15.8529    149.6274    105.7006   6.3184153655e+01   3.1653062145e+01     2.583766     1.604318 -85.41  0.008242311    3.951    0.747
         2 -11.2724    210.4880      7.4830   2.9365570284e+01   3.2513206859e+01    0.1171343   0.09270854 -77.99 7.065824e-05    1.001    0.001
         3 -13.7709     16.6762      4.9647   7.3445549222e+01   7.2601183326e+01    0.6490512    0.2379735  25.43  0.003092077    2.749    0.636
         4 -11.0182    144.3504      4.3143   3.5340466881e+01   4.7576852609e+01    0.2011376    0.1217156  44.34 0.0008064015    1.751    0.429
         5 -10.6024    113.5338      1.4760   3.9191862634e+01   5.4881881291e+01    0.1242068    0.1027464  59.34 6.449487e-05    1.001    0.001
         6 -10.8270     73.0873    246.1345   1.0822631373e+02   1.2867809792e+01    0.1647567    0.1556071 -36.59 0.0005503923    1.316    0.240
         7 -11.4605     69.5763    250.5661   1.0938242251e+02   1.2438750679e+01    0.4015762    0.1150436  45.01 0.0009745097    2.900    0.655
         8 -16.9326    107.5383    152.0459   8.5641343811e+01   2.9507914954e+01      4.89988     1.511386 -49.72   0.01511368    3.070    0.674
         9 -13.0405    183.5725    213.3333   7.9079719747e+01   2.8782771548e+00    0.3478553    0.1844983  21.49  0.001540143    2.117    0.528
        10 -11.4731     14.4018    211.7956   1.1808642752e+02   2.6965439932e+01    0.2104915    0.1697741  32.25  0.001260351    1.405    0.288
        11 -11.6860    143.4954    210.9877   8.7562524694e+01   9.7224607595e+00    0.2084288    0.1388416 -47.25 0.0008902785    1.575    0.365
        12 -10.7824    116.5407    239.7166   9.7994422586e+01   8.1022832743e+00    0.1582483    0.1287734 -83.83 0.0009225324    1.522    0.343
        13 -13.4207    168.5930    205.3743   8.0882857929e+01   6.7639264634e+00    0.4008537    0.2942041  47.02  0.001584339    1.559    0.359
        14 -11.1571    229.4978    206.4893   6.8806003531e+01  -2.6337316995e+00    0.1294434    0.1046262 -13.45 -1.947826e-05    1.012    0.012
        15 -11.2976    124.0569    206.4744   9.1413245930e+01   1.3834823358e+01     0.223781    0.1345772  33.44  0.001027478    1.579    0.367
        16 -11.2090     18.4963    205.5293   1.1673027595e+02   2.8019835257e+01    0.2812091    0.1490933  46.83  0.001337888    1.734    0.423
        17 -10.9174     14.6538    202.0799   1.1734326329e+02   2.9176336371e+01    0.2254645     0.141109 -89.96 0.0009869771    1.414    0.293
        18 -12.6636    114.5424    199.5977   9.2621039673e+01   1.6906344252e+01    0.3309892    0.2641909  70.76  0.001330332    1.488    0.328
        19 -11.3427    212.4009    200.1901   7.0827701489e+01   8.5939858426e-01    0.1807658    0.1183524 -46.66 0.0006491297    1.676    0.403
        20 -10.8323    121.5026    200.5202   9.1056866588e+01   1.5567971810e+01    0.1438361    0.1370213  19.89 7.728319e-05    1.019    0.019
        21 -11.9625    137.9825    199.0264   8.6803158513e+01   1.3164697809e+01    0.2243157    0.1957068  63.97 0.0005939719    1.340    0.254
        22 -13.3604    140.8368    196.7281   8.5711014785e+01   1.3182457750e+01    0.4739726    0.2395304  44.07  0.001947431    2.045    0.511
        23 -13.5306    146.8991    202.8997   8.5376640975e+01   1.0846736383e+01     0.503143    0.3613688  43.22 0.0007493077    1.422    0.297
        24 -13.6239    124.7551    195.4660   8.9399603318e+01   1.6168004567e+01    0.4821166    0.3945121  31.78  0.001591896    1.180    0.153
        25 -13.6344    190.9507    194.6860   7.4073725409e+01   5.1932877047e+00    0.5341406    0.2805144  31.29    0.0024085    1.956    0.489
        26 -12.6024      6.2756    193.8912   1.1866725812e+02   3.1817036482e+01    0.2522583    0.2201762 -64.68 0.0009764262    1.265    0.210
        27 -11.3294      8.7032    189.0110   1.1774962480e+02   3.2775840978e+01    0.4243115    0.2108459  56.31  0.001921193    1.972    0.493
        28 -10.7641     13.2858    194.1401   1.1706301854e+02   3.1166016740e+01    0.2035067    0.1365118 -58.24  0.001179571    1.531    0.347
        29 -13.1727    160.8266    192.8688   8.0311755518e+01   1.0592133430e+01    0.4667104    0.1526551  39.40  0.001582625    2.998    0.666
        30 -12.9282    145.0079    189.5057   8.3384704379e+01   1.4041634229e+01    0.3099919     0.183425  47.70  0.001336484    1.869    0.465
        31 -11.0112     20.8403    190.0884   1.1493727299e+02   3.1457592580e+01    0.2086163    0.1477371  70.60  0.001207521    1.313    0.238
        32 -10.4420      1.2341    190.2907   1.1957833458e+02   3.3064580685e+01    0.1136895   0.07984879 -59.81 0.0006799254    1.458    0.314
        33 -13.6471    135.3538    185.6165   8.5002974519e+01   1.6586858973e+01    0.5220718     0.301073 -64.40  0.002096408    2.304    0.566
        34 -13.9596    127.2321    185.2755   8.6962686868e+01   1.8072575970e+01      0.62071    0.4120163   2.10   0.00167146    2.230    0.552
        35 -13.5599    112.2277    186.6905   9.1031989275e+01   2.0279429753e+01    0.4660317    0.4036944  42.51  0.002490759    1.138    0.121
        36 -11.2821     20.6069    239.9266   1.1860434260e+02   2.0252665616e+01    0.1995196   0.09805825 -74.27  0.001097356    1.939    0.484
        37 -11.3694    186.4534    185.5223   7.3227386777e+01   7.7062392428e+00     0.144443    0.1276522 -11.65  7.66454e-05    1.023    0.022
        38 -12.5298    176.0333    183.3145   7.5033784783e+01   9.9342076735e+00    0.2076992    0.1821712  18.81 0.0005362079    1.119    0.107
        39 -13.3856    144.4905    181.6375   8.2003100003e+01   1.5870257760e+01    0.3375172      0.24355  29.94  0.001152956    1.388    0.280
        40 -10.5480    108.3354    238.2653   9.9634963638e+01   9.5830699250e+00    0.1272564   0.09899088   0.40 0.0006973906    1.586    0.370
        41 -10.9135    103.1741    233.6846   1.0021786360e+02   1.1255042830e+01    0.2287149    0.1583303 -26.59 0.0007657385    1.986    0.497
        42 -11.4284     17.7540    183.1780   1.1508866645e+02   3.3415656814e+01    0.2223526    0.1804795   1.07 0.0009362121    1.628    0.386
        43 -16.5240     93.3197    190.8488   9.6598465461e+01   2.2301054316e+01     2.237847     1.386812  89.69  0.009245919    2.408    0.585
        44 -12.3185    191.8287    178.3202   7.0656770988e+01   8.2053352313e+00    0.2498155    0.1877735 -46.21 0.0009235798    1.363    0.266
        45 -13.6861    132.4133    177.7495   8.4233314735e+01   1.8901420529e+01    0.4607238    0.3030125   5.09  0.001687673    2.245    0.555
        46 -13.8931    126.7481    176.8285   8.5493057362e+01   2.0118231604e+01    0.5512741     0.297769 -49.25   0.00101647    1.844    0.458
        47 -14.4481    120.0350    174.5725   8.6792516696e+01   2.1828696957e+01    0.6752571    0.4376985 -41.81  0.003017927    1.597    0.374
        48 -12.1828    113.0550    176.4717   8.8979050733e+01   2.2577359879e+01    0.2295764    0.1992822 -55.56 0.0003223427    1.163    0.140
        49 -13.0090    174.6848    174.3525   7.3511737427e+01   1.2015080437e+01    0.3675486    0.2129653 -29.93  0.001558899    1.914    0.478
        50 -10.5759     17.3603    175.2081   1.1446513218e+02   3.5411164255e+01    0.1171937   0.09305231 -33.53 0.0002884999    1.554    0.356
        51 -12.0574    160.7617    169.7517   7.5716029506e+01   1.5532192342e+01    0.1979712    0.1823523  87.62  0.000474753    1.324    0.245
        52 -12.5750    153.1582    168.6285   7.7277570405e+01   1.7188971609e+01    0.4455034   0.09494137 -44.37  0.001131878    4.680    0.786
        53 -12.6604    138.9288    165.8564   8.0192554426e+01   2.0464063238e+01    0.2805973    0.2331464   9.14 0.0006746433    1.319    0.242
        54 -15.2022    132.0931    168.4375   8.2460485812e+01   2.1123292215e+01     1.455844    0.4515738  46.85  0.004072386    4.096    0.756
        55 -12.3844    112.8656    228.3500   9.7310232914e+01   1.0922558505e+01    0.3456846    0.2165956  39.70  0.001546792    1.439    0.305
        56 -11.9080     32.7578    168.4229   1.0968417122e+02   3.5695164395e+01    0.2477428    0.1682279 -71.21 0.0007108877    1.308    0.235
        57 -12.5294    172.1461    166.7555   7.2486052591e+01   1.4067200871e+01    0.4453867   0.09155077 -42.29  0.001119206    4.922    0.797
        58 -14.1561    123.6881    160.3728   8.2983807429e+01   2.4569343693e+01    0.4671721    0.3537312  58.63  0.001844841    1.546    0.353
        59 -13.5190    115.7569    165.0028   8.6048943599e+01   2.4880605684e+01    0.5970063    0.3114991 -61.61  0.002261385    2.239    0.553
        60 -13.6140    118.3741    159.8288   8.4290573375e+01   2.5666724514e+01    0.4460569     0.295446 -33.22  0.001167938    1.718    0.418
        61 -11.7607     78.5159    244.3360   1.0688437031e+02   1.2516234172e+01    0.2453721    0.2195986  49.83  0.001630841    1.057    0.054
        62 -11.3134     37.0023    249.4895   1.1595975640e+02   1.6556595274e+01    0.2242038    0.1392364  60.12  0.001368492    1.380    0.276
        63 -13.3931    140.9057    161.8246   7.8844237806e+01   2.1023096382e+01     0.387512      0.23814  55.35   0.00128455    2.063    0.515
        64 -15.0919     89.1656    151.5176   9.0802743964e+01   3.2744074185e+01     1.027665    0.6195996  23.16  0.003818589    1.943    0.485
        65 -14.6597     80.1063    154.9493   9.4112754022e+01   3.3278110396e+01    0.7113845    0.5114862 -50.45   0.00342931    1.341    0.254
        66 -13.5220     72.0432    154.1970   9.6344303806e+01   3.4648699161e+01    0.5518973    0.2711066  33.93  0.002245224    2.080    0.519
        67 -12.4260    187.0955    224.8477   8.0356306989e+01   2.9455278875e-01    0.1952673     0.179823  24.92  0.001239465    1.268    0.211
        68 -11.2418     28.2937    160.1282   1.0993436835e+02   3.8234744850e+01    0.1936499    0.1832072 -20.64 0.0003505777    1.240    0.194
        69 -12.8716    159.2226    157.3959   7.3425391790e+01   1.8524149701e+01    0.3277394    0.1476115  43.13  0.001211794    2.304    0.566
        70 -13.0504     46.6983    157.9183   1.0438683927e+02   3.6912798514e+01    0.3705937    0.2701741  -9.57  0.001859632    1.813    0.448
        71 -13.0552     49.6181    153.8306   1.0292035936e+02   3.7635178761e+01    0.3654632     0.229111 -88.86  0.001651861    1.880    0.468
        72 -12.5837     17.9250    158.3708   1.1262319577e+02   3.9584611330e+01    0.3936445    0.3033411 -62.14  0.001429448    1.182    0.154
        73 -12.3831     27.4578    154.4919   1.0948340718e+02   3.9752225895e+01     0.271348    0.2537184  71.00 0.0009653826    1.127    0.112
        74 -14.1473     23.1469    153.3367   1.1057894363e+02   4.0427910142e+01    0.7744731    0.6005318  40.56  0.004515396    1.405    0.288
        75 -12.5170    125.1395    221.0242   9.3426263840e+01   1.0563606933e+01    0.3771299    0.2351099 -51.71  0.001869925    1.727    0.421
        76 -11.6995    212.0213    154.0226   6.1639269300e+01   9.3879803177e+00    0.2083613    0.1715856 -72.61 0.0005597218    1.636    0.389
        77 -13.9038    150.9770    149.4582   7.3625701331e+01   2.1894092028e+01    0.4922629    0.2888468 -53.29  0.002023881    1.810    0.447
        78 -14.1406    144.3264    150.0206   7.5393526056e+01   2.3073375919e+01    0.6289669    0.3163239  41.87  0.002432484    2.031    0.508
        79 -11.5638     95.0520    223.1062   1.0073990888e+02   1.4658297452e+01    0.1910301    0.1744685   0.62 0.0003289523    1.243    0.196
        80 -15.3147    130.3425    148.5252   7.8648290518e+01   2.6137387669e+01    0.7695341    0.6814906  26.22  0.002246368    1.156    0.135
        81 -12.5822    180.4514    150.6865   6.7172100613e+01   1.5862623908e+01     0.293044    0.2355504  78.27  0.001033328    1.742    0.426
        82 -11.2292    105.9242    220.9203   9.7902611088e+01   1.3525253713e+01    0.3102342    0.1658882 -40.15  0.001352742    2.346    0.574
        83 -11.5654     33.6553    149.7183   1.0704805293e+02   4.0397307015e+01    0.2220945    0.1951782 -13.20 0.0006934136    1.334    0.250
        84 -14.9717     98.6221    154.7290   8.8719099519e+01   3.0379229866e+01     1.193015    0.6120905 -56.59  0.002535247    1.935    0.483
        85  99.0000     18.2699    230.8827   1.1851762196e+02   2.2389109038e+01     2.103654     1.040982  45.41   0.01174303    1.721    0.419
        86 -10.9004      3.7842    221.1105   1.2090038005e+02   2.5849131395e+01    0.1449191    0.1211818 -69.11 0.0005717932    1.341    0.254
        87 -10.9962     35.6653    146.7962   1.0603464452e+02   4.0953921663e+01    0.2124461    0.1589377 -68.41 0.0004993894    1.187    0.157
        88 -13.6180    155.6513    144.9445   7.1467071124e+01   2.1971564945e+01    0.3943551    0.2757689  53.38  0.001774778    1.627    0.385
        89 -13.9297    141.9066    144.8282   7.4816770977e+01   2.4736746757e+01    0.7002931     0.244464  38.25  0.002206991    3.043    0.671
        90 -12.5848     82.2156    144.5869   9.1473332900e+01   3.5602382443e+01    0.2962016    0.1731734 -46.92 0.0006003246    1.664    0.399
        91 -10.8209    223.3969    220.2080   7.2402362422e+01  -4.0209663936e+00    0.1603713    0.1099458 -41.24  0.000315178    1.573    0.364
        92 -14.4838    142.3012    133.4884   7.2036556244e+01   2.7232803662e+01     1.043214     0.594212  16.78  0.003369702    3.437    0.709
        93 -15.4178    135.2254    130.4838   7.3121074983e+01   2.9357719942e+01    0.8980463    0.7919537   6.20  0.004416799    1.236    0.191
        94 -16.4497    154.1134    127.7974   6.7751699728e+01   2.6041198633e+01     2.094896      1.26917  60.09  0.008368477    2.169    0.539
        95 -10.6461    238.0365    248.6696   7.4571315966e+01  -9.9893100157e+00    0.1582576    0.1179033  -1.07 0.0005434576    1.038    0.037
        96 -13.0072     98.8363    130.8497   8.3447452280e+01   3.6276835831e+01    0.3340663    0.2664048 -86.19  0.001557812    1.593    0.372
        97 -12.3487    173.5035    219.4416   8.2295201882e+01   3.3064697670e+00    0.2421673    0.1974243 -45.44  0.001091611    1.380    0.276
        98 -11.8330     59.7168    134.0654   9.6376175360e+01   4.1506066210e+01    0.2135887    0.1787912 -56.96  0.000374931    1.101    0.092
        99 -11.2956     20.6805    133.8957   1.0881129479e+02   4.5596905325e+01    0.2044086    0.1765092 -27.21 0.0003115485    1.281    0.220
       100 -12.1524     75.6336    133.0722   9.1108206318e+01   3.9533520450e+01    0.2653845    0.2232032  15.80 0.0003587573    1.295    0.228
       101 -11.2212    179.9617    244.1745   8.4989951252e+01  -1.9398216117e+00    0.1807055    0.1610538  25.23 0.0005739555    1.247    0.198
       102 -14.6472    153.8018    117.8225   6.5337751400e+01   2.8236132396e+01     1.070932    0.5387745  40.71  0.001167593    2.119    0.528
       103 -11.2823     91.3112    130.3354   8.5612601489e+01   3.7709828557e+01    0.1620903    0.1175229 -21.39 0.0007044523    1.682    0.406
       104 -13.5366    101.2002    126.6436   8.1734248881e+01   3.6875184833e+01    0.4438942    0.3058591  64.96  0.001857015    2.022    0.506
       105 -12.1621     56.5492    128.1033   9.6228102883e+01   4.3434404714e+01    0.2342821    0.1895619 -23.36 7.977432e-05    1.342    0.255
       106 -17.3233     59.0155    225.7238   1.0932860388e+02   1.8961302806e+01     3.273917       1.9259  44.12   0.01747215    1.514    0.339
       107 -18.3774     69.1706    194.7921   1.0337429504e+02   2.4818332015e+01     4.327829     3.578654  65.99   0.02439971    1.188    0.159
       108 -12.4423    120.3007    120.3237   7.4605805684e+01   3.4702879730e+01     0.233529    0.2081582  38.06 0.0005005102    1.142    0.124
       109 -11.2789     48.8442    122.6753   9.7709551884e+01   4.5743621547e+01    0.1869204    0.1775142  25.43 0.0005015353    1.156    0.135
       110 -12.7062    108.4874    121.9192   7.8400976283e+01   3.6645928302e+01    0.2975513    0.2263305  13.84 0.0009207738    1.564    0.361
       111 -13.3946    101.0667    120.3927   8.0231863711e+01   3.8397300182e+01    0.4149608    0.3284583  58.07  0.001975922    1.471    0.320
       112 -12.0690     72.0934    121.8951   8.9780077575e+01   4.2868830282e+01    0.2580202    0.2049755 -41.89 0.0003157712    1.198    0.165
       113 -11.3872     90.0019    121.2327   8.3857477799e+01   4.0163671915e+01    0.2049404    0.1291834  34.41  0.000881874    1.643    0.391
       114 -12.3234     60.0626    120.9675   9.3575052468e+01   4.4786728461e+01    0.2259938    0.2138318   7.52 0.0003846899    1.120    0.108
       115 -12.5663     30.8670    118.4836   1.0303729597e+02   4.8652498785e+01    0.3372661     0.251357 -12.44  0.001228421    1.546    0.353
       116 -12.9694     46.8952    117.2740   9.7283358301e+01   4.7327777724e+01     0.486365    0.2962985 -15.72  0.002121541    2.232    0.552
       117 -11.1990     23.1942    115.6932   1.0519171100e+02   5.0003215858e+01     0.200081    0.1701342  19.49  0.000639149    1.347    0.258
       118 -15.6524    143.3593    107.1919   6.5087256969e+01   3.2720007182e+01     1.290932     1.022804  -8.80  0.006106819    1.563    0.360
       119 -11.3216     82.3328    113.6446   8.4436317770e+01   4.3283468161e+01    0.2306089    0.1851156  79.86 0.0008131575    1.664    0.399
       120 -12.5281     88.9264    110.3313   8.1445296212e+01   4.2951677195e+01    0.2986691    0.2245936  -7.47  0.001052898    1.634    0.388
       121 -11.4688     75.0464    110.9264   8.6172042821e+01   4.5102921603e+01    0.2312008    0.2199574 -23.59 0.0006749792    1.026    0.025
       122 -12.0768     54.2397    109.8454   9.3101576192e+01   4.8293971094e+01    0.4447195    0.2377069 -30.80  0.001443978    2.307    0.566
       123 -11.4768    107.4469    214.9252   9.6697522230e+01   1.4594513877e+01    0.2343356    0.1748537  54.40 0.0006385495    1.387    0.279
       124 -11.0782     60.0075    108.5495   9.0765419394e+01   4.7860475261e+01     0.216349    0.1442799  26.89  0.001030844    1.599    0.375
       125 -10.3741      1.6183    105.1888   1.1106467341e+02   5.3979238540e+01     0.170656   0.09363819 -58.87 0.0001997699    1.420    0.296
       126 -11.0724    212.9916    103.9940   5.0474607355e+01   1.8429573508e+01    0.2035971    0.1823422 -47.60  0.001211282    1.021    0.020
       127 -11.0704    103.8466    213.5351   9.7360589142e+01   1.5448385024e+01      0.24264     0.132641  28.68  0.001075939    1.854    0.461
       128 -12.8220     57.8601     99.9762   8.9417242310e+01   5.0198861983e+01     0.361035    0.3094271 -75.40  0.001265709    1.367    0.269
       129 -11.8699     60.0190     96.0395   8.7607823610e+01   5.0824777498e+01    0.2774379    0.2082486 -31.48 0.0003445358    1.289    0.224
       130 -11.5702     76.4416     97.6547   8.2200665976e+01   4.7983003388e+01    0.2461607    0.1391874  32.40 0.0009567871    1.834    0.455
       131 -10.8831    138.9879    217.8107   8.9723719457e+01   9.0477546588e+00    0.1850571    0.1686931  23.79 0.0002835703    1.023    0.023
       132 -12.0513     59.1036     91.5088   8.6724527784e+01   5.1988539289e+01    0.2299691      0.20349 -76.49 0.0007847501    1.378    0.274
       133 -11.4374    118.0134    213.7597   9.4004824774e+01   1.3212662824e+01    0.2132745    0.1781127  58.25 0.0006054206    1.281    0.220
       134 -11.3079    124.4907    214.5051   9.2583592070e+01   1.2033370237e+01    0.1851874    0.1408516 -69.70 -6.544901e-05    1.581    0.368
       135 -14.1677     50.0131     82.2990   8.7627786482e+01   5.5248159899e+01    0.8810166    0.5883085  61.61  0.003974172    2.550    0.608
       136 -11.6146    106.3006     80.6460   6.7488694068e+01   4.6014163466e+01    0.4253665    0.2516591 -66.41  0.001505851    3.278    0.695
       137 -11.1568    152.9955     80.2933   5.5533400220e+01   3.5724267837e+01    0.2068274    0.1847814  56.37 0.0003802421    1.110    0.099
       138 -10.6721    214.3041     78.7094   4.4574539507e+01   2.2401910499e+01    0.1357663   0.09304357 -68.32 0.0002387164    1.571    0.363
       139 -10.9191    189.5542     77.5018   4.7978961697e+01   2.7895625126e+01    0.1396141    0.1270948 -66.35 7.776705e-05    1.017    0.017
       140 -11.3267     75.3225     75.8502   7.6107689000e+01   5.2833373850e+01    0.2295829    0.1929961  38.47 0.0005148235    1.260    0.206
       141 -12.7326    156.5082    213.3543   8.4990678797e+01   7.1439510156e+00    0.3286341    0.1992275  29.52   0.00129766    1.573    0.364
       142 -11.2235    125.1890     73.2007   5.9979959119e+01   4.3306985069e+01     0.221981    0.1988889  18.64 0.0007968137    1.168    0.144
       143 -13.6339     27.8748     65.9145   9.2123075143e+01   6.1204413991e+01      1.62338    0.5725324  27.21  0.006815809    2.898    0.655
       144 -10.7699    188.3005     65.3011   4.5169948065e+01   3.0106729517e+01    0.1286155    0.1076615  23.35 0.0002740851    1.584    0.369
       145 -12.1176    124.5013    211.4977   9.2110386452e+01   1.2674391382e+01    0.4027373     0.261173 -11.17  0.001729218    2.403    0.584
       146 -11.5661    196.6183     68.5489   4.4718127947e+01   2.7763370798e+01    0.3523351    0.1068649 -41.17  0.001274391    2.941    0.660
       147 -11.1746    153.2214     57.7850   4.9175938169e+01   3.9330774942e+01    0.1889178    0.1621691  29.85 0.0004597045    1.325    0.246
       148 -13.7220    153.3376    210.4467   8.5208688802e+01   8.2357718130e+00    0.4902297    0.3802107 -20.25  0.002262855    1.370    0.270
       149 -11.9826     99.6000     68.3143   6.5589981249e+01   4.9677439493e+01    0.2838164    0.1360978 -43.86  0.001144854    2.209    0.547
       150 -11.2806    195.5176     44.4565   3.9122901353e+01   3.1461938731e+01    0.1307658    0.1118176 -76.60 0.0002373812    1.033    0.032
       151 -10.7165    189.6332     43.3135   3.9596429833e+01   3.2926359436e+01    0.1417515    0.0884643 -71.25 0.0004661228    1.768    0.434
       152 -11.8104     51.7997     43.1887   7.3697723330e+01   6.2516293089e+01    0.1869978    0.1359631  -0.16 0.0004609052    1.338    0.253
       153 -11.4914     60.4850     38.4597   6.8283627985e+01   6.1860919822e+01    0.2146251    0.1190814 -45.48  0.001029179    2.245    0.554
       154 -10.0805    117.7034     36.3100   5.0028748168e+01   5.0524514798e+01    0.1307626    0.1036462 -76.25 0.0004358488    1.594    0.373
       155 -11.3949     11.8218     36.6049   9.0313356070e+01   6.8275016574e+01    0.1586307    0.1006511  26.16 0.0009535056    1.741    0.426
       156 -11.2816    222.4997     34.5462   3.3990481750e+01   2.6965767877e+01    0.1203314    0.1004653 -72.41 0.0001904968    1.036    0.034
       157 -10.8038     43.6786     34.2993   7.3630361471e+01   6.5097103505e+01    0.1090375    0.1026275  56.06 0.0003110608    1.624    0.384
       158 -11.0660    106.5307     32.0837   5.1249949531e+01   5.3549540707e+01    0.1903608    0.1320579 -27.63  0.001029737    1.588    0.370
       159 -11.2657     39.1316     29.0821   7.3484771028e+01   6.6511342229e+01    0.2002388    0.1423001  -0.43 0.0007762808    1.278    0.218
       160 -11.5194    101.7898     25.6001   5.0123766616e+01   5.5333117333e+01    0.1860687    0.1180493  66.35 0.0009482276    1.688    0.407
       161 -11.7790     83.8596     23.7910   5.4318612018e+01   5.9348338391e+01    0.1644231    0.1552635  81.08  0.001070738    1.339    0.253
       162 -10.7700     20.5243     22.9663   8.0092495191e+01   6.9713709036e+01     0.170568   0.07918765 -22.46  0.000808228    2.409    0.585
       163 -11.6232     10.4972     15.5240   8.2312507378e+01   7.1834359292e+01    0.1166953    0.0871786  -9.54 4.015982e-05    1.011    0.011
       164 -11.2721    216.3435     14.3227   3.0320741440e+01   3.0579757136e+01    0.1087004   0.08521396  47.17 0.0007050387    1.731    0.422
       165 -10.7702    172.9794    248.9993   8.7166054032e+01  -1.7506383948e+00    0.2090365    0.1369043  -3.08  0.001129168    1.728    0.421
       166 -11.7135     32.8743    249.4590   1.1677605884e+02   1.7017947850e+01    0.1963178    0.1657738 -73.96 0.0006913499    1.333    0.250
       167 -10.9061     92.5232    247.8576   1.0423097400e+02   9.9255332100e+00    0.1663292    0.1254015 -75.15 0.0009935693    1.520    0.342
