#   1 NUMBER                 Running object number                                     
#   2 MAG_AUTO               Kron-like elliptical aperture magnitude                    [mag]
#   3 X_IMAGE                Object position along x                                    [pixel]
#   4 Y_IMAGE                Object position along y                                    [pixel]
#   5 X_WORLD                Barycenter position along world x axis                     [deg]
#   6 Y_WORLD                Barycenter position along world y axis                     [deg]
#   7 A_WORLD                Profile RMS along major axis (world units)                 [deg]
#   8 B_WORLD                Profile RMS along minor axis (world units)                 [deg]
#   9 THETA_WORLD            Position angle (CCW/world-x)                               [deg]
#  10 FWHM_WORLD             FWHM assuming a gaussian core                              [deg]
#  11 ELONGATION             A_IMAGE/B_IMAGE                                           
#  12 ELLIPTICITY            1 - B_IMAGE/A_IMAGE                                       
         1 -14.8413    157.7012     44.6650   8.4711945978e+01   4.0372500652e+01     1.463545     1.024543 -24.53   0.00380718    1.391    0.281
         2 -14.6917    169.5737     12.2218   7.1559781396e+01   4.1104845536e+01     1.310771       1.0521  41.26  0.004745272    1.268    0.212
         3 -12.8596    189.2729     13.9505   6.9826633048e+01   3.5952512191e+01    0.7360812    0.2998013 -49.70  0.002756543    2.824    0.646
         4 -10.3033     15.6013    246.8464   1.5208116828e+02   2.4202838070e+01    0.1602294   0.06920181  81.73  0.001097085    2.314    0.568
         5 -19.8925     94.7992    231.2767   1.3735026806e+02   1.8474381950e+01     7.332699       5.1209  46.95   0.05134638    1.152    0.132
         6 -10.5051     27.8623    172.7324   1.4651963921e+02   3.5915221298e+01    0.1763652    0.1343608 -56.75  0.000746195    1.556    0.357
         7 -12.6535    161.3985    239.2755   1.2615934597e+02   9.0336012204e+00    0.3126626     0.162975  31.18   0.00122849    1.478    0.323
         8 -12.1842     21.7499    237.2319   1.5075334832e+02   2.5116971827e+01    0.1670738    0.1210455  77.78  0.001449116    1.293    0.226
         9 -11.8684    201.1411    164.6597   1.0758740967e+02   1.2847044479e+01    0.3824072    0.2735876 -38.73  0.001573165    1.638    0.389
        10 -10.8982     28.4626    238.9141   1.4967145939e+02   2.4266696937e+01    0.1219665   0.08129636  85.27   0.00096874    1.495    0.331
        11 -11.1066    222.1906    161.4179   1.0326859947e+02   9.8562943405e+00    0.2454679    0.1837743 -42.35  0.001123229    1.814    0.449
        12 -10.9506     18.3247    220.5439   1.5075762272e+02   2.8059486712e+01    0.1196088   0.07791164  88.25 0.0001598608    1.476    0.323
        13 -13.2555    163.8553    157.5014   1.1348024290e+02   2.0228905988e+01    0.3657472    0.2854525  51.65  0.002098857    1.474    0.322
        14 -11.5433     29.5006    156.8340   1.4503815794e+02   3.9028079259e+01    0.2250873     0.183307 -73.93 0.0006827756    1.236    0.191
        15 -14.0885    135.9645    127.8667   1.1365455551e+02   3.0512113555e+01     1.909942    0.3307146 -49.01  0.004147501    8.249    0.879
        16 -12.6120    134.5638    109.3551   1.0965988058e+02   3.4385451453e+01     1.090689    0.1553565 -44.22  0.002400357    7.087    0.859
        17 -14.6666    133.7400    145.8069   1.1786606178e+02   2.7484815612e+01     1.392499    0.5051272 -56.08  0.004578787    4.289    0.767
        18 -12.4100    140.1348    149.1672   1.1704036481e+02   2.5763945880e+01    0.4145483    0.2693813  55.44   0.00133858    1.856    0.461
        19 -14.5671    143.3934    143.9247   1.1527805316e+02   2.6153486076e+01    0.9740745    0.5253505 -57.06  0.004191617    2.547    0.607
        20 -10.5702     18.6615    149.3076   1.4714366242e+02   4.1531471321e+01    0.2451822     0.164089 -38.58  0.001501847    2.047    0.511
        21 -10.7676    192.2085    153.1705   1.0698941127e+02   1.5984222405e+01    0.1627643    0.1580717 -21.02 0.0004797397    1.335    0.251
        22 -10.6899     17.9349    154.0333   1.4762958898e+02   4.0584089468e+01    0.1934652    0.1307177 -72.48 0.0004830004    1.406    0.289
        23 -12.7791    174.1518    148.5671   1.0959902114e+02   1.9871456784e+01    0.3554116    0.2936255 -35.61  0.001433983    1.309    0.236
        24 -19.1624     77.5695     95.0513   1.2236448674e+02   4.7520574276e+01     18.57146     0.887348 -55.34   0.02541951   19.072    0.948
        25 -10.7788     23.9513    216.9586   1.4959336747e+02   2.8166205074e+01     0.136104     0.110582  61.12 0.0003938578    1.108    0.098
        26 -13.8734    152.5812    145.0232   1.1344409014e+02   2.4325192978e+01    0.5242646    0.4323763 -82.48  0.002862883    1.785    0.440
        27 -11.9324     27.7326    144.9667   1.4454214579e+02   4.1726029673e+01    0.3839603    0.2955324  70.23  0.002427884    1.141    0.124
        28 -10.5442     26.4624    138.7071   1.4434567598e+02   4.3210731999e+01    0.1816523    0.1650112   2.77 0.0008379376    1.405    0.288
        29 -12.0502    175.5064    142.0312   1.0796453779e+02   2.0679136915e+01    0.2162996    0.1722263  31.74 0.0004640245    1.178    0.151
        30 -12.9709     12.1278    205.8214   1.5136263019e+02   3.1067951234e+01     0.498031    0.2407644  20.78  0.003025654    2.580    0.612
        31 -10.7315      3.1292    135.0265   1.5018358252e+02   4.5722400914e+01    0.1677124     0.133448 -65.38 0.0006660934    1.317    0.241
        32 -13.1526    160.3758    128.2666   1.0813760997e+02   2.5837349713e+01    0.4303044    0.3793472 -30.02  0.002094185    1.156    0.135
        33 -10.4893    144.2890    129.3148   1.1200419342e+02   2.8693681938e+01     0.141933    0.1073187  -0.92  0.000199464    1.589    0.371
        34 -12.9158     36.6492    124.5060   1.4011424109e+02   4.5526454421e+01    0.5478176    0.2670701  14.19  0.002510726    2.921    0.658
        35 -10.7442     31.1313    205.4839   1.4770408195e+02   2.9484726426e+01    0.1732879    0.1506116 -31.12  0.001081897    1.705    0.413
        36 -11.4233     12.9146    242.3440   1.5239217890e+02   2.5094890474e+01    0.1277603    0.1146977  64.42  0.001244895    1.351    0.260
        37 -10.3974     19.2705    197.3739   1.4964249928e+02   3.1976042158e+01   0.09275948   0.07360376 -53.79 0.0006996757    1.679    0.405
        38 -11.6848     26.6708    194.6079   1.4802919224e+02   3.1837788037e+01    0.1911193    0.1441949  64.29 0.0006452473    1.055    0.052
        39 -12.6940    167.7552    239.9577   1.2513935468e+02   8.1347890329e+00    0.2300166    0.1488902  31.60 0.0006009321    1.152    0.132
        40 -10.8659    205.2264    110.1845   9.4970786085e+01   1.9903249571e+01     0.279107    0.1759381  33.50 0.0009476629    1.621    0.383
        41 -13.9460    195.4597    170.4420   1.0971720174e+02   1.2980728076e+01    0.7931808    0.4427588 -47.36  0.002509028    2.549    0.608
        42 -12.1229     30.1435    104.7783   1.3964362602e+02   5.0730187672e+01    0.3774021    0.2204877   4.56   0.00101747    2.457    0.593
        43 -10.3017    124.3229     95.3032   1.0862845063e+02   3.9205841269e+01    0.1513118    0.1155166   0.66 0.0002933482    1.635    0.389
        44 -12.2867     51.6930     91.7312   1.3027089117e+02   5.1719799714e+01     0.307683    0.2678932  -1.78 0.0007648867    1.353    0.261
        45 -11.4883     41.8860     92.3532   1.3378341943e+02   5.2624002608e+01    0.2505901    0.1696553 -85.15 0.0006985412    1.543    0.352
        46 -11.5586      3.7396     89.8082   1.4668858955e+02   5.6073350698e+01    0.2621856    0.1498482 -19.53  0.001417115    2.409    0.585
        47 -10.1257    106.0291     82.4634   1.1013085141e+02   4.5427991958e+01    0.2075298    0.1461363  41.49 8.870347e-05    1.468    0.319
        48 -10.7460    142.1164     80.6838   9.9875374615e+01   3.8254841001e+01    0.2124696    0.1928082  24.42  0.000588891    1.096    0.088
        49 -14.4822    147.1887     59.2479   9.1848485791e+01   4.0761157454e+01     1.243524    0.9436747  -6.51  0.000920378    1.447    0.309
        50 -11.4622    150.8011    239.9879   1.2808877075e+02   1.0311003305e+01     0.184472    0.1758747  16.93 0.0005547018    1.318    0.241
        51 -13.1882    161.5037     35.7951   8.0956027062e+01   4.0588184531e+01    0.4722008    0.4137021 -19.05 0.0009201291    1.108    0.098
        52 -11.1468     13.4050     59.8686   1.3885797449e+02   6.2737177906e+01    0.1841684    0.1680846  59.38  0.000427174    1.270    0.212
        53 -10.6357      6.3559     55.3098   1.4117088103e+02   6.4203044050e+01    0.1341282   0.07181235 -44.35 0.0007043101    1.730    0.422
        54 -11.9778    167.0049    173.5632   1.1576040745e+02   1.7156249851e+01    0.2112112    0.1847765 -56.21  0.000760225    1.521    0.343
