#   1 NUMBER                 Running object number                                     
#   2 MAG_AUTO               Kron-like elliptical aperture magnitude                    [mag]
#   3 X_IMAGE                Object position along x                                    [pixel]
#   4 Y_IMAGE                Object position along y                                    [pixel]
#   5 X_WORLD                Barycenter position along world x axis                     [deg]
#   6 Y_WORLD                Barycenter position along world y axis                     [deg]
#   7 A_WORLD                Profile RMS along major axis (world units)                 [deg]
#   8 B_WORLD                Profile RMS along minor axis (world units)                 [deg]
#   9 THETA_WORLD            Position angle (CCW/world-x)                               [deg]
#  10 FWHM_WORLD             FWHM assuming a gaussian core                              [deg]
#  11 ELONGATION             A_IMAGE/B_IMAGE                                           
#  12 ELLIPTICITY            1 - B_IMAGE/A_IMAGE                                       
         1 -14.1257    173.6826     54.9095   5.6858124830e+01   3.4642082140e+01     1.960561      1.25305  29.34  0.005628029    2.126    0.530
         2 -14.2915    188.9657     41.0053   5.0277771815e+01   3.2762795640e+01     1.073402     1.009453 -41.08  0.003637286    1.109    0.098
         3 -14.9544    209.7094     13.1978   4.0233994590e+01   3.0985021812e+01     2.010919     1.505797  41.39  0.009632512    1.651    0.394
         4 -12.4493    242.2532      2.5755   3.5045548837e+01   2.4589327710e+01     1.313032    0.2767057  75.76  0.004372288    4.799    0.792
         5  -9.5055     11.4553    213.6492   1.2712941718e+02   2.8329161654e+01    0.1161629   0.09252302  47.36 0.0006605796    1.424    0.298
         6 -14.1557    247.5756    246.7036   8.6553112122e+01  -1.1159387280e+01     1.765166    0.7384466 -30.05  0.009701045    2.481    0.597
         7 -12.0288     67.2895    204.8562   1.1561208524e+02   2.3694011898e+01    0.3290955    0.2236739 -45.61  0.001008847    2.048    0.512
         8  -7.9870     71.7927    201.7566   1.1434560580e+02   2.3729111741e+01    0.3378025    0.1976357  86.52  0.001742155    1.886    0.470
         9 -12.3816    203.9028    200.1484   8.6405403773e+01   1.6804819800e+00    0.6576098    0.2273502  32.98  0.002320503    3.367    0.703
        10 -11.9659    193.4490    195.8416   8.7652480143e+01   4.2300457224e+00     1.252151    0.6100608 -58.23  0.004243433    4.638    0.784
        11 -11.5078     58.0293    201.6644   1.1720969978e+02   2.5585860997e+01    0.2573901    0.1892039 -44.82  0.001531413    1.916    0.478
        12 -10.6247      7.6554    214.8562   1.2787119181e+02   2.8453266130e+01    0.1615611   0.08550367  28.65 0.0009681935    2.475    0.596
        13  -9.8785    186.7759    186.5284   8.7235341294e+01   7.0554089426e+00    0.2351699    0.1951669  72.27  0.000839508    1.631    0.387
        14 -10.9207     82.0477    195.0275   1.1137110626e+02   2.3700185757e+01     0.232785    0.1927091 -83.87 0.0004395166    1.151    0.131
        15 -12.4373     61.4470    194.2284   1.1573694212e+02   2.6737262279e+01     0.367035    0.2595876 -39.41  0.001337134    2.126    0.530
        16  -9.6572     44.5178    195.2090   1.1940715818e+02   2.8628577905e+01    0.1307682   0.06707147  58.70 0.0002727546    1.796    0.443
        17  99.0000     43.9324    210.8109   1.2085039465e+02   2.5418786934e+01    0.3654341     0.182213  88.20  0.001528326    2.024    0.506
        18  -9.2277     27.4827    192.5030   1.2268411818e+02   3.1097970973e+01    0.1204829   0.09179196  79.42  0.000513602    1.013    0.013
        19 -12.2606     95.9005    188.7768   1.0748271678e+02   2.2938805452e+01    0.6049521    0.5142482  13.77  0.002053954    1.566    0.362
        20 -17.6617     40.8194    234.7424   1.2316441072e+02   2.1104682121e+01     8.802779     7.923105  57.09   0.06964169    1.403    0.287
        21  -9.8953     44.4124    206.2096   1.2038088383e+02   2.6310957858e+01    0.1592764   0.09425729  87.05 0.0009189798    1.546    0.353
        22 -11.7766     99.4219    180.7977   1.0552153383e+02   2.4125829137e+01    0.3420995     0.311807  -4.74 0.0006010438    1.436    0.304
        23 -11.6933    149.6570    177.5196   9.3455079328e+01   1.5840812529e+01    0.3055644    0.2588837 -74.38 0.0007562978    1.363    0.266
        24 -11.1682    187.8837    176.2912   8.4991851188e+01   8.6855237401e+00    0.3500579      0.33498 -61.40  0.001678665    1.228    0.186
        25 -10.5442    185.7355    169.8991   8.4128486528e+01   1.0284624400e+01    0.3712509    0.2321329 -53.34 0.0009854982    1.934    0.483
        26 -13.0977    236.2384    173.1157   7.5096185067e+01   3.0435088519e-01    0.8016631    0.2725146  40.13  0.003094617    3.009    0.668
        27 -10.2450    194.0620    171.4471   8.2739552672e+01   8.3715002203e+00    0.2556393    0.2119402 -42.93 0.0007810693    1.288    0.223
        28 -10.3183    187.7410    162.6919   8.2191742063e+01   1.1241094456e+01    0.3258346    0.2276067 -52.46  0.001036526    1.645    0.392
        29 -10.9377     61.4638    219.9379   1.1820973113e+02   2.1398964103e+01    0.1904832    0.1597517  35.87 0.0008126419    1.466    0.318
        30  -9.9063      1.7871    161.8214   1.2581593615e+02   4.0171140732e+01    0.1467297     0.102384  62.55 0.0005486836    1.329    0.247
        31 -11.5870     55.3797    222.9455   1.1963054252e+02   2.1587972461e+01    0.1722162    0.1225198  64.48 0.0003972482    1.118    0.106
        32 -11.8063     91.6670    157.1557   1.0359098010e+02   3.0810092195e+01    0.2599219    0.2501359 -87.65 0.0003289809    1.095    0.087
        33 -11.9779    133.9631    145.9980   9.0768031428e+01   2.5716816447e+01     1.376941    0.3465247 -54.78  0.003160842    6.106    0.836
        34 -11.1264    187.5091    151.9618   7.9886524314e+01   1.3339574209e+01    0.3046717    0.2802304  71.64  0.001136901    1.265    0.210
        35 -12.6247     97.4421    150.7123   1.0096796390e+02   3.1385122854e+01    0.6104503    0.5010755 -23.47  0.003169438    1.581    0.368
        36 -19.0074     18.2598    100.5127   1.1478966331e+02   5.3272738255e+01     15.21767    0.9633601 -67.94   0.02833446   12.408    0.919
        37 -10.7432    174.5450    149.0218   8.1992651249e+01   1.6636717744e+01    0.2785881    0.2617785  64.84 0.0008575398    1.155    0.135
        38 -11.0201    143.9437    145.9269   8.8322886690e+01   2.3705759470e+01    0.3991688    0.2109918 -60.53  0.001466487    2.473    0.596
        39 -11.2990    107.0785    144.9966   9.7369241983e+01   3.1065350049e+01    0.5557315    0.3278915 -81.50  0.002071753    2.769    0.639
        40 -10.3677    111.4929    141.4619   9.5493325334e+01   3.1095790498e+01    0.2307308    0.1796895  79.03 0.0005799289    1.506    0.336
        41 -11.8017    108.4465    137.1550   9.5379218422e+01   3.2670555416e+01    0.5850909    0.3550424 -36.77  0.002460038    1.994    0.499
        42 -11.8860    105.8553    130.8558   9.4698837881e+01   3.4635759766e+01    0.4855921    0.3545921 -46.30     0.001615    1.359    0.264
        43 -10.6638    113.4575    151.4306   9.7021830825e+01   2.8404834580e+01    0.3525403    0.2238489  79.83  0.001392574    2.491    0.599
        44 -12.6197     96.8001    136.8348   9.8427024405e+01   3.4806928005e+01    0.3355675    0.2782909 -69.43  0.001135566    1.171    0.146
        45 -11.4517    135.8362    127.9412   8.6141624561e+01   2.9401830269e+01     0.637987    0.1977977 -51.14   0.00183273    3.565    0.720
        46 -10.4053    160.8314    127.8934   8.0073231638e+01   2.3990399247e+01    0.3654236    0.2117126 -51.12  0.001286602    1.835    0.455
        47 -11.4231    103.1004    124.2029   9.3947571009e+01   3.6715060827e+01    0.3132481    0.2599249 -18.58 0.0008934229    1.470    0.320
        48 -11.2947    120.8009    122.4475   8.8706144173e+01   3.3743330625e+01    0.4684033     0.295911 -20.12   0.00173853    2.662    0.624
        49 -11.1145    115.3978    128.6257   9.1623491528e+01   3.3371464866e+01    0.3191586    0.2647908 -28.02 0.0006047771    1.368    0.269
        50 -10.2317    110.6563    118.0169   9.0374927694e+01   3.6760515201e+01    0.2393322    0.2140753  43.92  0.001037526    1.162    0.139
        51 -10.8069    231.2124    113.7192   6.2693605669e+01   1.1123023752e+01    0.2635105    0.2618248 -18.54 0.0007432358    1.109    0.099
        52 -10.2203    167.4833    112.3145   7.4562332511e+01   2.5719319306e+01    0.3392854     0.244709 -73.89  0.001053726    1.938    0.484
        53 -11.9878     75.4936    248.2239   1.1799529406e+02   1.4278409436e+01    0.3512053    0.1386103 -58.54  0.001810329    2.978    0.664
        54 -10.6732    134.5838    105.7301   8.0718461444e+01   3.4593455696e+01    0.3895232    0.1504436 -46.01  0.001285246    2.557    0.609
        55 -11.9743    118.7881    110.7220   8.6275500021e+01   3.6831566131e+01    0.5988591    0.4148194  66.96  0.001846375    1.901    0.474
        56 -10.4791    205.4526    110.1770   6.6275272211e+01   1.7362904337e+01    0.3197128    0.2174117  41.79  0.001024439    1.583    0.368
        57 -10.0403    130.7930     96.6236   7.9152551084e+01   3.7383164500e+01    0.2119313    0.1492316  57.21 0.0002714065    1.573    0.364
        58  -9.3937    184.3907     77.2787   6.1398260476e+01   2.8290344281e+01    0.1595987    0.1171868  25.67 0.0006998457    1.739    0.425
        59 -11.3379     71.8540    243.8664   1.1829253235e+02   1.5532297981e+01    0.2328451    0.1394835 -85.32  0.001040154    1.760    0.432
        60  -9.9049     89.2650    242.0162   1.1494959114e+02   1.3450131029e+01    0.1530405    0.1228444  80.72 0.0007242688    1.206    0.170
        61 -13.6082    193.6200     35.2389   4.7991610782e+01   3.2352087624e+01    0.6346587    0.5666476  68.07  0.001384329    1.112    0.101
        62  -9.7162    167.7746    229.7006   9.8370219825e+01   3.1745368931e+00    0.1551918    0.1331564  55.91 0.0004687644    1.281    0.219
