#   1 NUMBER                 Running object number                                     
#   2 MAG_AUTO               Kron-like elliptical aperture magnitude                    [mag]
#   3 X_IMAGE                Object position along x                                    [pixel]
#   4 Y_IMAGE                Object position along y                                    [pixel]
#   5 X_WORLD                Barycenter position along world x axis                     [deg]
#   6 Y_WORLD                Barycenter position along world y axis                     [deg]
#   7 A_WORLD                Profile RMS along major axis (world units)                 [deg]
#   8 B_WORLD                Profile RMS along minor axis (world units)                 [deg]
#   9 THETA_WORLD            Position angle (CCW/world-x)                               [deg]
#  10 FWHM_WORLD             FWHM assuming a gaussian core                              [deg]
#  11 ELONGATION             A_IMAGE/B_IMAGE                                           
#  12 ELLIPTICITY            1 - B_IMAGE/A_IMAGE                                       
         1  -9.3470    231.9365     14.8210   6.0489643776e+01   2.6200030623e+01     0.271152    0.1817128 -22.93  0.001302332    2.035    0.509
         2  -8.4866     55.8106     10.1546   9.2672932298e+01   6.5281227269e+01    0.1597399    0.1428004   3.81 0.0005779536    1.278    0.218
         3  -8.0452     47.6880     10.3401   9.5742790598e+01   6.6431523822e+01    0.1461704    0.1368906 -44.03  0.001084489    1.738    0.424
         4  -8.1021     27.9938     10.0313   1.0359890328e+02   6.8904067610e+01    0.1414452    0.1288629 -27.71 0.0006602345    1.646    0.393
         5  -8.3748     90.8953      8.9582   8.1317699480e+01   5.9332875695e+01    0.1723419    0.1481513 -67.20 0.0006996046    1.700    0.412
         6  -7.7777      6.3044      8.6615   1.1290268107e+02   7.1087211621e+01   0.08565468   0.07854902 -31.14 0.0007039866    1.674    0.403
         7  -7.5821    101.3188      7.7258   7.8221215061e+01   5.7364252080e+01    0.1110145   0.09576153 -84.57 0.0002672345    1.569    0.363
         8  -8.6163     33.5202      5.3437   9.9161877788e+01   6.8821446845e+01    0.2274738    0.1598572 -51.89  0.001276745    2.949    0.661
         9  -8.4702     78.9205      3.5778   8.2494133545e+01   6.2062727944e+01    0.2213069    0.1361388 -38.19  0.001283403    2.075    0.518
        10  -7.6967     15.7054      3.3100   1.0610523998e+02   7.0973510928e+01   0.08684289   0.07730873 -17.79 0.0003144166    1.590    0.371
        11  -7.4640    176.2551      2.3506   6.3490428088e+01   4.0690206481e+01    0.1232866   0.08878205  40.14 0.0002101176    1.599    0.374
        12  -8.4786     62.3622      1.6243   8.6748299210e+01   6.5091880916e+01     0.177098    0.1279495  50.01 0.0005545533    1.578    0.366
        13  -7.4030     39.3004      1.6338   9.5110826972e+01   6.8490680436e+01   0.09392271   0.08432249 -33.07 0.0007033709    1.732    0.423
        14  -8.6748    147.2376    246.1850   1.2572959802e+02   2.8703951471e+00    0.2791466    0.1580185  65.88  0.001138311    2.434    0.589
        15  -8.2227     93.8883    249.7126   1.3615683403e+02   1.1030019160e+01    0.2322456    0.1299711  76.89  0.001205183    2.086    0.521
        16  -8.0835     65.3490    249.6644   1.4123420535e+02   1.5231161321e+01    0.1975699    0.1034253  68.30 0.0009124326    1.762    0.433
        17  -8.5931     52.6045    249.8259   1.4343578397e+02   1.6926481968e+01    0.1535132   0.08800825  88.32 0.0005920277    1.595    0.373
        18  -8.8395    120.0266    245.2998   1.3080666736e+02   7.6376177047e+00    0.2898967    0.1782223  84.41  0.001231892    2.198    0.545
        19  -7.7909    139.6780    245.3087   1.2706070371e+02   4.3171417595e+00    0.1307887   0.08762314  66.96 0.0005291105    1.646    0.392
        20  -7.6858     67.6607    245.3392   1.4045466130e+02   1.5721535139e+01    0.1310646   0.06978622  68.80 0.0007050422    1.764    0.433
        21  -7.9995     50.3282    244.9842   1.4344957175e+02   1.8138296680e+01    0.1910602   0.07298385  85.53 0.0007050819    4.412    0.773
        22  -9.0764      9.7388    244.5417   1.5008093952e+02   2.3000799348e+01    0.2294936    0.0928003  86.10  0.001268711    2.215    0.549
        23  -9.3046    246.5172    229.2168   1.0431633373e+02  -1.1174058265e+01    0.3019898    0.2092871 -30.92  0.001213699    1.467    0.319
        24  -9.3419    248.5073    242.3433   1.0624969439e+02  -1.3186717406e+01    0.2614485    0.2284349 -45.59  0.001180928    1.690    0.408
        25  -9.1964    248.2647    235.5300   1.0511860255e+02  -1.2275815074e+01    0.3190665    0.2159458 -42.62  0.001152016    1.860    0.462
        26  -8.6998    201.9917    243.3233   1.1486599855e+02  -6.0533960398e+00    0.2348767    0.1738401 -51.79 0.0008489148    1.773    0.436
        27  -8.5605    169.0111    243.4739   1.2116623469e+02  -4.4900148591e-01    0.2092199    0.1762425 -85.54 0.0005708846    1.524    0.344
        28  -9.3850    160.3854    240.6257   1.2241636152e+02   1.5236453001e+00    0.3676105    0.2464413 -86.13  0.001815396    2.512    0.602
        29  -8.9278    194.1912    240.2430   1.1584834912e+02  -4.2813536643e+00    0.2968932    0.1785817 -51.07 0.0009994215    2.143    0.533
        30  -9.4155    182.6208    240.4808   1.1809771788e+02  -2.3311392185e+00    0.4900746    0.2953028  46.55  0.002228939    1.495    0.331
        31  -7.8285    153.3875    242.1454   1.2398992259e+02   2.4896309177e+00    0.1628279    0.1210914 -73.93 0.0005147066    1.725    0.420
        32  -7.9001     88.3607    242.1732   1.3639916804e+02   1.3283524782e+01    0.1663151    0.1025205 -85.54 0.0006330042    1.725    0.420
        33  -8.9132     30.1083    242.1479   1.4665660855e+02   2.1185691339e+01    0.1626955   0.09506828  66.81 0.0009278932    1.320    0.242
        34  -8.5302    213.8263    241.3055   1.1232998183e+02  -7.7101719741e+00     0.163595    0.1509367  10.97 0.0009433239    1.161    0.139
        35  -8.5755      3.1679    240.8966   1.5091103998e+02   2.4361874443e+01    0.1712851   0.09820277  72.42 0.0005796311    1.258    0.205
        36  -8.7810    241.1960    238.9498   1.0695782318e+02  -1.1673856560e+01    0.3828574     0.184738 -14.46  0.001614465    3.453    0.710
        37  -8.4067    146.3019    239.9270   1.2505543569e+02   4.1063805776e+00    0.1704169    0.1559843  74.63 0.0005995876    1.149    0.130
        38  -8.4645    208.9786    238.5025   1.1277206271e+02  -6.5097707149e+00    0.1810911    0.1598112 -18.19 0.0005884101    1.227    0.185
        39  -8.6840    135.9712    239.1482   1.2696076196e+02   6.0382858469e+00    0.2557966    0.1524507  58.42  0.001046324    1.658    0.397
        40  -8.1811    129.4322    239.1795   1.2823633739e+02   7.1571063751e+00     0.169099    0.1180036 -81.61   0.00085267    1.740    0.425
        41  -8.1342     40.6863    239.3394   1.4467398941e+02   2.0450054586e+01    0.1250402    0.0643275  70.11 0.0007047008    1.698    0.411
        42  -8.7213     19.3774    238.6773   1.4819961920e+02   2.3073646449e+01    0.1857134    0.1289647  71.81  0.000580193    1.063    0.059
        43  -9.0419    231.2502    237.2239   1.0844740942e+02  -9.9203105648e+00     0.265839    0.2168289 -55.09  0.001046301    1.830    0.454
        44  -9.4193    235.7680    230.8047   1.0651786194e+02  -9.7396531627e+00    0.4361854    0.2719279   8.03 0.0008296001    1.871    0.466
        45  -8.2482     25.4041    236.6628   1.4707400730e+02   2.2787471235e+01    0.2178928   0.07794119  89.03 0.0009485229    3.298    0.697
        46  -9.9596    214.8566    233.2498   1.1079016964e+02  -6.7142391231e+00    0.5303001    0.3807876 -87.56  0.002411909    3.591    0.722
        47  -9.2881    203.4463    234.1005   1.1308649816e+02  -4.9228689850e+00    0.4465148    0.2341771 -40.50  0.001716279    2.142    0.533
        48  -9.6348    175.7989    233.5001   1.1833075679e+02  -5.6872619017e-03    0.4596077    0.2433602 -58.91  0.002076893    2.774    0.640
        49  -7.9532    170.2230    235.9163   1.1979693478e+02   5.7987642740e-01    0.1501665    0.1098431 -50.11  0.000463105    1.606    0.377
        50  -9.1005    108.9676    234.5906   1.3163764732e+02   1.1457522975e+01     0.477173    0.2114223  56.82  0.001161333    2.302    0.566
        51  -8.5305     78.9116    234.4836   1.3737270735e+02   1.6195844520e+01    0.2337305    0.1446739  84.52 0.0008720679    1.627    0.385
        52  -9.1669      7.9748    235.0372   1.4983284937e+02   2.4987631668e+01    0.1487746    0.1184141 -64.33  0.001139883    1.730    0.422
        53  -8.0746    122.5640    234.0381   1.2891061287e+02   9.2812378542e+00    0.1742253    0.1255567 -67.33   0.00056921    1.535    0.349
        54  -8.1616     99.5812    234.3463   1.3342536759e+02   1.3030227737e+01    0.1955578    0.1238965  71.05 0.0007257304    1.589    0.371
        55  -9.0440     68.3210    232.4458   1.3914791150e+02   1.8137443512e+01    0.4702713    0.2065427  73.38   0.00193479    3.255    0.693
        56  -8.5007    194.4445    232.7126   1.1457952011e+02  -3.1586701720e+00    0.2022115    0.1284081 -47.12  0.000462193    1.865    0.464
        57  -8.7238    140.2969    230.3470   1.2489211573e+02   6.8829416226e+00    0.3428055    0.1778422  60.62  0.001245007    2.353    0.575
        58  -9.1397    186.5509    230.8118   1.1579765499e+02  -1.4690393671e+00    0.3310926    0.2476806 -81.19  0.001577078    2.175    0.540
        59  -7.9505     77.4722    243.0095   1.3847959132e+02   1.4754940047e+01    0.1728584   0.08681396  82.77 0.0008085946    2.542    0.607
        60  -8.0600     92.7367    232.1590   1.3449527443e+02   1.4543459299e+01    0.2286902    0.1110608  70.47 0.0009587612    2.822    0.646
        61  -8.3875      1.7109    231.1440   1.5062256433e+02   2.6366486545e+01    0.1797698   0.09115273  78.77 0.0008191304    1.524    0.344
        62  -8.8950    151.3376    229.0031   1.2248741402e+02   5.1576574890e+00    0.3306248    0.2040971  88.03  0.001221334    3.136    0.681
        63  -9.4390    148.6585    224.5060   1.2234959150e+02   6.4670811643e+00    0.4561155    0.2946013  81.66  0.001913239    2.447    0.591
        64  -7.7773    229.6395    228.8211   1.0728438183e+02  -8.4869316891e+00    0.1590087    0.1140996 -43.10 0.0005734284    1.666    0.400
        65  -8.7667    162.2142    228.1367   1.2017911541e+02   3.3510974015e+00    0.3105307    0.1682804  54.62   0.00112956    1.951    0.488
        66  -8.8489    128.1288    227.4787   1.2692710284e+02   9.5660621657e+00     0.290298    0.1878464  70.97  0.001214069    1.800    0.444
        67  -7.8964    119.9994    227.7725   1.2859665373e+02   1.0917470854e+01    0.2194148    0.1264855  64.88 0.0009559048    1.943    0.485
        68  -9.4672    225.2108    222.5606   1.0699037500e+02  -6.8447002436e+00    0.5194576    0.2571209 -22.40  0.002249371    2.806    0.644
        69  -8.6349    206.0237    225.9813   1.1121618712e+02  -4.1101338681e+00    0.2421849    0.1778222 -39.73 0.0008086528    1.514    0.340
        70  -8.1537     49.5827    227.2234   1.4212458630e+02   2.1730137254e+01    0.2074998    0.1091147  72.55  0.001121131    1.810    0.448
        71  -8.4368      6.7149    226.5932   1.4954994309e+02   2.6759317817e+01    0.2497519   0.06939813  56.63  0.001165325    3.085    0.676
        72  -8.0848    200.3242    226.2371   1.1235675106e+02  -3.1574683270e+00    0.1712179    0.1206112 -50.45 0.0005138761    1.739    0.425
        73  -8.7473    180.5418    224.3187   1.1590995427e+02   6.9231688493e-01    0.2499878    0.1970724  81.68 0.0007315158    1.770    0.435
        74  -8.6001     93.8817    224.1810   1.3335036373e+02   1.5959342939e+01    0.3110065    0.1727841  82.29  0.001432914    2.359    0.576
        75  -8.1529     38.4406    224.9327   1.4395446151e+02   2.3590091917e+01    0.1711404   0.07630118  80.81 0.0008069094    2.480    0.597
        76  -8.9661    216.3844    223.2237   1.0876191664e+02  -5.4612049148e+00    0.2732008    0.2144673 -43.78 0.0009030354    1.491    0.329
        77  -8.6152    172.9762    223.1387   1.1722487240e+02   2.2750172612e+00    0.2578651    0.1911782 -78.39 0.0007830491    1.953    0.488
        78  -7.8446    114.0000    224.0314   1.2930622467e+02   1.2677246262e+01    0.1938567   0.07426988 -58.47 0.0004654168    2.836    0.647
        79  -8.7261    104.9838    223.7184   1.3107955931e+02   1.4252166254e+01     0.286662    0.1722006  80.05  0.001383493    2.071    0.517
        80  -7.7369    233.4699    223.4862   1.0563583755e+02  -8.3328330851e+00    0.1274523    0.1070374   9.86 0.0001900191    1.018    0.018
        81  -9.3657    192.4359    221.3891   1.1306146700e+02  -9.6296082442e-01    0.3159341    0.2513277 -83.87  0.001148388    1.898    0.473
        82  -8.2317    140.5001    223.0043   1.2378191828e+02   8.2249263134e+00    0.1779539    0.1145011 -88.18   0.00071672    2.359    0.576
        83  -9.1004    239.1358    221.5545   1.0425939401e+02  -8.9595699850e+00    0.2294489    0.2011323 -48.79 0.0008891509    1.536    0.349
        84  -7.9311    163.0055    222.4896   1.1912811441e+02   4.2182552180e+00    0.2064594    0.1158293  50.45  0.000815046    1.690    0.408
        85  -8.5041    159.1083    220.6508   1.1962462919e+02   5.2709676598e+00    0.2670433    0.1993674  82.30  0.000822933    1.771    0.435
        86  -8.2790    202.8480    220.2739   1.1083214052e+02  -2.6409807748e+00    0.2086927    0.1803384 -48.42 0.0006730478    1.370    0.270
        87  -8.1143     82.6222    220.5340   1.3515732576e+02   1.8460178093e+01     0.217554    0.1330654  85.63  0.001126057    1.743    0.426
        88  -8.1988     73.3784    221.1649   1.3704329037e+02   1.9706147849e+01    0.1790354    0.1034303 -85.67  0.000934656    1.781    0.439
        89  -9.1080    120.2869    219.3097   1.2738526248e+02   1.2538614996e+01    0.3908144    0.2081429  68.26  0.001613459    2.654    0.623
        90  -7.3576     27.6772    220.6771   1.4555248217e+02   2.5718445162e+01     0.102566   0.08233549 -58.81 0.0007046705    1.680    0.405
        91  -8.1738    249.7739    218.9852   1.0189576071e+02  -1.0254154938e+01    0.1627641    0.1386943  53.29  0.001036668    1.642    0.391
        92  -9.2176    132.8963    215.9995   1.2430009470e+02   1.0962430432e+01    0.4855685    0.2863415  79.56  0.001984373    2.856    0.650
        93  -8.7433     51.4829    217.3423   1.4088123505e+02   2.3523474224e+01    0.2886699    0.1570273  85.69  0.001038887    1.816    0.449
        94  -8.7217    169.3088    216.2958   1.1682984362e+02   4.1796467989e+00    0.2890379    0.2278269 -78.09  0.000875927    1.648    0.393
        95  -8.5986    142.8164    216.5071   1.2231899062e+02   9.0562272147e+00    0.2550412    0.1766459 -79.22  0.001024517    1.871    0.466
        96  -8.1445     61.7765    216.9656   1.3886494910e+02   2.2227538930e+01    0.2104301    0.1144239  78.81 0.0008677007    1.951    0.488
        97  -8.5256    210.1623    218.8339   1.0916492192e+02  -3.6979601271e+00    0.2206763    0.1750534 -48.55 0.0009746569    1.510    0.338
        98  -7.9129     12.2812    216.2024   1.4795158460e+02   2.8282081600e+01    0.1655185   0.05966704  47.21 0.0008200437    2.382    0.580
        99  -8.8049    232.3933    214.4271   1.0418152555e+02  -6.8096252769e+00    0.2795596    0.1879678 -33.81  0.001136618    1.507    0.336
       100  -8.4582    185.5443    214.3515   1.1320660837e+02   1.5056098399e+00    0.2245787    0.1954585 -84.73 0.0007071181    1.466    0.318
       101  -8.1770    154.4009    215.2089   1.1971375982e+02   7.1641835300e+00    0.1829999    0.1314313 -68.72 0.0007228015    1.700    0.412
       102  -9.7246     34.0409    213.6098   1.4383427085e+02   2.6453832782e+01    0.5617268    0.2795407  70.94  0.003018963    1.922    0.480
       103  -8.7048     93.1726    214.0788   1.3225842451e+02   1.8163974803e+01    0.3275943    0.1750563  61.57  0.001147958    1.930    0.482
       104  -8.3419    224.9415    212.7717   1.0525704369e+02  -5.2978352159e+00    0.2201753    0.1680766 -49.60 0.0008317392    1.624    0.384
       105  -9.4090    213.8197    212.1964   1.0725812844e+02  -3.2700356189e+00    0.3099607    0.2520614  62.41  0.000647072    1.602    0.376
       106  -8.7835    161.6350    212.6123   1.1778793147e+02   6.3033712371e+00    0.2629572    0.2154314  60.32 0.0007129629    1.228    0.186
       107  -7.6673    106.4937    212.9675   1.2936127729e+02   1.6207499695e+01    0.1819341    0.1075856  87.01 0.0005202701    2.290    0.563
       108  -9.4176     72.5052    211.5614   1.3616275072e+02   2.1859106510e+01    0.4837494    0.2096074  68.16   0.00182675    3.440    0.709
       109  -9.6821    204.3191    209.3100   1.0856826847e+02  -1.0819336354e+00    0.5457766    0.2371832 -43.23   0.00174535    2.474    0.596
       110  -9.3703    175.6842    210.2978   1.1449537235e+02   4.0834171947e+00    0.4129318    0.2801047  83.86  0.001487684    2.659    0.624
       111  -8.2971    192.4188    210.6522   1.1116969623e+02   8.7912562332e-01    0.2329676    0.1334008 -49.74 0.0007379869    2.026    0.506
       112  -8.7818    147.7508    210.6171   1.2035286125e+02   9.2970637898e+00    0.2988741    0.2249329  68.16  0.001270141    1.444    0.308
       113  -8.7638    116.3684    210.6413   1.2696822719e+02   1.4997037242e+01    0.3365267    0.2009723  67.81  0.001086143    1.966    0.491
       114  -8.5046     85.7688    209.8199   1.3324946070e+02   2.0238222019e+01    0.3347055    0.1726854  82.44  0.001360805    2.895    0.655
       115  -8.9728    236.5132    208.3621   1.0229354993e+02  -6.5671110889e+00    0.3147581    0.2248184 -59.00  0.001245736    2.186    0.543
       116  -7.8948    237.4690    204.5306   1.0139171409e+02  -6.1334037433e+00    0.2031708    0.1458589  -0.09 0.0006147419    1.499    0.333
       117  -8.3760     46.1522    209.6985   1.4118651559e+02   2.5822521058e+01    0.2647589    0.1349334  68.70  0.001357851    1.955    0.489
       118  -9.2948    246.3226    207.3013   1.0032774093e+02  -8.0126912668e+00    0.2606872    0.1923297 -25.66  0.000480514    1.278    0.218
       119  -9.1491    169.9193    207.7187   1.1523105644e+02   5.6596389543e+00    0.2326713    0.2255087 -36.30 0.0004332305    1.128    0.113
       120  -9.5336    163.8008    203.0865   1.1569362960e+02   7.7237897372e+00    0.4568238    0.2654701  61.16   0.00116874    2.200    0.545
       121  -8.0048    156.4825    207.9881   1.1808227387e+02   8.1670698544e+00    0.1980298    0.1403149 -56.15 0.0007867934    1.565    0.361
       122  -8.1251    139.0723    208.0567   1.2177005583e+02   1.1427700383e+01    0.2255863    0.1600646  77.55 0.0007268147    1.722    0.419
       123  -7.9850    126.4219    208.2954   1.2449306888e+02   1.3697457108e+01    0.1816528    0.1297293 -75.43  0.000599664    1.566    0.361
       124  -9.1087     99.4608    206.1835   1.2991166595e+02   1.8824153634e+01     0.394477    0.2214721  82.91  0.001436272    2.564    0.610
       125  -8.3293      6.2201    208.2257   1.4848571081e+02   3.0514929845e+01    0.1811725   0.06800425 -88.47 0.0008748559    2.456    0.593
       126  -8.3717     56.3851    205.3553   1.3873268727e+02   2.5442977031e+01    0.2493175    0.1321032  74.39  0.001221089    2.040    0.510
       127  -9.6464     12.0913    203.9543   1.4713298392e+02   3.0838068382e+01    0.3400536    0.1795837  77.27   0.00202294    1.631    0.387
       128  -9.3358    192.5981    197.3534   1.0866385662e+02   3.2358155036e+00    0.3906994     0.280544 -66.32  0.001386832    1.934    0.483
       129  -9.1431    183.8402    204.1049   1.1171358345e+02   3.6736774923e+00    0.3280649    0.2542502  78.17 0.0009364401    1.776    0.437
       130  -8.0836    109.0218    205.0956   1.2772508797e+02   1.7444429751e+01    0.2225658     0.148515  75.31  0.000640394    1.669    0.401
       131  -7.3635     92.3182    205.6501   1.3134907905e+02   2.0103982071e+01    0.1453626   0.09110368  74.08 0.0007047954    1.736    0.424
       132  -8.6473    131.2193    204.0822   1.2281027589e+02   1.3698397918e+01    0.2769965    0.1653375  65.85  0.000838609    2.057    0.514
       133  -9.4401    250.0540    201.9007   9.8638003900e+01  -7.7997179112e+00    0.3780706    0.1769022 -37.29  0.001459812    2.057    0.514
       134  -8.5870    210.9903    201.8652   1.0586791248e+02  -1.0335949786e+00    0.2920136    0.1816708 -56.93 0.0006199382    2.262    0.558
       135  -9.2000    243.0204    200.7829   9.9669630318e+01  -6.4774353317e+00    0.3080121    0.1783859 -39.70 0.0008769719    1.743    0.426
       136  -8.1035    222.1628    201.5232   1.0365717983e+02  -2.9990979776e+00    0.2270592    0.1541618 -59.87 0.0007553583    2.218    0.549
       137  -8.9616    140.3913    201.0706   1.2034253695e+02   1.2612999084e+01    0.3508682     0.228831 -87.30  0.001101074    2.283    0.562
       138  -8.5474     80.0685    201.6652   1.3341941209e+02   2.2888631244e+01    0.3082749    0.1518874  69.28  0.001258574    2.720    0.632
       139  -8.5743     48.1798    202.0162   1.4003600051e+02   2.7231011783e+01    0.2152122    0.1126006  80.02  0.001058462    2.045    0.511
       140  -9.3681    149.7156    198.7188   1.1792857202e+02   1.1317615281e+01    0.4623056     0.307797 -88.70  0.001443941    2.321    0.569
       141  -8.8782    123.8943    199.3078   1.2363382117e+02   1.6050697174e+01    0.3194137    0.2185131  84.84  0.001335361    1.816    0.449
       142  -9.2180    112.8285    198.4068   1.2590808098e+02   1.8228357952e+01    0.4692849    0.2636696  71.69  0.001599075    2.536    0.606
       143  -8.8098     88.7426    198.6677   1.3117697819e+02   2.2206745588e+01    0.3568537    0.2108668  84.34  0.001416531    2.083    0.520
       144  -8.8555    237.0404    198.4250   1.0029267000e+02  -5.0968731871e+00     0.302614    0.1745991 -46.60  0.001175475    1.995    0.499
       145  -8.3863    177.0268    199.0201   1.1218366422e+02   5.9443720875e+00    0.2124117    0.1720531  85.06 0.0004379243    1.596    0.373
       146  -7.9461    105.6974    199.0567   1.2756023590e+02   1.9323834487e+01    0.1870649    0.1601412 -87.73 0.0003359053    1.102    0.092
       147  -8.2746    202.0553    198.0114   1.0688796773e+02   1.3080287994e+00    0.2055172    0.1729736  85.05  0.000594257    1.630    0.387
       148  -9.3099     61.4697    197.0163   1.3677046539e+02   2.6597794852e+01      0.40244    0.2038986  77.18  0.001604382    2.495    0.599
       149  -9.1509    194.9504    203.8248   1.0940954696e+02   1.6131097916e+00    0.3469258    0.2974373 -75.25 0.0009498287    1.509    0.338
       150  -8.2379     53.4242    196.7206   1.3841161304e+02   2.7731030563e+01    0.2326845    0.1091579 -74.72 0.0009071007    1.990    0.497
       151  -8.7057    215.7473    195.5316   1.0372197972e+02  -8.2060227625e-01    0.2981237     0.182117 -51.00   0.00113111    1.971    0.493
       152  -8.2287    132.9595    196.1742   1.2113837585e+02   1.5043388126e+01     0.201816    0.1496286 -83.12 0.0004861471    1.568    0.362
       153  -9.3144    245.6277    193.6419   9.7813156203e+01  -5.7926367883e+00    0.2932712    0.2482172  75.50  0.001469941    1.827    0.453
       154  -8.7546    224.4796    194.2543   1.0180478139e+02  -2.1996744114e+00    0.2977368    0.2046981 -52.56   0.00104827    1.799    0.444
       155  -8.8581    185.3853    194.8789   1.0966901053e+02   5.1004827303e+00      0.25654    0.2153892  75.46 0.0007292485    1.455    0.313
       156  -9.0017    161.1549    194.5094   1.1471166709e+02   9.9455494200e+00    0.3014553    0.2259103  79.63 0.0009073801    1.727    0.421
       157  -7.9335    230.8649    194.3845   1.0063649808e+02  -3.3644291466e+00    0.1779733    0.1638624 -33.92 0.0006386169    1.196    0.164
       158  -8.6446     77.0958    193.8010   1.3304507207e+02   2.5089449222e+01    0.2268909    0.1599845 -89.44 0.0005855716    1.352    0.260
       159  -8.9127     43.8420    193.5430   1.4004971300e+02   2.9635482238e+01    0.3603418     0.187256  70.03  0.001803513    2.030    0.507
       160  -8.9111    171.7938    192.2071   1.1200867360e+02   8.3023909960e+00    0.2869852    0.2379039 -29.72  0.001424512    1.349    0.259
       161  -7.8174    205.2224    191.9227   1.0507319846e+02   1.7984780455e+00    0.1798513    0.1142545 -42.05 0.0005378679    1.628    0.386
       162  -8.4041    198.8921    191.8776   1.0633017636e+02   3.0269832292e+00    0.2451665    0.1892469 -47.50 0.0006112573    1.397    0.284
       163  -8.0489    179.4289    191.9162   1.1034149573e+02   6.8439392056e+00    0.1941971    0.1273477 -72.25 0.0007456681    2.444    0.591
       164  -9.1363    139.5329    190.5616   1.1872144700e+02   1.4993095822e+01     0.412139    0.2736344  88.08  0.001066015    2.205    0.546
       165 -10.3032     92.0757    188.7679   1.2904780269e+02   2.3896113444e+01    0.9040787    0.2764537  51.59  0.002903918    3.851    0.740
       166  -8.4382     22.0770    191.7192   1.4426288748e+02   3.2462211817e+01    0.1893327   0.04680595  51.98 0.0007014736    4.138    0.758
       167  -7.7452     16.6485    191.3054   1.4529198690e+02   3.3095731944e+01    0.1255616   0.06789411  70.19 0.0007041657    1.707    0.414
       168  -8.4668    148.6193    189.5744   1.1653629161e+02   1.3434206374e+01     0.288231    0.2006642  81.47 0.0009057296    1.984    0.496
       169  -8.3946    237.2272    188.5224   9.8305552782e+01  -3.5185967410e+00    0.2387008    0.1724177 -32.84 0.0005056429    1.325    0.245
       170  -8.7466    216.5265    188.1225   1.0210393138e+02   3.2840698309e-01    0.2451216    0.2196241  84.83 0.0007038916    1.458    0.314
       171  -9.0716    191.4517    187.4138   1.0696395347e+02   5.3245950186e+00    0.3727847    0.2591253 -68.06   0.00125561    2.068    0.517
       172  -9.2271    155.9110    187.5754   1.1456388079e+02   1.2411337244e+01    0.3753316    0.2092088 -58.46 0.0009777121    2.088    0.521
       173  -8.8406    129.2675    188.6648   1.2067767681e+02   1.7362860126e+01    0.3071572    0.2178906  78.81  0.001047688    1.699    0.411
       174  -9.8702    120.9632    186.8215   1.2223112061e+02   1.9318723814e+01    0.5962168    0.3087741 -74.80  0.002159797    3.078    0.675
       175  -8.6661     34.2984    188.2419   1.4147530979e+02   3.1925048558e+01    0.3161367     0.145411  75.90  0.001149897    2.646    0.622
       176  -8.9021    242.8558    187.7256   9.7133155051e+01  -4.3699238131e+00    0.2654107    0.1405362 -25.92  0.001200843    2.074    0.518
       177  -8.6583    165.0567    187.2465   1.1250885007e+02   1.0649065101e+01    0.2757379    0.2124988  77.24 0.0007860193    1.615    0.381
       178  -9.1143     54.7631    187.0011   1.3702656566e+02   2.9744362395e+01    0.3976491    0.2080994  79.19   0.00181731    2.307    0.566
       179  -7.9158    230.3994    187.3083   9.9315119115e+01  -2.0956011046e+00    0.1864581    0.1243362 -45.97  0.000863202    1.620    0.383
       180  -8.9953    109.3371    186.0521   1.2473665038e+02   2.1588612794e+01    0.3618806    0.2354126  83.06 0.0008866346    1.945    0.486
       181  -8.5898    249.1861    185.6861   9.5608370033e+01  -5.1231931439e+00    0.2283746     0.164395 -42.24 0.0006423324    1.438    0.305
       182  -8.9592    183.0309    185.2077   1.0827601762e+02   7.4369837163e+00    0.3046884    0.1999314 -54.86 0.0006127034    1.734    0.423
       183  -8.9268    210.2577    184.4064   1.0257558500e+02   2.1924839779e+00     0.250729    0.2188231 -48.94 0.0005876133    1.250    0.200
       184  -8.9416    202.7982    184.7382   1.0412342111e+02   3.5863442429e+00    0.2724618    0.1958513 -53.49 0.0007566243    1.592    0.372
       185  -9.0402     66.4776    184.3961   1.3414382479e+02   2.8766186971e+01    0.3631337    0.1999773  80.61  0.001006827    2.254    0.556
       186  -8.4469    224.1270    183.6416   9.9747460195e+01  -3.1014770947e-01    0.2311662    0.1804437 -45.78 0.0005418689    1.370    0.270
       187  -8.8451    197.1247    183.6770   1.0505485118e+02   4.9078699341e+00    0.2496105    0.1957179 -54.66 0.0006716622    1.432    0.302
       188  -8.9919    174.3134    183.5596   1.0979794654e+02   9.5295581864e+00    0.3148442    0.2393685 -74.90  0.000870493    1.705    0.414
       189  -9.0665     44.3909    182.3926   1.3872948805e+02   3.2081318446e+01    0.3452382    0.1864902  77.44  0.001081071    2.043    0.511
       190  -8.1406      1.7479    183.6324   1.4757700754e+02   3.6113362145e+01    0.1475576   0.08594693  52.59 0.0009428012    1.681    0.405
       191  -8.8897    240.5794    181.4115   9.6267164983e+01  -2.9281883717e+00    0.3348964    0.1548581 -45.40  0.001424666    2.310    0.567
       192  -9.1260    147.5587    180.7241   1.1512260415e+02   1.5537867762e+01    0.3776435     0.267295 -82.71  0.001007058    1.884    0.469
       193  -7.3141     83.3156    182.6166   1.3011939374e+02   2.6696275116e+01     0.150998   0.09507298  77.38 0.0007020595    1.821    0.451
       194  -7.7558     90.6523    181.7051   1.2831061544e+02   2.5745335287e+01    0.1308379    0.1119731 -22.23 0.0007032158    1.673    0.402
       195  -9.3039     25.7400    179.1556   1.4235425872e+02   3.4873222926e+01    0.5889017    0.2326921  81.16   0.00213739    4.152    0.759
       196  -8.4619    137.6756    179.6071   1.1714793098e+02   1.7740514738e+01    0.2972866    0.2003013  79.01  0.001049485    2.039    0.510
       197  -9.2767    191.4222    178.3301   1.0513594273e+02   7.0866578807e+00    0.2915136    0.2523675 -77.98 0.0004619227    1.394    0.283
       198  -8.9416     35.9339    176.6804   1.3992216007e+02   3.4353181959e+01    0.4720208     0.197099  84.07  0.001704112    3.954    0.747
       199  -9.5447    248.4097    176.5747   9.3900710657e+01  -3.5017873993e+00    0.4571102    0.2787705 -50.26  0.002001058    1.937    0.484
       200  -8.6004    250.5058    172.9241   9.2791068737e+01  -3.2622659854e+00    0.2320295    0.1730798 -32.95 0.0007877025    1.225    0.184
       201  -8.5285    205.1366    177.6779   1.0221132485e+02   4.4455588604e+00    0.2574776    0.1894505 -49.92 0.0007557319    1.463    0.317
       202  -7.8510    169.4412    178.5257   1.0984703983e+02   1.1556017864e+01    0.1484544    0.1409246  69.18 0.0001521606    1.064    0.060
       203  -8.5440    129.1883    177.4461   1.1869288986e+02   1.9871328127e+01    0.3144259    0.2131752  84.22 0.0009092598    1.992    0.498
       204  -8.6119    231.1345    176.8459   9.7046324473e+01  -4.2954108447e-01    0.2367298    0.1778577 -47.07 0.0007022495    1.422    0.297
       205  -8.3962    217.4502    177.1622   9.9689552111e+01   2.1170224590e+00    0.2096931    0.1961303  88.36 0.0005696431    1.296    0.228
       206  -9.3295    183.2853    175.4365   1.0624391382e+02   9.3310286096e+00    0.5174289    0.2660111 -38.98  0.001221428    2.087    0.521
       207  -8.2364     97.9491    177.4974   1.2596137804e+02   2.5515504251e+01    0.2078093    0.1363025  42.78 0.0006773169    1.540    0.351
       208  -8.7199     88.9908    176.7232   1.2792296872e+02   2.7169496954e+01    0.3018867    0.1898268  85.39  0.001012896    1.944    0.486
       209  -9.8172     57.3608    173.3662   1.3474616026e+02   3.2550828506e+01    0.7957595    0.3561141  85.07  0.002517348    4.787    0.791
       210  -8.5504     13.0590    176.8634   1.4477061897e+02   3.6604624626e+01    0.2528046     0.121285  69.25  0.001156578    2.182    0.542
       211  -9.2449    158.8412    175.1886   1.1151305238e+02   1.4440546016e+01     0.385682    0.2688371  84.10 0.0009626159    2.122    0.529
       212  -9.2731    104.2818    174.7598   1.2402318731e+02   2.5065595778e+01    0.5241853    0.2778201  66.39  0.001849218    2.747    0.636
       213 -10.6985     75.8973    170.2418   1.2999092783e+02   3.0711424949e+01     1.283217    0.4578191 -72.71  0.003833737    4.541    0.780
       214  -7.5826    149.3126    175.3154   1.1368034912e+02   1.6360713733e+01    0.1476953    0.1214479  -2.33 0.0007033736    1.640    0.390
       215  -7.8926    224.4743    174.4697   9.7792480219e+01   1.2487349856e+00    0.1384315    0.1321436 -14.86  9.88532e-05    1.057    0.054
       216  -9.5615    175.8160    172.0583   1.0714197152e+02   1.1573948232e+01    0.4047015    0.2573994 -41.20  0.001104434    1.639    0.390
       217  -8.3527    143.0019    172.9793   1.1466078791e+02   1.8150395988e+01    0.2411095    0.1794025  81.76 0.0005401132    1.665    0.399
       218  -8.6603    194.2574    172.5820   1.0335542180e+02   7.6339174965e+00    0.2821049    0.1454353  40.19 0.0009122488    1.963    0.491
       219  -8.6860    198.4210    170.3985   1.0204086904e+02   7.2041670373e+00    0.2880996    0.2399078 -88.87 0.0008308784    1.553    0.356
       220  -8.4331    134.7935    171.9210   1.1635159623e+02   2.0023930409e+01    0.2763956    0.2052515 -80.83  0.000865378    1.587    0.370
       221  -9.5408    121.3560    170.4840   1.1922948785e+02   2.2950282948e+01    0.4159583    0.2773322 -76.93  0.001133572    1.807    0.447
       222  -9.0961     44.8984    170.9046   1.3726502295e+02   3.4662961768e+01    0.3814872    0.2005481  85.11  0.001197365    2.242    0.554
       223  -9.0095    230.0359    169.3387   9.5681481588e+01   1.1024851700e+00    0.5097047    0.2076058 -47.10  0.001914277    2.699    0.629
       224  -8.4466    205.9170    170.4781   1.0054660536e+02   5.6549679676e+00    0.2740307    0.1994461 -57.73 0.0008690715    1.618    0.382
       225  -8.3576    237.1710    169.8689   9.4496570066e+01  -3.3560027566e-01    0.2027364    0.1841325 -56.34 0.0005599853    1.273    0.214
       226  -9.2541    167.3627    168.8370   1.0831904732e+02   1.4022413300e+01    0.4125682     0.274928  75.17  0.001132401    2.262    0.558
       227  -8.3451    149.8630    169.7529   1.1244565596e+02   1.7468205887e+01    0.2725616    0.1935682 -83.49 0.0007420115    1.912    0.477
       228  -8.0385    244.4230    169.2656   9.3086843430e+01  -1.5627752956e+00    0.1852436     0.121184 -45.59  0.000661062    1.560    0.359
       229  -8.1898     88.4913    168.5437   1.2672545344e+02   2.9170169320e+01    0.2499245    0.1297579 -73.27 0.0008973816    2.241    0.554
       230  -8.2840    218.8419    168.2186   9.7543051731e+01   3.4844505514e+00    0.2107458     0.193344 -72.06  0.000584471    1.283    0.221
       231  -7.8075    211.3821    168.1726   9.8976289262e+01   4.9859347193e+00     0.207324    0.1320393 -51.38 0.0005631961    1.734    0.423
       232  -9.0531    184.9454    166.7690   1.0407018033e+02   1.0742162708e+01    0.3151549    0.2116599 -50.51 0.0007052654    1.559    0.358
       233  -8.9448    111.5377    167.5064   1.2101453208e+02   2.5462852770e+01    0.3433652    0.2254826 -85.40 0.0009260654    1.962    0.490
       234  -8.9079    191.9016    166.6900   1.0259239046e+02   9.2935619811e+00    0.2806677     0.214953 -51.61 0.0006480674    1.371    0.271
       235  -9.2986     20.4286    165.9955   1.4216334994e+02   3.8364387943e+01    0.3481891    0.1784011  79.43  0.001179017    2.108    0.526
       236  -9.8274    136.7834    164.4676   1.1441275578e+02   2.1314080762e+01    0.6757796    0.3251942  59.67  0.002196426    2.968    0.663
       237 -10.0531     94.9788    163.0283   1.2421453013e+02   2.9412705480e+01    0.8314458    0.4515421  82.21  0.002770922    3.768    0.735
       238  -8.5150     96.0032    155.0000   1.2250158036e+02   3.1149645855e+01    0.2836459    0.1868512  16.16  0.001199451    2.493    0.599
       239  -7.8969    250.6271    165.2633   9.1184792297e+01  -1.9986912091e+00    0.1927882    0.1169409 -28.83 0.0005210908    1.603    0.376
       240  -8.2682    233.9048    165.0920   9.4077722933e+01   1.1208391299e+00     0.208956    0.1831541 -55.22 0.0005715467    1.280    0.219
       241  -8.8604    159.5292    164.4674   1.0915390957e+02   1.6612542509e+01    0.3093005    0.2544309  82.10 0.0007267205    1.405    0.288
       242  -9.5622     33.4695    163.5472   1.3897280943e+02   3.7635491608e+01    0.4823017    0.2098031  61.71  0.001993943    2.975    0.664
       243  -8.9420    246.0030    163.1918   9.1541325735e+01  -8.0850330538e-01    0.2412096    0.1802093 -34.10 0.0004477917    1.226    0.184
       244  -8.2534    240.0347    164.2837   9.2811944362e+01   1.0620759534e-01    0.1853258    0.1751914  -6.99 0.0004434706    1.055    0.052
       245  -8.5632    213.0019    163.7986   9.7721220305e+01   5.4856644056e+00    0.2562701    0.2014179 -42.90 0.0005743507    1.261    0.207
       246  -8.7551     60.6546    160.5908   1.3217938204e+02   3.5127178866e+01    0.2975263    0.1881347  86.92   0.00119601    1.749    0.428
       247  -8.7700    204.8742    163.0542   9.9161969170e+01   7.3006162429e+00    0.2228492    0.2009724 -77.94 0.0005084481    1.285    0.222
       248  -9.1545      3.4763    162.5762   1.4549624850e+02   4.0582754035e+01    0.3445586    0.1516823  60.31  0.001770855    2.498    0.600
       249  -8.8560    151.6526    161.1380   1.1025082954e+02   1.9002387736e+01    0.3348783    0.2447934 -78.12 0.0009106299    1.735    0.424
       250  -9.1094    177.3426    160.7349   1.0439935490e+02   1.3611324066e+01    0.3045981    0.2680236 -81.45 0.0008489455    1.274    0.215
       251  -8.6814    227.3534    159.0796   9.3983789555e+01   3.4807179132e+00     0.291553    0.2001748 -55.57 0.0009656571    1.701    0.412
       252  -9.6557    250.2202    157.9849   8.9726376228e+01  -6.8391734094e-01    0.3392041    0.1760734 -35.65  0.000955378    1.771    0.435
       253  -8.2689    236.8658    159.0814   9.2265458979e+01   1.6253519368e+00    0.2130863     0.185951 -56.39 0.0006252502    1.276    0.216
       254  -8.5944    196.5606    158.1417   9.9769247013e+01   1.0020642785e+01    0.2723954    0.2318903 -83.78 0.0007831387    1.423    0.297
       255  -9.1929    167.7655    157.5370   1.0580996199e+02   1.6355333845e+01    0.3996041    0.2942776  85.50  0.001227016    1.876    0.467
       256  -8.3327    128.2206    158.9447   1.1533369952e+02   2.4287792708e+01    0.2958956    0.2149385  89.79 0.0008220589    1.734    0.423
       257  -9.6538    105.5879    157.7457   1.2063438344e+02   2.8831314123e+01    0.5016363     0.329226 -88.75  0.001116015    2.030    0.507
       258  -9.5897     81.6234    154.8639   1.2608256745e+02   3.3504513899e+01    0.5364758    0.3052321  83.00   0.00151371    2.847    0.649
       259  -8.6822    187.6327    157.6096   1.0150889115e+02   1.2043766337e+01     0.288498    0.2637598  87.26 0.0008220611    1.204    0.170
       260  -7.9126     79.4712    158.4711   1.2723847739e+02   3.2971079887e+01    0.1417738     0.124683 -84.42 0.0002479263    1.013    0.013
       261  -8.5238    217.8386    156.4787   9.5196615112e+01   5.8840836340e+00    0.2998495    0.1783676 -54.09  0.001176075    1.973    0.493
       262  -9.0144    157.4129    156.3019   1.0788421122e+02   1.8851368999e+01    0.3230802    0.2629293 -67.14 0.0009905731    1.325    0.245
       263  -7.8996     42.5076    157.5224   1.3610452417e+02   3.8060053879e+01    0.1300002    0.1071581 -78.17 0.0001699318    1.031    0.030
       264  -8.5287    144.7233    155.1968   1.1060105365e+02   2.1785806874e+01    0.2972224    0.2290855  81.04   0.00101726    1.567    0.362
       265  -9.9047    118.2024    153.7371   1.1671876763e+02   2.7447143193e+01    0.6238458    0.3852299  89.91   0.00232648    2.739    0.635
       266  -9.1571     49.7110    155.3760   1.3407192423e+02   3.7732882397e+01    0.3904277    0.2177947  67.57  0.001673386    2.210    0.548
       267  -9.0328    241.9641    154.4578   9.0380920811e+01   1.4720051301e+00    0.3307197    0.2380165  80.76  0.001554232    2.289    0.563
       268  -7.9707    204.7567    155.5695   9.7542769659e+01   8.7884493797e+00    0.1963227    0.1443136  58.78 0.0004902847    1.525    0.344
       269  -9.6766    132.8071    152.9915   1.1298281560e+02   2.4744741806e+01    0.5028838    0.3483685  83.01  0.001268775    2.008    0.502
       270  -9.0990    133.5808    148.2238   1.1176547321e+02   2.5685728207e+01    0.4088305    0.2374391 -45.32  0.001631189    1.758    0.431
       271  -9.6848     67.9067    153.9557   1.2936290947e+02   3.5727173070e+01     0.434286    0.2571225  78.70  0.001364055    2.277    0.561
       272  -8.1546    232.8006    153.9922   9.1891149121e+01   3.3328628284e+00    0.2285227    0.1549757 -61.41 0.0007405422    1.940    0.485
       273  -8.7356    151.9478    153.0006   1.0842551044e+02   2.0752140216e+01    0.2873845    0.2008518 -63.60 0.0007219952    1.607    0.378
       274 -10.2344    148.9346    144.9355   1.0732956411e+02   2.3205120351e+01    0.6372239    0.4166791 -83.29  0.001729611    2.513    0.602
       275  -8.8766    150.7932    136.3381   1.0489100178e+02   2.4725089171e+01    0.5629576    0.3698111   3.97  0.001909171    3.337    0.700
       276  -9.4746     29.4287    150.8293   1.3835970208e+02   4.0990407043e+01    0.4281487     0.209469  72.94  0.001880434    2.849    0.649
       277  -8.6881     19.7601    152.4242   1.4083544670e+02   4.1520367512e+01    0.1900313    0.1156641  70.98 0.0006560357    1.729    0.422
       278  -8.2615    250.4747    141.0214   8.6058077554e+01   2.2174082447e+00     0.203463    0.1655171 -39.47 0.0007225197    1.108    0.098
       279  -9.6311    248.8847    149.4195   8.8126984751e+01   1.0480807581e+00    0.3838383    0.2060943 -41.03 0.0008933317    1.692    0.409
       280  -8.8324    247.0460    143.9774   8.7259266107e+01   2.3535071010e+00    0.2889922    0.1804158 -35.74  0.000534724    1.469    0.319
       281  -9.2581    242.6514    149.7996   8.9258807161e+01   2.1666808735e+00    0.3252307    0.2858057  43.97  0.001887951    1.241    0.194
       282  -8.9511    189.3984    150.3868   9.9520014619e+01   1.3143781815e+01    0.3350569     0.245817 -61.06 0.0008122052    1.558    0.358
       283  -8.0774    182.4238    151.2724   1.0120019974e+02   1.4490179700e+01    0.2136826    0.1444971 -56.09 0.0005938497    1.619    0.382
       284  -8.1123    162.4415    150.7095   1.0549512882e+02   1.8993276152e+01    0.2842585    0.1502911 -51.65 0.0009079233    1.974    0.494
       285  -8.6166     98.0835    150.5270   1.2112416953e+02   3.1861336414e+01    0.2860427    0.1944434 -75.40 0.0009156236    1.615    0.381
       286  -8.9897      2.8449    150.3466   1.4448516444e+02   4.3354173309e+01    0.2317971    0.1214584  82.59  0.001082611    1.902    0.474
       287  -8.1781    237.2029    150.4158   9.0333947197e+01   3.1148107232e+00    0.1770503    0.1385346  61.54 0.0003048941    1.526    0.345
       288  -8.2020    213.0178    149.9677   9.4675215742e+01   8.1324326290e+00    0.2251334    0.1792461 -76.94 0.0004938951    1.622    0.383
       289  -9.8278     39.8935    147.6804   1.3538721509e+02   4.0656640042e+01    0.5949736    0.3132924  86.96  0.002170607    2.454    0.593
       290  -8.4362    198.9620    148.9957   9.7232629804e+01   1.1338161155e+01    0.2352559    0.1850135 -79.99 0.0005364575    1.649    0.394
       291 -10.1513     89.1985    146.2662   1.2257449755e+02   3.4364330631e+01    0.7345481    0.3840109 -79.72   0.00255508    3.279    0.695
       292 -10.5101     54.6373    144.0673   1.3111656089e+02   3.9818155636e+01    0.9192549    0.4885507 -83.58  0.003060972    2.374    0.579
       293  -9.9748     62.3080    135.8683   1.2770205359e+02   4.0796006479e+01    0.6276671    0.1668627  37.07  0.002179692    3.841    0.740
       294  -8.5864    233.3646    147.6325   9.0399726405e+01   4.3808719304e+00    0.2754307    0.1674427 -35.50 0.0006194473    1.566    0.361
       295  -8.9297     78.0246    147.0246   1.2559950951e+02   3.5927112684e+01    0.3541306    0.2120029 -83.34   0.00115467    2.139    0.532
       296  -8.2494    223.3053    146.9618   9.2066161578e+01   6.5539234454e+00    0.2095837    0.1769342 -39.46 0.0004947174    1.124    0.111
       297 -10.0247    139.0006    143.4684   1.0938483410e+02   2.5652063584e+01    0.9839898    0.3257523 -49.57  0.002825478    3.027    0.670
       298 -10.2309    106.4746    144.0255   1.1766975874e+02   3.1924764530e+01     0.794875    0.4784755 -87.14  0.002553523    2.882    0.653
       299  -9.1202     13.3750    146.3082   1.4163401021e+02   4.3456221051e+01    0.3031158    0.1654847  66.17  0.001220873    2.083    0.520
       300  -8.0696    206.7796    146.5699   9.5121952964e+01   1.0126729652e+01    0.1981411    0.1457211  61.48 0.0004939113    1.549    0.354
       301  -8.3659    175.5084    146.1841   1.0154085282e+02   1.7091446363e+01    0.2482294     0.210225  85.95 0.0007020403    1.360    0.265
       302 -11.0763     69.4242    141.4501   1.2682607858e+02   3.8504666543e+01    0.7109726    0.4550551 -65.20  0.002362517    1.418    0.295
       303  -9.8623     69.7317    134.2714   1.2541182100e+02   4.0172689739e+01     0.410451    0.2002037  21.77  0.001565311    3.368    0.703
       304  -8.3406    240.1564    145.2325   8.8692011729e+01   3.4686313448e+00    0.1875117    0.1809852 -31.64  0.000473673    1.062    0.059
       305  -9.0882    243.1224    142.3019   8.7548806672e+01   3.4121769149e+00    0.4057531    0.2273652 -26.35  0.001752481    2.060    0.514
       306  -8.8086    165.9307    144.3332   1.0324916570e+02   1.9616758535e+01    0.3368839    0.2414201  73.65 0.0008164768    1.799    0.444
       307  -9.7025    124.9693    142.6456   1.1267074716e+02   2.8719396323e+01    0.5257055     0.335772 -77.03  0.001394182    2.228    0.551
       308  -7.9047    194.4579    143.9812   9.7004842610e+01   1.3339672273e+01    0.2186319    0.1295825 -63.80 0.0005338134    2.463    0.594
       309  -8.8916    182.1695    142.7434   9.9298452883e+01   1.6332501621e+01    0.4149629     0.198745 -52.22  0.001496694    2.333    0.571
       310  -9.3257      2.7776    141.9518   1.4364626117e+02   4.5236472909e+01    0.3359703    0.1669801  81.70  0.001318583    2.216    0.549
       311  -8.4762    134.3491    140.1951   1.0978228066e+02   2.7373569496e+01    0.2304451    0.1416462 -59.39 0.0008332715    1.755    0.430
       312  -9.7994     23.6554    138.4283   1.3816467557e+02   4.4395020155e+01    0.4821457    0.2474944  71.05  0.002257324    2.662    0.624
       313  -9.8434    228.6398    138.2983   8.9159784824e+01   7.0694454203e+00    0.2643862    0.2477051  87.33 0.0004762062    1.179    0.152
       314  -8.1052    207.6616    138.1028   9.3008133246e+01   1.1602013777e+01      0.23975     0.178989 -58.76 0.0006098342    1.468    0.319
       315  -8.5685    197.4755    137.4487   9.4871475344e+01   1.3992146662e+01     0.342472    0.2324494 -54.14  0.001251811    1.564    0.361
       316  -9.1546    114.8801    136.8719   1.1395650288e+02   3.2042139623e+01    0.2802918    0.2151248 -61.34 0.0002538092    1.286    0.222
       317  -9.0850    112.6960    133.1570   1.1368811324e+02   3.3327808685e+01     0.330716     0.242029 -86.37 0.0008250708    1.742    0.426
       318  -8.4401    162.5405    136.3696   1.0215350635e+02   2.2107406256e+01    0.2800709    0.2194541 -70.90 0.0007032314    1.466    0.318
       319  -8.9556    248.3086    135.3846   8.5183690543e+01   3.6286771212e+00    0.2675685    0.2066178 -48.81 0.0009021341    1.241    0.194
       320  -8.7295    246.8869    130.2899   8.4295405779e+01   4.8124827288e+00    0.3069947    0.1840509 -46.00 0.0006019642    1.548    0.354
       321  -7.4381    192.3434    136.6739   9.5735835886e+01   1.5302201537e+01     0.161049    0.1224229 -83.02 0.0007050876    1.739    0.425
       322  -9.0688     39.0021    135.8345   1.3386330768e+02   4.3529552920e+01    0.2592248    0.1793321 -88.48 0.0008746567    1.463    0.316
       323 -10.3691     83.3159    132.9456   1.2147817361e+02   3.8478737030e+01    0.5485313    0.3270798 -70.22  0.001304744    1.860    0.462
       324  -8.7093     84.8991    123.2372   1.1897138286e+02   4.0517718964e+01    0.4721249    0.3015128  -9.11  0.001817224    3.187    0.686
       325  -8.2143    237.7319    133.8130   8.6581362217e+01   6.0220368839e+00    0.1982379    0.1580396 -61.10 0.0008102329    1.367    0.268
       326  -7.7866    218.6251    138.7717   9.1083219751e+01   9.0938257870e+00    0.2094214    0.1316651 -48.87 0.0003420633    1.594    0.373
       327  -8.6656    179.2613    133.7022   9.7789201775e+01   1.8888147399e+01    0.3308495    0.2336111 -69.41  0.001026498    1.807    0.446
       328  -9.1237    143.1362    131.8763   1.0567187437e+02   2.7395437749e+01    0.3627981    0.2573166 -71.86 0.0008083425    1.756    0.431
       329 -10.0006    132.1154    131.0667   1.0821092107e+02   2.9927514679e+01    0.5826986    0.3529564 -69.19  0.001917929    2.302    0.566
       330 -10.4002     98.1666    130.3030   1.1690369171e+02   3.6647899941e+01    0.6583602    0.3079131 -57.96  0.001768723    2.151    0.535
       331  -8.6957    250.6693    129.9626   8.3623468025e+01   4.1242756486e+00    0.4158224    0.1189732 -38.44  0.001379447    3.165    0.684
       332  -8.3423    204.5320    130.4617   9.1828185319e+01   1.3805554560e+01     0.266621    0.2024532 -76.90 0.0006765433    1.677    0.404
       333  -9.7816     13.0329    129.4296   1.3966809735e+02   4.7318074511e+01    0.4406052    0.2267436  75.49  0.002139172    2.619    0.618
       334  -8.5998    172.1517    138.2292   1.0042588308e+02   1.9541668602e+01    0.2854346    0.1968222 -71.01 0.0006133858    1.934    0.483
       335  -8.2748    192.6212    130.2480   9.4151157312e+01   1.6549039089e+01    0.2103247    0.1457673 -33.10 0.0003069225    1.532    0.347
       336  -9.1010    168.2534    129.6352   9.9231765745e+01   2.2267742289e+01    0.3444944    0.2586933  86.02 0.0008403956    1.747    0.428
       337  -8.6570    161.5101    130.5010   1.0097739436e+02   2.3616584093e+01    0.1568954    0.1532832 -82.23 -2.668153e-05    1.003    0.003
       338  -9.5917    152.7278    128.7962   1.0261489896e+02   2.5966511969e+01    0.4962945    0.2830555 -57.78  0.001096047    2.025    0.506
       339 -10.2141     73.1763    128.9639   1.2343175754e+02   4.0943247250e+01    0.4732864    0.2769546 -67.36  0.001547958    1.734    0.423
       340  -7.4713    238.6498    140.6942   8.7952519951e+01   4.5866126630e+00    0.1443843    0.1100285   4.34 0.0007042093    1.705    0.413
       341  -8.0028    211.4493    129.2142   9.0211849786e+01   1.2503603150e+01    0.2141904    0.1352367 -52.79 0.0005432162    1.662    0.398
       342 -10.7792     45.0122    123.7633   1.3024033011e+02   4.5713203501e+01     1.043181    0.5492174  82.19  0.003906753    3.809    0.737
       343 -10.3913     59.7080    124.8882   1.2635695316e+02   4.3724168332e+01    0.6613039    0.3847076  89.99  0.002435396    2.721    0.632
       344  -9.0126     59.3213    115.5704   1.2459600394e+02   4.5941803817e+01    0.4142306       0.2534 -18.29   0.00180875    2.758    0.637
       345  -9.9841    117.8612    125.3899   1.1052049236e+02   3.4126318020e+01    0.4996289    0.3413047  84.68  0.001455808    2.243    0.554
       346  -7.9509    228.4136    125.2834   8.6240955756e+01   9.5422473244e+00    0.2063655    0.1286082 -49.22 0.0005371913    1.570    0.363
       347  -8.8304    179.2716    124.8915   9.5646102580e+01   2.0727885385e+01     0.294165    0.2515722  87.46 0.0006974493    1.306    0.234
       348 -10.3633     28.3737    122.3704   1.3459143176e+02   4.7674959562e+01    0.7180218    0.3533382  83.52  0.002787658    3.781    0.736
       349  -7.8874    188.4355    124.1856   9.3543262523e+01   1.8746415765e+01    0.2169012     0.143174 -54.17 0.0005276546    1.600    0.375
       350 -10.0532    130.8179    118.5505   1.0546851904e+02   3.3021690258e+01    0.6367795    0.4257816 -79.49   0.00231501    2.308    0.567
       351  -9.5103    158.7682    121.7476   9.9446204095e+01   2.6132399488e+01    0.3951221    0.2897106 -84.49   0.00100501    1.854    0.461
       352  -8.2100    154.3091    123.3056   1.0088186153e+02   2.6811110058e+01    0.1563349     0.127781   2.51 0.0004794812    1.611    0.379
       353  -7.9807    202.9882    121.9587   9.0097663501e+01   1.5833678255e+01    0.2410368    0.1809655 -72.97 0.0006165163    1.629    0.386
       354  -7.9189    195.1259    122.1494   9.1687229131e+01   1.7607287076e+01    0.2196532    0.1751208 -63.92 0.0006696447    1.353    0.261
       355  -8.9431    172.0314    121.8542   9.6468686638e+01   2.3045072167e+01    0.2680077    0.2217416 -50.07 0.0004270444    1.197    0.165
       356  -8.7799     99.7715    120.3376   1.1418299138e+02   3.8687591596e+01    0.3782803    0.2337181   7.26  0.001318502    3.567    0.720
       357  -9.6271     70.7868    119.6839   1.2217242086e+02   4.3461060745e+01    0.3917388    0.2360797 -73.40  0.001062586    1.979    0.495
       358  -8.9191    246.8089    119.8911   8.2009063733e+01   6.6752244236e+00    0.2278033    0.2036401  58.81 0.0008012959    1.238    0.192
       359 -10.0549    141.5083    117.8357   1.0259511584e+02   3.0867882305e+01    0.6917782    0.3103324 -50.67  0.001656942    2.325    0.570
       360  -9.6520      3.0425    117.3458   1.4068889542e+02   5.0709089086e+01    0.4427993    0.2160275  77.59  0.002088265    2.993    0.666
       361  -8.2429    231.6393    117.8305   8.3982625864e+01   1.0225424895e+01    0.2184338    0.1218124 -48.59 0.0009401728    1.736    0.424
       362  -7.7231    219.3001    116.6510   8.5820984678e+01   1.3156176674e+01    0.1560709    0.1123808 -69.83 0.0002782833    1.689    0.408
       363  -8.3371    185.5504    116.0542   9.2128323017e+01   2.1070265803e+01     0.232982    0.1499424 -44.71 0.0004593416    1.524    0.344
       364 -10.0362    109.3059    114.3062   1.1009345140e+02   3.8307485772e+01    0.5525056    0.3360653 -67.27  0.001294662    2.164    0.538
       365  -9.8793    109.2550    107.7695   1.0843639734e+02   3.9774096042e+01    0.9972742    0.3115501  35.42   0.00275674    4.607    0.783
       366  -9.5175    249.4862    114.1795   8.0334243697e+01   7.1374500605e+00     0.421486     0.238459 -60.74  0.001803763    2.251    0.556
       367  -8.0977    193.0087    115.3303   9.0434132270e+01   1.9460782752e+01    0.2107283    0.2015822  76.96 0.0003900162    1.050    0.048
       368  -7.9210    153.2964    115.6636   9.9182677580e+01   2.8688269203e+01    0.1620144     0.124138 -81.54 0.0006405441    1.651    0.394
       369 -10.0459     92.6949    112.5396   1.1428632199e+02   4.1703391435e+01     0.546227     0.325219 -67.70  0.001460142    2.131    0.531
       370  -8.8601     93.0283    105.3479   1.1239428660e+02   4.3260250171e+01    0.3757898    0.2463019  -6.09  0.001510207    2.720    0.632
       371 -10.0466     78.9801    112.5955   1.1823535831e+02   4.3899071250e+01    0.5525364    0.3614157 -84.08  0.001911042    2.307    0.567
       372  -8.8132     78.7652    105.1754   1.1652400666e+02   4.5609677435e+01    0.2699305    0.1689851 -30.35  0.001033362    1.939    0.484
       373  -7.9958    167.4729    114.5110   9.5623266394e+01   2.5644270379e+01    0.1581607    0.1513686 -80.42 0.0008097341    1.034    0.032
       374 -10.1806    121.6791    111.9672   1.0616538433e+02   3.6384129700e+01    0.5257465    0.3473128 -59.23  0.001190243    1.655    0.396
       375 -10.3465    133.8299    109.5107   1.0236368409e+02   3.4357303279e+01    0.7207551    0.3415669 -52.55   0.00230997    2.301    0.565
       376  -8.1482     51.2618    113.4178   1.2649661317e+02   4.7407264643e+01    0.1675215    0.1218823  47.65 0.0006660896    1.594    0.373
       377  -8.5433    174.7826    111.9082   9.3351711806e+01   2.4456679134e+01    0.2905252    0.2063246 -61.64 0.0005788193    1.591    0.371
       378  -8.5360    159.2994    111.8241   9.6785473586e+01   2.8115102124e+01    0.2918959    0.2275317 -70.95 0.0007976157    1.491    0.329
       379  -9.7855     66.4730    110.7844   1.2147407565e+02   4.6108031013e+01     0.471712    0.3051504  67.79  0.001789914    2.314    0.568
       380  -9.1557     67.3873    105.3902   1.1996737387e+02   4.7205344968e+01    0.3362388    0.2070373   0.96  0.001419188    2.882    0.653
       381  -9.3768     14.0565    111.3853   1.3683442814e+02   5.1303795734e+01    0.2932314    0.1841855  71.24  0.001151845    2.047    0.512
       382  -7.4613    183.0000    109.9015   9.1103148672e+01   2.2909710788e+01     0.254279   0.08787273 -40.75 0.0007904875    2.860    0.650
       383  -7.7996    149.6659    110.3115   9.8656802365e+01   3.0655314541e+01    0.1622038    0.1244009 -86.85 0.0002155194    1.680    0.405
       384 -10.3324    248.6814    107.7606   7.9031271392e+01   8.4250451183e+00    0.5233272    0.2930091 -51.63  0.002401323    1.744    0.427
       385 -10.0411    249.2318    103.0145   7.7897208969e+01   9.1348797705e+00    0.3732114    0.2749107 -64.32  0.001974251    1.416    0.294
       386  -9.1432     43.0509    109.4613   1.2811481692e+02   4.9210511431e+01    0.2661496    0.1350697  16.67  0.001210495    2.864    0.651
       387  -8.0779    189.3796    108.2202   8.9378844837e+01   2.1723815654e+01    0.2219072    0.1388042 -51.23 0.0004342541    1.637    0.389
       388 -10.6716     22.9854    102.9932   1.3284714910e+02   5.2498817300e+01    0.6623962    0.3757356  78.79  0.002415681    2.951    0.661
       389  -9.5263    139.9135    104.4747   9.9488131166e+01   3.4089303418e+01    0.4697755    0.3165748 -58.44  0.001625253    1.665    0.399
       390 -10.4889     45.4928    102.3800   1.2592425950e+02   5.0545427610e+01    0.6617272    0.4039493  79.18  0.002927136    2.986    0.665
       391  -8.5793    166.6794    104.4749   9.3190707315e+01   2.7888798829e+01    0.3074294    0.2173837 -65.03 0.0007395257    1.684    0.406
       392  -9.5980    150.7212    103.3357   9.6550799920e+01   3.1868327633e+01    0.4631691    0.2886706 -63.82  0.001319764    2.132    0.531
       393  -9.8735    128.4663    102.1210   1.0176649161e+02   3.7090025358e+01    0.3757901    0.2701556 -55.45 0.0007615234    1.464    0.317
       394  -8.6924      6.7901    102.9576   1.3759596942e+02   5.3643880495e+01    0.2158486    0.1381909 -85.21  0.001032122    1.608    0.378
       395  -7.9689    175.4423    102.2542   9.0710036548e+01   2.6236818831e+01    0.2200968    0.1437915 -52.93 0.0004918312    1.603    0.376
       396 -10.4026    109.1582     99.1299   1.0616133074e+02   4.1666242005e+01    0.7605901    0.4637293  70.65  0.001917871    3.030    0.670
       397  -8.9846    107.8129     92.8336   1.0479523939e+02   4.3249368535e+01    0.4493226    0.2630851  25.90   0.00182263    2.319    0.569
       398  -8.3393    159.8161    101.1022   9.3834337018e+01   3.0195994455e+01    0.2390731    0.2058567 -69.53 0.0004504873    1.237    0.192
       399  -9.2072     82.1339    100.1057   1.1424919923e+02   4.6209877544e+01     0.337947     0.229935 -69.25 0.0009249381    1.809    0.447
       400  -9.1118     94.9874     97.0588   1.0964642701e+02   4.4726991423e+01    0.3093045    0.2395923 -63.48 0.0006680705    1.425    0.298
       401 -10.0750     64.1043     96.0191   1.1871144020e+02   4.9721654389e+01    0.5116956    0.3386702 -89.22  0.001712932    2.644    0.622
       402  -8.8608    151.1557     95.6437   9.4355245319e+01   3.3324565791e+01    0.3284377     0.186379  27.69  0.001137197    2.878    0.652
       403  -7.9344    249.6923     95.6858   7.6206361953e+01   1.0296497847e+01    0.1309203    0.1102685   3.10 0.0003101269    1.626    0.385
       404  -7.2569     57.2929     95.3198   1.2066434324e+02   5.0745801237e+01    0.1363099   0.09175951 -30.30 0.0004146709    1.607    0.378
       405  -7.5952    188.6751     94.3004   8.5953898977e+01   2.4569590143e+01    0.1589341    0.1178749 -78.09 0.0003782565    1.634    0.388
       406  -8.3305    176.7496     93.6745   8.8173451768e+01   2.7584876186e+01    0.2962617    0.1889644 -64.70 0.0008903153    2.017    0.504
       407  -8.1374    164.9386     94.2884   9.0850854786e+01   3.0322088692e+01    0.2127643    0.2042578  76.76 0.0004047073    1.022    0.022
       408  -9.2888    139.0824     92.2602   9.6331066188e+01   3.6774396848e+01    0.4604859    0.3176326 -68.26  0.001022359    1.944    0.486
       409 -10.2091    123.5247     91.4435   1.0009615643e+02   4.0348009477e+01    0.5780213     0.447148  25.22  0.001285201    1.480    0.324
       410  -8.9631    246.4695     93.4868   7.6168490874e+01   1.1353557917e+01    0.1404302    0.1246324 -55.88 0.0003220547    1.019    0.018
       411  -8.8288     46.3432     92.3989   1.2342787234e+02   5.2646564064e+01    0.3385021    0.2151073  -0.89  0.001730216    2.228    0.551
       412  -9.0438     22.9108     90.5035   1.3048045909e+02   5.5227033667e+01    0.3299119    0.1901639 -40.35  0.001886805    1.599    0.375
       413  -9.4379      5.0040     92.3317   1.3639958068e+02   5.6042632631e+01    0.2690396    0.1818518  71.20  0.001339198    1.975    0.494
       414  -8.0571    157.8617     91.5798   9.1687098229e+01   3.2539791565e+01    0.2584355    0.1784584 -46.65 0.0005604436    1.461    0.316
       415  -9.4533     34.8125     89.9524   1.2655926402e+02   5.4331690231e+01    0.3964617    0.2432434 -83.22  0.001810073    2.418    0.586
       416  -8.1061    151.1719     89.2030   9.2562487721e+01   3.4582233339e+01     0.215048    0.1787546 -70.68 0.0006010981    1.350    0.259
       417 -10.1883     86.3417     85.9459   1.0914638906e+02   4.8532641701e+01    0.6075454    0.3685891 -55.85  0.001762559    1.796    0.443
       418  -8.8651     65.0575     87.6194   1.1625797434e+02   5.1392582086e+01    0.4138418    0.2303253  -4.23   0.00145871    4.240    0.764
       419  -7.6634    188.2631     87.3209   8.4216561068e+01   2.5960847668e+01    0.1455476    0.1221868   8.76 0.0001910076    1.554    0.356
       420  -9.7577     48.3921     84.2415   1.2077990116e+02   5.4156997269e+01    0.4222484    0.2942981  88.60  0.001569964    2.404    0.584
       421  -7.3995    179.3185     85.6679   8.5517813961e+01   2.8452231294e+01    0.1612644    0.1171829 -75.36 0.0007048137    1.692    0.409
       422  -9.7137    104.7999     83.4454   1.0295115003e+02   4.5729161450e+01     0.436607    0.3096095 -68.39 0.0009462177    1.962    0.490
       423  -8.6855    105.1505     77.6354   1.0111634110e+02   4.6787900125e+01    0.4422285    0.2423133  23.53  0.001666508    2.860    0.650
       424  -8.2044    157.9236     84.1121   8.9595502614e+01   3.3941327008e+01     0.231148    0.2020474 -78.18 0.0003828694    1.238    0.192
       425  -9.2063    140.8000     82.4395   9.3103348874e+01   3.8281895425e+01    0.3723456    0.2094185 -45.75 0.0009346812    1.828    0.453
       426  -9.7628      9.8575     81.0145   1.3278493094e+02   5.8136685201e+01    0.3157199     0.204915  77.07  0.001572886    2.379    0.580
       427  -9.2153    248.6470     88.6533   7.4790820772e+01   1.1707079024e+01    0.2059212    0.1727096   9.88  0.001125182    1.695    0.410
       428  -9.5624     24.5985     80.5256   1.2779526399e+02   5.7200841304e+01    0.3771977    0.2306866 -82.21   0.00136241    2.396    0.583
       429  -8.7218    150.1988     80.7385   9.0388436169e+01   3.6405656165e+01    0.2623095    0.2012245 -53.94 0.0006496213    1.386    0.278
       430  -8.7734     74.5082     80.4294   1.1125688069e+02   5.1523838901e+01    0.3086028    0.2026038 -61.03  0.001126977    1.828    0.453
       431  -8.3925    166.8587     79.6595   8.6421674928e+01   3.2590860677e+01    0.2490769    0.2029199 -28.31 0.0002831619    1.344    0.256
       432  -8.6295    184.4423     77.4567   8.2333840039e+01   2.8657686841e+01    0.4837267    0.1568359 -33.71   0.00146838    3.579    0.721
       433  -9.9094     63.3962     73.6390   1.1290555004e+02   5.4458134103e+01    0.4995307    0.2438271 -57.29  0.001496025    2.464    0.594
       434  -8.9435    119.3378     80.2897   9.7967714858e+01   4.3418196306e+01    0.3662781    0.2359978 -63.56 0.0008642331    2.205    0.547
       435  -9.6400    128.2379     75.1908   9.4097857306e+01   4.2450571869e+01    0.4766144    0.2431254 -50.21  0.001061223    2.270    0.559
       436  -7.9471    157.1871     76.5975   8.7632437938e+01   3.5484989945e+01    0.2047716    0.1382441  44.79 0.0004155228    1.500    0.333
       437  -8.7513    140.7747     75.5308   9.1088968630e+01   3.9556652577e+01    0.2944811    0.1883231 -55.45 0.0007547769    1.851    0.460
       438  -8.3844    163.3150     73.3964   8.5409431430e+01   3.4560009008e+01    0.2582067    0.1730818 -57.75 0.0007253995    1.710    0.415
       439  -9.7333     82.3276     72.6908   1.0647939069e+02   5.1810301126e+01    0.3924805    0.2505074 -58.89 0.0009680448    2.005    0.501
       440  -8.3799    151.4192     73.2791   8.7957358917e+01   3.7453667298e+01     0.210724    0.1391185 -49.09  0.000785111    1.611    0.379
       441  -9.0119    115.6982     72.8212   9.6692700056e+01   4.5565803648e+01    0.2785162    0.1875923 -46.51 0.0008121173    1.550    0.355
       442  -9.4850    105.9050     71.4320   9.8996278213e+01   4.7795732087e+01    0.4816493    0.1961113 -45.03  0.001138721    2.532    0.605
       443  -8.1001     42.5922     72.8052   1.1973948386e+02   5.7120389414e+01    0.1704257    0.1094213 -61.16 0.0004429237    1.670    0.401
       444  -7.5683    175.4264     72.5450   8.2727404975e+01   3.1730329734e+01    0.1484008      0.14231  83.80 0.0001254357    1.018    0.018
       445  -9.3151     95.0476     71.0844   1.0206784296e+02   4.9912546418e+01     0.361501    0.2112145 -53.22 0.0008851257    2.035    0.509
       446  -9.4320     51.5706     69.8618   1.1581362073e+02   5.6696467240e+01    0.4070043    0.2410943 -66.44  0.001365581    2.513    0.602
       447  -8.8012     16.8009     70.2622   1.2809994804e+02   5.9873741017e+01     0.245502    0.1655723 -79.74 0.0009610252    1.956    0.489
       448  -7.7745    157.2162     69.9535   8.5720835153e+01   3.6633456265e+01    0.1914163    0.1216475 -38.39 0.0003399522    1.617    0.382
       449  -8.9514    147.0333     68.3717   8.7508976231e+01   3.9341538184e+01     0.267394    0.2130358 -49.71 0.0004571903    1.322    0.244
       450  -8.8920    138.5200     66.0811   8.8800541281e+01   4.1720298706e+01      0.31826    0.1885603 -52.11 0.0009752261    1.997    0.499
       451  -8.9364    121.5296     66.0118   9.3020169069e+01   4.5532182811e+01     0.326718    0.2379328 -66.08 0.0009054023    1.882    0.469
       452  -9.9243    240.5967     63.7504   7.0287105475e+01   1.7511977819e+01     0.249978    0.2326645  88.55 0.0003943936    1.156    0.135
       453  -8.9896    110.1689     63.8555   9.5403160622e+01   4.8280360447e+01    0.2941871    0.2184639 -54.10 0.0007801085    1.590    0.371
       454  -8.6903     64.6033     63.5572   1.0943821577e+02   5.6203614379e+01    0.4657366     0.259697  -0.64  0.001831081    3.495    0.714
       455  -8.8051     37.0638     63.8643   1.1920476069e+02   5.9426602399e+01    0.2823182    0.1816373 -72.59  0.001007978    2.470    0.595
       456  -9.1635     65.3669     78.2041   1.1357177986e+02   5.3284939695e+01    0.3055702    0.2129155 -55.98  0.001399543    1.493    0.330
       457  -8.3489    158.1483     61.8444   8.3176324444e+01   3.7745587770e+01    0.1937967    0.1704435  26.26 0.0003049308    1.260    0.207
       458  -9.1770     28.2540     70.8850   1.2423247421e+02   5.8863273962e+01    0.3445054     0.159673 -21.57  0.001426027    3.450    0.710
       459  -9.3168     97.5344     60.7617   9.8025824081e+01   5.1279806016e+01    0.2756792    0.2415223  49.99 0.0007280577    1.262    0.208
       460  -9.6899     73.2499     59.4131   1.0520335060e+02   5.5674807007e+01     0.385967    0.2159981 -49.84  0.001035952    1.989    0.497
       461  -7.8621     19.9754     62.0000   1.2491092000e+02   6.1264568390e+01    0.1637519   0.06518865  21.36 0.0008036661    2.951    0.661
       462  -8.0157     88.8930     59.7725   1.0031392147e+02   5.3024116689e+01    0.1706567     0.161225 -64.66 0.0004865962    1.309    0.236
       463  -7.9368    164.4629     59.5723   8.1243187953e+01   3.6560146724e+01    0.1463377    0.1371147  70.96 0.0001937341    1.008    0.008
       464  -7.5734    147.2793     59.3252   8.4755662338e+01   4.0764506413e+01    0.1456279    0.1124366  18.68 0.0003243275    1.592    0.372
       465  -9.8981     23.4648     56.5353   1.2212825090e+02   6.2027532741e+01    0.3776849    0.2548798 -79.90  0.002082155    2.600    0.615
       466  -8.2437    130.7803     58.0448   8.8183770549e+01   4.4800524446e+01    0.2135272    0.1880874 -63.58 0.0005709998    1.296    0.228
       467  -9.1545      7.4499     57.1357   1.2830326201e+02   6.3031877616e+01    0.2619838    0.1762228 -66.98  0.000945455    1.590    0.371
       468  -9.4714    119.1662     55.5991   9.0324503047e+01   4.7748636373e+01    0.3863515    0.2331957 -46.87  0.001466946    1.877    0.467
       469  -9.5641     54.3265     55.6583   1.1048291786e+02   5.8992841787e+01    0.3157567    0.2077813 -54.87   0.00115916    1.811    0.448
       470  -8.2835    139.8718     56.1752   8.5459235156e+01   4.3003443498e+01     0.216713    0.1918322 -73.93 0.0005415889    1.278    0.218
       471  -8.7760     44.0707     55.5341   1.1415266364e+02   6.0235688374e+01    0.2207642    0.1604517 -56.36  0.000841253    1.602    0.376
       472  -8.7262    105.8325     53.3154   9.3170761516e+01   5.0879833337e+01    0.2825398    0.1845847 -49.23 0.0007232422    1.820    0.451
       473  -9.5899     92.2909     50.5226   9.6162231428e+01   5.3921808414e+01     0.428324    0.2184118 -44.75  0.001367629    2.191    0.544
       474  -8.5341     92.7378     43.1023   9.3446445393e+01   5.4953642019e+01     0.286849    0.1946027  10.23  0.001198315    1.738    0.425
       475  -8.3851     75.2330     51.7634   1.0197856784e+02   5.6658241645e+01    0.3986906    0.1714873  24.59   0.00139528    4.013    0.751
       476  -7.7326    149.6441     48.8270   8.1089220917e+01   4.1782380062e+01    0.1917577    0.1289254 -44.33 0.0003701611    1.595    0.373
       477  -8.1251    129.9953     49.2782   8.5597374582e+01   4.6311977774e+01    0.1966489    0.1784474  47.17 0.0003783977    1.046    0.044
       478  -7.6556    163.5015     48.4776   7.8243830958e+01   3.8460579026e+01    0.1437058    0.1331516  64.75 0.0003346778    1.020    0.019
       479  -8.7103    120.9442     47.4974   8.7229929705e+01   4.8584629385e+01    0.2336301    0.1872233 -48.25 0.0004693085    1.417    0.294
       480  -8.4607    112.0870     46.9905   8.9346597489e+01   5.0552589946e+01    0.2031396    0.1958848  16.01 0.0006372489    1.077    0.071
       481  -9.0791     81.9736     46.5763   9.7987356788e+01   5.6364627499e+01    0.2349083    0.1805869 -38.29 0.0006350361    1.363    0.266
       482  -8.5783     45.0950     44.7915   1.1022208339e+02   6.1970596373e+01    0.1930907    0.1485899 -44.49 0.0005591045    1.385    0.278
       483  -8.6265     16.7808     44.8818   1.2129834574e+02   6.4653933317e+01     0.187296    0.1410914 -60.83 0.0007015349    1.589    0.371
       484  -8.8367    133.0053     43.5764   8.3076666813e+01   4.6433801931e+01    0.2567436     0.189358 -52.72 0.0008278178    1.597    0.374
       485  -8.8212     58.1547     42.6175   1.0464509309e+02   6.0659105917e+01    0.2896863    0.1879133 -55.52  0.001257069    2.288    0.563
       486  -9.3188     69.6234     41.6469   1.0028608654e+02   5.9128402463e+01    0.3101212    0.2316284 -54.42  0.001051082    1.879    0.468
       487  -9.5521      5.1859     42.1778   1.2516815035e+02   6.5901990062e+01    0.2805514    0.1801829 -72.26  0.001718128    2.286    0.563
       488  -8.8571    106.0137     41.4651   8.9096873367e+01   5.2590893443e+01    0.2391061    0.1818018 -47.27 0.0006690202    1.560    0.359
       489  -9.9017    137.2205     38.3438   8.0480643498e+01   4.6158330451e+01    0.2492744    0.2329473  39.01 0.0003569241    1.040    0.038
       490  -7.6914    155.7298     39.3668   7.7051934455e+01   4.1611867450e+01    0.1428049    0.1035138 -66.79 0.0006113952    1.663    0.399
       491  -8.6369     95.4235     38.2283   9.0929596099e+01   5.5129016051e+01    0.2252232    0.1894884 -59.51 0.0007645659    1.611    0.379
       492  -8.5104     80.6047     36.9075   9.4942253623e+01   5.8012431399e+01    0.2315003      0.14405 -43.17  0.000688534    1.862    0.463
       493  -9.3889     26.0803     35.5445   1.1446932189e+02   6.5456821031e+01    0.2631635    0.2014651 -55.66 0.0009739443    1.716    0.417
       494  -8.4940     36.8538     41.0563   1.1208775802e+02   6.3500503634e+01    0.1679748    0.1427646 -34.35  0.000485384    1.245    0.197
       495  -8.1522    125.8182     35.7836   8.2199309979e+01   4.9095091978e+01    0.1741001    0.1585419 -85.13 0.0004224307    1.286    0.222
       496  -7.6542    200.6688     35.7356   6.8849547927e+01   3.1014878707e+01    0.1337863   0.09952363  44.23 0.0002652236    1.576    0.366
       497  -8.6417    111.8420     34.7622   8.5248557453e+01   5.2271240195e+01    0.2358691    0.1644329 -56.57 0.0007118952    2.001    0.500
       498  -8.0929     88.4995     34.0717   9.1464530272e+01   5.6986822681e+01    0.1886359    0.1211189 -28.79  0.001025179    1.568    0.362
       499  -9.0275     48.5814     33.5063   1.0482169660e+02   6.3310284956e+01    0.2101742    0.1896075 -31.52 0.0007483297    1.374    0.272
       500  -8.0567    148.1756     33.4377   7.6718803215e+01   4.4189031184e+01    0.1884031    0.1266083  73.25 0.0005080178    1.572    0.364
       501  -8.7121     60.5233     32.6826   1.0011677632e+02   6.1799884733e+01    0.2107094    0.1857801 -31.18 0.0006809962    1.338    0.253
       502  -8.7806     72.0705     30.9472   9.5479178405e+01   6.0253931377e+01    0.2554286     0.154731 -47.14 0.0009664523    2.232    0.552
       503  -8.9435     12.8574     30.2522   1.1817150105e+02   6.7401710724e+01    0.2890956    0.1424785 -54.08  0.001514616    2.219    0.549
       504  -8.4635    101.2369     29.2985   8.6104927339e+01   5.5133896367e+01    0.2258383    0.1570965 -52.53 0.0008807167    1.995    0.499
       505  -8.8089     81.4480     27.6713   9.1223210505e+01   5.9078118536e+01    0.2252351    0.1993353 -67.20  0.000728212    1.696    0.410
       506  -8.8666      3.4999     27.6943   1.2137110930e+02   6.8447291435e+01    0.1855254    0.1590265 -73.69 0.0008666351    1.869    0.465
       507  -7.6668    208.6815     27.3130   6.5771148113e+01   3.0145931029e+01    0.1422799   0.08967599 -70.58 0.0002405879    1.647    0.393
       508  -8.8389     91.7821     26.4114   8.7674230342e+01   5.7330018018e+01    0.2623609    0.1690624 -36.94 0.0009482129    1.729    0.422
       509  -8.3095    119.1741     32.9874   8.2830929607e+01   5.0916737814e+01    0.1952294    0.1786652 -64.38  0.000576712    1.312    0.238
       510  -8.0223     34.6478     23.3203   1.0635719910e+02   6.6428518445e+01    0.1437373    0.1400573 -57.11  0.001091374    1.731    0.422
       511  -7.6585    104.3396     22.7048   8.2920369848e+01   5.5263730001e+01    0.1202328    0.1017424 -81.07 0.0003882578    1.655    0.396
       512  -8.9720     63.5158     21.1821   9.4548167765e+01   6.2852504783e+01    0.2561024     0.187677 -43.27 0.0009839713    1.798    0.444
       513  -8.8131     48.4244     21.8222   1.0029539050e+02   6.4948731530e+01    0.1832358    0.1672648 -14.30  0.000588824    1.369    0.270
       514  -8.2395    120.6229     20.8504   7.8389776810e+01   5.1986272047e+01     0.175138    0.1165132 -38.56 0.0009416923    1.714    0.417
       515  -8.2706     19.5183     21.5037   1.1205625483e+02   6.8197926228e+01    0.1097715   0.08330014 -18.45 1.227563e-05    1.038    0.037
       516  -9.0369     73.9627     19.4276   9.0373391833e+01   6.1356122033e+01    0.2385532    0.1585978 -40.05 0.0008295713    1.843    0.457
       517  -8.5910     87.8568     17.5787   8.5460938800e+01   5.9064161042e+01    0.2224798    0.1493403 -41.13 0.0006779496    1.856    0.461
       518  -7.9315     38.8289     18.6030   1.0273495912e+02   6.6580203917e+01     0.138596   0.09914414  34.94 0.0005403699    1.625    0.385
       519  -8.0276    112.6280     16.8308   7.8818733486e+01   5.4139259494e+01    0.1642154    0.1154443 -35.54 0.0002975792    1.621    0.383
       520  -8.7081    218.5863    248.3096   1.1259464341e+02  -9.4405393757e+00    0.1943572    0.1161782 -40.42 0.0006846462    1.964    0.491
       521  -8.1988     30.0375     16.0206   1.0529242664e+02   6.7921000008e+01    0.1465746    0.1329142 -40.60 0.0008404091    1.712    0.416
       522  -8.2271      7.3664     15.4805   1.1517446765e+02   7.0054193062e+01    0.1703073   0.08007593 -42.90 0.0009262514    1.783    0.439
       523  -8.0083     17.1336     14.1702   1.1016956091e+02   6.9443234208e+01    0.1315693    0.1122886 -14.98 0.0005357648    1.328    0.247
       524  -7.4725    119.6893     11.3238   7.5360636778e+01   5.3132156310e+01    0.1218741   0.09702691 -72.70  0.000703858    1.654    0.395
       525  -7.6017     83.6336     11.2693   8.4215980430e+01   6.0492378820e+01    0.1081414   0.09615256  87.01   0.00046275    1.660    0.398
       526  -8.9763    175.6213    247.6881   1.2052262114e+02  -2.2539176872e+00    0.2915443    0.2147204  72.22  0.001055829    1.879    0.468
       527  -8.4660    156.1151    248.3873   1.2433420902e+02   9.7936288349e-01    0.2517631     0.172136  71.84 0.0007950177    1.919    0.479
       528  -8.0610    113.3607    248.6094   1.3244806367e+02   8.1404458170e+00    0.2166844    0.1069476 -78.29 0.0009351199    3.247    0.692
       529  -8.9508    103.9688    247.1655   1.3403493937e+02   9.9145557858e+00    0.3716883    0.1945794 -84.68  0.001732466    2.798    0.643
       530  -8.9663    243.1427    246.7778   1.0793847769e+02  -1.2966806747e+01     0.338562     0.174108 -27.97  0.001632645    2.050    0.512
       531  -8.8898    232.7863    247.3938   1.0987829189e+02  -1.1509492638e+01    0.1914835    0.1824876  40.42 0.0007320226    1.453    0.312
       532 -10.0892    224.1315    244.4278   1.1095084100e+02  -9.7872212129e+00    0.4085048    0.2419143 -45.63  0.002023581    2.182    0.542
       533  -9.1802    210.8580    246.4517   1.1371541157e+02  -7.9534794215e+00    0.2556267    0.1931407 -63.32 0.0008679756    2.158    0.537
       534  -8.6392    132.2248    247.8466   1.2880666631e+02   5.1448876459e+00    0.2292209    0.1642928  71.80 0.0007180073    1.492    0.330
       535  -7.7363     34.6842    248.3129   1.4631540608e+02   1.9472639165e+01    0.1197959   0.06043233  68.71 0.0005567678    1.641    0.391
       536  -8.8907     22.1300    248.3660   1.4834620037e+02   2.0932028006e+01    0.1528922   0.07121406  53.94 0.0005796315    1.683    0.406
