#   1 NUMBER                 Running object number                                     
#   2 MAG_AUTO               Kron-like elliptical aperture magnitude                    [mag]
#   3 X_IMAGE                Object position along x                                    [pixel]
#   4 Y_IMAGE                Object position along y                                    [pixel]
#   5 X_WORLD                Barycenter position along world x axis                     [deg]
#   6 Y_WORLD                Barycenter position along world y axis                     [deg]
#   7 A_WORLD                Profile RMS along major axis (world units)                 [deg]
#   8 B_WORLD                Profile RMS along minor axis (world units)                 [deg]
#   9 THETA_WORLD            Position angle (CCW/world-x)                               [deg]
#  10 FWHM_WORLD             FWHM assuming a gaussian core                              [deg]
#  11 ELONGATION             A_IMAGE/B_IMAGE                                           
#  12 ELLIPTICITY            1 - B_IMAGE/A_IMAGE                                       
         1 -11.1233     14.9224     18.2119   9.8747674692e+01   7.0170237398e+01    0.3559695    0.2767885 -76.19  0.001894677    2.281    0.562
         2 -12.5471     17.9353     24.4647   9.9796609339e+01   6.8833306360e+01    0.5464292    0.3061548 -53.35  0.002186614    1.690    0.408
         3 -12.1324      1.9967     24.9819   1.0767757011e+02   6.9775192932e+01    0.3994493    0.1594868 -57.89  0.002123808    2.033    0.508
         4 -11.3098      5.7363     17.3494   1.0305009679e+02   7.0959430662e+01    0.4164017    0.2555879 -44.49  0.002610801    1.221    0.181
         5 -11.4561    182.2466     18.9543   4.9064359398e+01   3.7107080942e+01    0.3300688       0.2844  12.27 0.0008293256    1.330    0.248
         6  -9.9881     89.7058     19.8112   6.8838605737e+01   5.9378809335e+01    0.3577763    0.2414661 -22.64  0.001922525    1.424    0.298
         7 -10.9798     31.9528     13.1957   8.8137505527e+01   6.9383941441e+01    0.4119229    0.2900348 -49.82  0.002544755    1.885    0.470
         8 -11.7895    199.3403     17.2039   4.6354287904e+01   3.2878225155e+01    0.4467189    0.2886986 -11.51  0.002141761    1.907    0.476
         9 -10.8213     76.3140     14.1349   7.0570362757e+01   6.2647598090e+01    0.5039795    0.2402737 -47.27  0.001972254    3.669    0.727
        10 -10.9477    114.1432     15.2211   6.0222000338e+01   5.4632048626e+01    0.6205315    0.2078873  48.91  0.002343716    2.561    0.610
        11 -10.5639    132.8888     13.1260   5.5290903856e+01   5.0373932572e+01    0.2904991    0.2270547 -28.92  0.001014494    1.362    0.266
        12 -11.0225    128.2231     11.9739   5.5798093124e+01   5.1629879246e+01    0.5066683    0.1758183 -14.03  0.001363828    4.007    0.750
        13 -11.4378    148.4721     12.8743   5.2301923056e+01   4.6491414017e+01    0.5122817    0.2081729  51.79  0.002044551    2.154    0.536
        14 -10.1136     50.7458     12.9942   7.9647835278e+01   6.7005978605e+01    0.3695765    0.1460917 -36.27   0.00171396    2.333    0.571
        15 -11.8614    208.9746      4.7878   4.1898595888e+01   3.1733662571e+01    0.4783425     0.270209 -65.88 0.0003796555    1.908    0.476
        16 -10.3754     21.3236     11.8943   9.2719898999e+01   7.0674219356e+01    0.2684165    0.2010587  56.27  0.001596324    2.884    0.653
        17 -10.6186    218.2880     12.1282   4.2921636242e+01   2.8659043335e+01    0.2392094    0.1730341  64.65  0.001119425    1.361    0.266
        18  -9.9452     67.3062     11.8989   7.2655046665e+01   6.4523745164e+01    0.2304386    0.1764538  -4.81  0.001064637    1.125    0.111
        19 -11.5565     12.8630     11.1881   9.6744779297e+01   7.1514798659e+01    0.3209383    0.1762944  18.16  0.001082433    2.012    0.503
        20 -11.3129    172.6165     11.1833   4.7991389242e+01   4.0427648027e+01    0.2088458    0.1595161  43.14 0.0007871544    1.333    0.250
        21 -11.4233    209.7436     11.7938   4.3698418805e+01   3.0822263411e+01    0.3950676    0.2757111   4.47  0.001526649    1.975    0.494
        22 -12.0560    161.4793      8.8885   4.8852643968e+01   4.3537922628e+01     0.636653    0.2403685  64.44  0.001755934    2.323    0.570
        23 -10.8415    165.8464      3.8385   4.6585172597e+01   4.2873245642e+01    0.2489526    0.2119952 -14.98 0.0003579342    1.300    0.231
        24 -11.7566    160.8833      3.0650   4.7020906341e+01   4.4221062504e+01    0.5829273    0.3889509  61.06  0.002684534    1.334    0.251
        25  -9.6820    229.2910     10.9891   4.1597859155e+01   2.6104037177e+01    0.1816258     0.155528 -48.05 0.0001910208    1.123    0.109
        26 -11.7381    194.2907      8.4032   4.4437777806e+01   3.5096572498e+01    0.3519796    0.2449329  86.47 0.0009528147    1.411    0.291
        27 -11.4562    146.6994      8.0983   5.0922789344e+01   4.7400621569e+01    0.3535029    0.2175287  35.60  0.001690272    1.694    0.410
        28  -9.7937     47.0305      8.8119   7.9120679316e+01   6.8097575279e+01    0.2287037    0.1405705  15.66  0.001144798    1.650    0.394
        29  -9.7407     51.5319      6.8551   7.6224767668e+01   6.7689632884e+01    0.2052509    0.1287287  -7.66  0.001176086    1.504    0.335
        30 -10.4444     35.2694      8.1968   8.4083620560e+01   6.9728943023e+01    0.3644216    0.2665645  59.44  0.001510711    3.152    0.683
        31  -9.5500     30.5620      3.5168   8.3885097499e+01   7.0936170896e+01    0.1796157    0.1263823 -41.05  0.001026958    1.714    0.416
        32 -10.8751    185.3423      8.9185   4.5640619952e+01   3.7350353766e+01    0.2508154    0.1831818  63.71 0.0002075417    1.267    0.211
        33 -10.4749    119.9336      7.9973   5.5983724317e+01   5.4001579580e+01    0.2065749    0.1911684  38.54 0.0005208527    1.065    0.061
        34 -10.1938    106.4566      3.9633   5.7358974539e+01   5.7486062060e+01    0.2274218    0.1592108  31.33 0.0005491188    1.306    0.234
        35 -10.7271    108.1519      7.8525   5.8605998803e+01   5.6745247726e+01    0.4488902    0.2117307  61.67   0.00195733    2.184    0.542
        36 -10.5685    111.8480      4.9126   5.6510251424e+01   5.6172724130e+01    0.2101124    0.1793222  27.36 0.0004685367    1.046    0.044
        37 -10.1389     87.5239      6.5322   6.3492496545e+01   6.1312471970e+01    0.2030675    0.1927862   0.16 0.0006528377    1.226    0.184
        38 -10.2338     24.6637      6.7057   8.8484630317e+01   7.1138298704e+01    0.2103598    0.1474411 -42.10  0.001384799    1.583    0.368
        39 -11.0998    170.9811      6.3290   4.6684947717e+01   4.1318648397e+01    0.2019702    0.1637506  70.73 0.0004597979    1.134    0.118
        40 -10.9028    134.0484      5.3588   5.2151967766e+01   5.0818912589e+01    0.2920145    0.2044751 -18.02 0.0008932452    1.527    0.345
        41  -9.7791     61.6215      6.3309   7.1990600838e+01   6.6148244334e+01     0.168639    0.1475782 -44.33 0.0005808265    1.639    0.390
        42 -10.5196     40.0876      5.2575   8.0331832708e+01   6.9513959780e+01     0.278694    0.2244768 -30.32  0.001661027    1.420    0.296
        43  -9.4080     37.9995      2.2322   7.9664357465e+01   7.0177367408e+01     0.145927    0.1079303 -11.69 0.0009781313    1.062    0.059
        44 -12.2465    195.9805      3.2074   4.2782125201e+01   3.5169353815e+01    0.6917483    0.2342866  60.98  0.002699937    2.525    0.604
        45 -10.4288     48.4313      3.3935   7.5700297914e+01   6.8573602243e+01    0.3700761    0.1768265  23.21  0.001788932    2.417    0.586
        46  -9.6828     19.6796      6.9313   9.1150539123e+01   7.1598603021e+01    0.2194306   0.07608369 -37.12 0.0009847584    2.293    0.564
        47 -10.3589    248.9286      2.9022   3.8097790299e+01   2.2400066951e+01    0.2026363    0.1629546 -46.31 0.0003742068    1.155    0.134
        48 -10.3810    218.0179      2.5487   4.0474782015e+01   2.9715550074e+01    0.2460683    0.1927925 -36.28 0.0006321684    1.296    0.229
        49 -10.9367     74.1160      2.0447   6.5467541776e+01   6.4381876724e+01     0.262219    0.1814055  27.63 0.0008190661    1.267    0.211
        50 -10.7014    115.7013      2.0201   5.4471707009e+01   5.5527500657e+01    0.2185312    0.1710684  51.97 0.0004134649    1.161    0.139
        51 -10.3897     90.6282      1.5151   6.0295214991e+01   6.1146346219e+01    0.2329643    0.1478529  59.92 0.0009081492    1.698    0.411
        52 -11.1620    128.7679      2.1896   5.1931914651e+01   5.2386739336e+01    0.4151604    0.1690216  63.46  0.001705318    2.228    0.551
        53 -10.1620    143.7762      1.3627   4.9017085632e+01   4.8728529405e+01    0.1988375    0.1079288  55.96  0.000358062    1.588    0.370
        54 -11.3865    180.4229      2.0498   4.4181979082e+01   3.9267577333e+01      0.35276    0.1815912  71.13  0.001413085    1.769    0.435
        55 -10.1557    234.0354    225.7034   9.0520082087e+01  -6.2023271190e+00    0.1801458    0.1717834 -45.86  0.001299746    1.667    0.400
        56 -10.7239    197.7950    240.4739   9.9187757080e+01  -2.2898682447e+00    0.2097781    0.1651598  31.35 0.0003772654    1.035    0.034
        57 -10.4435    200.9013    249.0362   9.9873064469e+01  -3.8139215340e+00     0.188602    0.1558697   2.40 0.0005803644    1.278    0.217
        58 -11.4361    201.3378    244.8111   9.9195252890e+01  -3.3791801326e+00    0.3097941    0.1880334  34.16  0.001006874    1.289    0.224
        59 -11.5912    204.3801    240.5597   9.8041804218e+01  -3.3422135586e+00    0.2647761    0.1706867  37.46 0.0002419415    1.246    0.198
        60 -10.6569    186.7551    250.4914   1.0252646879e+02  -1.7915253187e+00    0.1888937    0.1139057  37.84 0.0004285285    1.275    0.216
        61 -11.7685    127.5556    248.2687   1.1264015735e+02   7.7757429795e+00    0.3053702    0.2530566  82.63 0.0009421287    1.340    0.254
        62 -12.0496     39.0423    249.0321   1.2748100501e+02   1.9631935615e+01     0.375476    0.2022821 -78.65  0.002642721    1.796    0.443
        63 -11.8852      3.0055    233.7900   1.3230241431e+02   2.5977892939e+01    0.4056588    0.2209743 -82.14  0.003025154    1.582    0.368
        64 -11.5155      9.6386    225.4851   1.3091190763e+02   2.6811556242e+01    0.4662299     0.145538  65.95  0.002359192    2.919    0.657
        65 -12.2739     22.4974    242.1684   1.2968917553e+02   2.2598386952e+01     0.820979    0.2943752  84.42  0.004335213    2.965    0.663
        66 -12.8490     18.5570    246.8134   1.3050623871e+02   2.2228257310e+01    0.9832922    0.2533917  48.67  0.005495402    2.521    0.603
        67 -12.6866     11.7544    234.0216   1.3096940920e+02   2.5095640416e+01    0.5994883    0.3002346  84.67  0.004158682    1.596    0.374
        68 -12.7091      3.7136    246.5532   1.3269154532e+02   2.3748968315e+01    0.5027913    0.1968495  54.48  0.002984877    1.764    0.433
        69 -11.5245      6.4811    241.0266   1.3206959426e+02   2.4407558154e+01     0.306667    0.1738778  38.92  0.001308062    1.932    0.482
        70  -9.9659     30.9810    250.6227   1.2880700401e+02   2.0272546608e+01    0.1382432   0.07240753  48.77 0.0009708756    1.508    0.337
        71  -9.5497     19.7454    225.9557   1.2930844302e+02   2.5722934733e+01    0.1490425    0.1015004  83.67  0.001142959    1.150    0.130
        72  -9.7919    164.4151    225.2248   1.0305751475e+02   5.3116652716e+00    0.1548743    0.1208377 -66.34  0.000953363    1.718    0.418
        73  -9.4876    123.0241    225.4854   1.1088987376e+02   1.2111571460e+01    0.1821693    0.1012215  44.42 0.0004357883    1.491    0.329
        74  -9.9496     99.2285    224.2419   1.1520504523e+02   1.6006330834e+01    0.2928188   0.09777161 -62.72  0.001276068    3.434    0.709
        75  -9.8194     79.2970    223.8749   1.1884331936e+02   1.8939576986e+01     0.302743    0.1490714  79.94  0.001455439    2.769    0.639
        76 -10.5861      2.0778    224.5261   1.3206421692e+02   2.7695326757e+01     0.246197    0.1232568  78.70  0.001708072    1.503    0.335
        77 -10.6993     36.5870    223.4747   1.2636036640e+02   2.4368511829e+01     0.281483    0.1492485  70.61  0.001068496    1.575    0.365
        78 -11.1950     40.0080    217.8639   1.2539725599e+02   2.5022150061e+01    0.2479955    0.1815012  56.63  0.001049352    1.217    0.179
        79 -10.0015     63.7604    220.9632   1.2140705092e+02   2.1552675078e+01    0.3058061    0.1434528  75.80  0.001151318    2.557    0.609
        80  -9.9944     54.7874    221.3600   1.2304524258e+02   2.2613214443e+01    0.2178521    0.1154565  76.59  0.001267666    1.831    0.454
        81 -10.7456    228.8050    220.2179   9.0500162764e+01  -4.7242899078e+00     0.203272    0.1740714  31.65 0.0002992557    1.284    0.221
        82 -10.3986     84.0927    220.9347   1.1768225649e+02   1.8804136833e+01    0.1706314    0.1360246  67.90 0.0003397976    1.022    0.022
        83  -8.8073     26.7189    221.6867   1.2791975479e+02   2.5774181270e+01   0.08995385   0.07513015 -70.47 0.0002248328    1.571    0.363
        84  -8.4417     20.8302    218.7600   1.2874088923e+02   2.6927521857e+01    0.3047146    0.1148091 -84.21  0.001662283    2.412    0.585
        85 -12.0962     31.2546    244.9660   1.2847398006e+02   2.1183221701e+01    0.5222625    0.3617424  40.23   0.00266057    1.678    0.404
        86 -10.3517    135.5452    218.1863   1.0758100114e+02   1.1308439075e+01    0.2157845    0.1999304  14.24 0.0006623331    1.306    0.234
        87 -10.5287     47.0632    217.9182   1.2415708594e+02   2.4190919613e+01    0.2541026    0.1629084  38.38  0.001299787    1.709    0.415
        88 -10.3974    195.1783    216.8522   9.6011646517e+01   1.2931935129e+00    0.1861664     0.160298  39.84 0.0007404939    1.176    0.150
        89  -9.3541    175.9611    217.0200   9.9651281864e+01   4.5826715348e+00    0.2334647    0.1207993  24.64  0.001009063    2.628    0.620
        90  -9.3953    101.4111    217.2098   1.1402959425e+02   1.6941799078e+01    0.1552824     0.108314 -85.05 0.0005291441    1.552    0.356
        91 -11.3334     67.1825    207.3535   1.1956293427e+02   2.3694884456e+01    0.2323773    0.1749457  63.62 0.0002092172    1.090    0.083
        92 -11.1256     68.4199    215.0341   1.2003882508e+02   2.2053439147e+01    0.1938503    0.1416676  53.72 0.0001991543    1.196    0.164
        93 -10.8533     72.9834    216.2668   1.1930277204e+02   2.1209335888e+01    0.2000147    0.1940959 -52.00 0.0002564514    1.514    0.340
        94 -13.0333     74.3688    211.0804   1.1854960469e+02   2.2006195052e+01    0.2989946     0.268132 -83.45 0.0005278555    1.281    0.220
        95 -10.2529     31.7349    216.0252   1.2671737403e+02   2.6289314795e+01    0.1941723    0.1230379  72.09 0.0003631913    1.212    0.175
        96  -9.6486     34.2306    213.3402   1.2610502751e+02   2.6524669045e+01    0.2739971     0.123753  48.64 0.0007717933    1.828    0.453
        97 -10.7563     28.5331    213.5043   1.2711353507e+02   2.7109978643e+01    0.1966078    0.1352376  63.14 0.0008036383    1.152    0.132
        98 -11.2955     31.5087    210.4809   1.2639523382e+02   2.7368113494e+01    0.2527874    0.2005745  40.45  0.001252173    1.559    0.359
        99 -10.4661     84.5848    214.7289   1.1697112171e+02   1.9884390772e+01     0.239059    0.1899958  32.21 0.0004738458    1.563    0.360
       100 -11.4033      4.3318    205.5445   1.3082681278e+02   3.0999332137e+01    0.2824743    0.1709668  59.15  0.001364866    1.331    0.248
       101 -10.7152     13.4666    213.0958   1.2967031821e+02   2.8717003220e+01    0.2762034    0.1811028 -54.31   0.00157123    2.235    0.553
       102 -11.6078      8.1510    211.0703   1.3045894943e+02   2.9602740644e+01    0.3812453    0.1941947 -83.66  0.002551029    1.591    0.371
       103 -10.5234    165.3980    213.9565   1.0120097269e+02   6.8980430832e+00     0.237218    0.1630781  44.24 0.0007091414    1.249    0.199
       104 -10.5997    111.7273    213.5563   1.1161157474e+02   1.6006597789e+01    0.2425647    0.2271101  20.59  0.001304097    1.377    0.274
       105 -12.3773    129.0196    208.0317   1.0748476499e+02   1.4184475798e+01    0.5362186    0.3787296   1.06  0.002606672    2.743    0.635
       106  -9.7647      1.4208    212.9449   1.3166314611e+02   2.9866643545e+01    0.1472743   0.07589292 -84.80 0.0003283562    1.542    0.352
       107 -10.1730    118.0287    212.0756   1.1019490714e+02   1.5266557613e+01     0.193225    0.1602381  54.91 0.0004576357    1.028    0.027
       108  -9.6691     63.9723    212.3290   1.2062484640e+02   2.3152518005e+01    0.1621704    0.1235979  58.67 0.0007612031    1.135    0.119
       109  -9.9968     39.0423    210.9540   1.2508352571e+02   2.6444617804e+01    0.1733067    0.1328835  79.14 0.0008755021    1.066    0.062
       110 -11.2296     24.1500    208.4874   1.2756611782e+02   2.8527319723e+01    0.3015512    0.2072079  51.76  0.001187042    1.355    0.262
       111  -9.6983     28.3643    205.7007   1.2663813900e+02   2.8628329968e+01    0.1570718    0.0848178  81.69 0.0005540592    1.580    0.367
       112  -9.3892    155.2284    210.0253   1.0258246837e+02   9.3213101968e+00    0.1473323    0.1096074 -47.88  0.000422501    1.566    0.361
       113 -10.5574    144.7737    209.2344   1.0452626388e+02   1.1278449310e+01    0.2806935    0.1709923 -70.60  0.001368856    2.432    0.589
       114  -9.4165     96.8161    209.3477   1.1402778255e+02   1.9101667995e+01    0.1641147      0.10591  37.46 0.0007109377    1.591    0.371
       115 -10.6925     59.0184    215.7660   1.2183504099e+02   2.3132223437e+01    0.1833504    0.1436723 -85.19 0.0003336504    1.232    0.188
       116 -10.6845     59.4791    208.4324   1.2112240947e+02   2.4482471430e+01     0.291213    0.1570513  62.93  0.001082374    1.662    0.398
       117 -11.7928     17.8101    207.7977   1.2863296509e+02   2.9298777829e+01    0.1856088    0.1328388  79.77 0.0002921118    1.038    0.037
       118 -10.3375    196.2278    208.1950   9.4366508133e+01   2.3662450529e+00    0.2175536    0.1283077   7.58 0.0009470719    2.764    0.638
       119 -10.2860     53.9646    204.0194   1.2177939587e+02   2.6038555859e+01    0.2855924    0.2223629 -66.63  0.001980379    1.451    0.311
       120 -11.7455     34.8199    204.9684   1.2541932823e+02   2.8077714465e+01    0.2807091    0.2008045 -86.07   0.00101366    1.209    0.173
       121  -9.4289     47.4673    204.4926   1.2304425707e+02   2.6729377376e+01    0.2557368   0.03283259  49.06 0.0008095196    5.581    0.821
       122 -10.7255    121.4630    200.3562   1.0794377773e+02   1.6877192543e+01    0.3949069    0.2510496  88.19  0.001439173    2.240    0.554
       123  -9.5436    165.7385    202.0427   9.9244207889e+01   8.7935181259e+00    0.1800452    0.1598833  39.47  0.001031296    1.022    0.021
       124 -10.4800     95.6688    194.8602   1.1251600904e+02   2.2109190495e+01    0.2279233    0.1827649  60.27 0.0003887631    1.086    0.079
       125  -9.8397     70.9008    199.2167   1.1803603683e+02   2.4810817387e+01    0.3729952    0.1473559 -52.69  0.001657693    3.144    0.682
       126 -10.2000     19.0134    200.7218   1.2799572506e+02   3.0555204561e+01    0.1838738    0.1221449 -87.13 0.0006058275    1.219    0.180
       127  -9.9168     90.8376    200.0322   1.1413335604e+02   2.1807972171e+01    0.2387904    0.1306337  54.82  0.001248182    1.667    0.400
       128 -11.3002      5.4575    200.0381   1.3035194928e+02   3.1959013112e+01    0.1655168    0.1207304  63.88 0.0008159833    1.199    0.166
       129 -10.1412    223.5305    198.9180   8.7644874624e+01  -1.0616311601e+00    0.2720228    0.1455087  35.96  0.001021416    1.670    0.401
       130 -11.3072     97.9082    200.8363   1.1280096664e+02   2.0577342148e+01    0.3724204    0.3169925 -64.55  0.001469719    1.313    0.238
       131  -9.5419    149.8442    199.1645   1.0197442492e+02   1.2157752186e+01    0.1714882       0.1468  22.05 0.0002549444    1.269    0.212
       132 -10.7342     55.6816    199.0061   1.2100428300e+02   2.6828202700e+01    0.1647882     0.125156  81.71 0.0004139695    1.078    0.073
       133  -9.5794     13.6967    197.9318   1.2877933734e+02   3.1616342227e+01    0.1922929    0.1402368  56.33  0.001451322    1.297    0.229
       134 -10.7600    128.3574    197.0744   1.0605658518e+02   1.6328122076e+01    0.2910677    0.1658881  47.87            0    1.564    0.361
       135 -10.1736    105.2982    195.9848   1.1067137290e+02   2.0375280266e+01    0.2589555    0.1657633  50.12 0.0007932733    1.387    0.279
       136 -10.6088    108.5271    194.0015   1.0973459986e+02   2.0248881524e+01    0.3457599    0.1692103 -61.55  0.001465369    2.208    0.547
       137  -9.7716    140.4533    195.4911   1.0331813302e+02   1.4506009828e+01    0.2141094    0.1289371 -66.44  0.001016642    2.184    0.542
       138  -9.8152     82.5616    195.7009   1.1530745510e+02   2.3891546228e+01    0.2067888    0.1121822 -62.72 0.0006792462    1.864    0.464
       139  -9.5331     37.0432    196.5009   1.2437263802e+02   2.9519180617e+01    0.1554691    0.1020984  43.48 0.0007267218    1.550    0.355
       140  -9.5500    134.6347    195.6982   1.0455273397e+02   1.5496232071e+01    0.1309766    0.1038796   9.46  0.000703496    1.733    0.423
       141  -9.5074      6.6960    195.3136   1.2987924583e+02   3.2773970683e+01    0.1200474   0.09458254  36.42 0.0006093854    1.669    0.401
       142  -9.9916    217.4979    194.4991   8.7921149722e+01   6.1763566536e-01    0.1320938    0.1133259  16.96 0.0008104708    1.033    0.032
       143  -9.5521     44.5425    194.4976   1.2276974122e+02   2.9079268564e+01    0.1182614   0.09101802  78.28 4.415799e-05    1.006    0.005
       144 -10.4328    123.0648    193.0773   1.0656604469e+02   1.8005515116e+01    0.1988851    0.1725288  66.38 0.0004974625    1.065    0.061
       145  -9.9761     51.3314    188.6518   1.2090159982e+02   2.9485023451e+01    0.2620683    0.1353723  62.69  0.001173976    1.852    0.460
       146  -9.2839     37.9824    193.0118   1.2391586264e+02   3.0124715092e+01     0.140961    0.1078802  77.52 0.0005934471    1.014    0.014
       147  -9.9133    188.6863    190.6070   9.2695042955e+01   6.4722135231e+00    0.2778004    0.1970449  -5.22  0.001420676    1.790    0.441
       148 -11.9335     91.6918    189.0876   1.1261160718e+02   2.3893161933e+01    0.2706402    0.2168348 -80.79 0.0004418636    1.206    0.171
       149 -10.9795     52.9042    192.8126   1.2097851095e+02   2.8432107040e+01    0.2259608    0.1593513 -73.39 0.0003173125    1.341    0.254
       150  -9.9787    165.9849    188.8769   9.6948650738e+01   1.1029090447e+01    0.2453041    0.1807605 -82.53 0.0009182908    2.094    0.522
       151 -10.4280     74.6748    186.3771   1.1585819437e+02   2.6935152950e+01    0.3612018    0.1520082 -67.14  0.001665075    2.338    0.572
       152 -10.4459    130.4486    185.2463   1.0379453620e+02   1.8253929606e+01    0.3370492    0.2334736 -86.94  0.001304628    1.935    0.483
       153 -11.2117    104.9421    185.2128   1.0926739765e+02   2.2611062965e+01    0.3695761    0.3531191  -5.33  0.001821162    1.362    0.266
       154  -9.9636     85.4140    187.0569   1.1367881562e+02   2.5254208355e+01     0.206729    0.1680838  37.41  0.000585976    1.392    0.282
       155  -9.0293    149.2346    186.7318   1.0005389630e+02   1.4549839808e+01     0.124733    0.1018043  76.56 0.0006738611    1.421    0.296
       156 -10.2672     43.2554    186.1557   1.2229424845e+02   3.0952713191e+01    0.1963425    0.1733692 -87.94 0.0004370058    1.241    0.194
       157  -9.5247     43.7459    182.1691   1.2183079965e+02   3.1737425698e+01    0.2737362    0.1106866  72.78  0.001071512    3.632    0.725
       158 -10.8885     32.2848    184.4101   1.2433075829e+02   3.2518117322e+01    0.3424615    0.1744934  42.50  0.001202456    1.900    0.474
       159 -10.6664    177.7339    183.7302   9.3609669813e+01   9.7080932054e+00    0.3019037    0.1970292 -56.18  0.001314511    1.970    0.492
       160 -10.7424     15.9218    183.2815   1.2743396273e+02   3.4367198683e+01    0.2036361    0.1642729  72.29 0.0006629734    1.168    0.144
       161  -9.5241      2.5113    183.8821   1.2999585448e+02   3.5421703365e+01    0.1503147   0.08133514 -82.81 0.0004422024    1.430    0.301
       162  -9.1911    225.6140    183.7006   8.4341601258e+01   7.4899800375e-01      0.14435   0.09207201  12.68 7.979653e-05    1.782    0.439
       163  -9.7999     88.2865    182.4061   1.1246889609e+02   2.5803959510e+01    0.2212629    0.1096716 -64.02 0.0007754327    2.015    0.504
       164  -9.9287    213.0108    182.3029   8.6403102767e+01   3.2590713905e+00    0.1884901    0.1524838  26.88 0.0002283127    1.112    0.101
       165 -11.0856     57.2429    180.8971   1.1890806055e+02   3.0399713354e+01    0.4053627    0.2771645  20.99  0.002290234    2.213    0.548
       166  -9.5841    181.8730    180.6979   9.2193808191e+01   9.4415065556e+00    0.2367308     0.147341   6.54  0.000951556    2.770    0.639
       167 -10.0156    155.0170    181.0099   9.7830043563e+01   1.4545079135e+01    0.2017727    0.1848158  39.71            0    1.026    0.026
       168 -10.2826    131.2874    179.4435   1.0266051139e+02   1.9261439321e+01    0.2538222    0.2109212 -87.78 0.0006460365    1.319    0.242
       169 -12.5733     32.2620    176.3314   1.2365581960e+02   3.4229175706e+01    0.2578942    0.1904409 -79.93 0.0004414519    1.174    0.149
       170 -10.6538      4.0518    178.6478   1.2939930996e+02   3.6363034621e+01    0.2090376    0.1343931  70.88 0.0006456288    1.243    0.195
       171 -10.4324     92.0737    177.3198   1.1095223687e+02   2.6310862597e+01    0.2048132    0.1673486 -61.19 0.0002404551    1.287    0.223
       172 -10.8042     22.9411    176.3528   1.2554921537e+02   3.5154980188e+01    0.2970725    0.1544025  69.35  0.001001787    1.771    0.435
       173  -9.1068    170.5391    177.4067   9.3895927522e+01   1.2228159049e+01    0.1409494    0.1275391  33.27 0.0001403813    1.020    0.020
       174 -10.9213    108.9080    176.5904   1.0712170114e+02   2.3757026281e+01    0.2365715    0.2120587  88.40 0.0003536745    1.067    0.062
       175 -11.6516     79.0314    174.4107   1.1343659848e+02   2.8882435247e+01    0.3576768    0.2432036  79.89 0.0003209929    1.507    0.336
       176 -10.2666     74.2964    177.1716   1.1482940249e+02   2.8952171301e+01    0.1837509    0.1643844  57.14 0.0003237112    1.198    0.165
       177  -9.7207     46.1357    177.1014   1.2084991223e+02   3.2547608301e+01    0.1668517     0.142828 -86.24 0.0003531211    1.160    0.138
       178  -9.5921    136.3455    176.2931   1.0101702596e+02   1.8971063096e+01    0.1371302    0.1107928   6.05 0.0003104287    1.664    0.399
       179  -9.9560     17.4022    174.9946   1.2655440770e+02   3.5962296485e+01    0.1757958    0.1406768 -57.25 0.0009259505    1.569    0.363
       180 -10.4171     87.6112    171.9398   1.1118638406e+02   2.8157376144e+01    0.2500605     0.204092  86.61 0.0003488098    1.132    0.117
       181  -9.5074     62.8689    171.1041   1.1659210384e+02   3.1812926451e+01    0.1526271    0.1476247 -80.64 0.0005097952    1.297    0.229
       182  -9.4323     41.2419    171.4306   1.2132347811e+02   3.4328788148e+01    0.1496101   0.09828793  56.25 0.0002830297    1.419    0.295
       183  -9.7372    156.9453    173.5633   9.6044735199e+01   1.5597151602e+01    0.2215708    0.1312438  43.20  0.001018843    1.573    0.364
       184  -9.5379     54.8160    168.0111   1.1800812312e+02   3.3507592898e+01     0.200326    0.1223697 -49.08  0.001072122    1.989    0.497
       185  -9.8103      2.7062    167.2165   1.2894057154e+02   3.8855227158e+01     0.287564   0.07776777 -68.63  0.001348762    2.767    0.639
       186  -9.7930     61.0468    166.0501   1.1638414919e+02   3.3167551088e+01    0.1886681    0.1590739  79.83 0.0005496737    1.043    0.041
       187  -9.7448     46.3864    166.2855   1.1967609792e+02   3.4883948834e+01    0.2175632    0.1177488  57.22 0.0006579848    1.808    0.447
       188 -10.2123     37.0214    165.3655   1.2162969886e+02   3.6115168728e+01    0.2191783    0.1353399  83.53 0.0007390421    1.467    0.318
       189 -12.0022     24.3877    163.4371   1.2417273416e+02   3.7800890674e+01    0.2631158    0.1907495  68.37 0.0004596193    1.229    0.186
       190 -10.1916    126.3531    161.6296   1.0062687803e+02   2.3870249714e+01    0.2469936    0.2075269  55.29  0.000666777    1.143    0.125
       191 -10.4016     75.7239    161.8599   1.1247056934e+02   3.2137189524e+01    0.2168384    0.1884517 -85.07 0.0005058558    1.047    0.045
       192 -10.5634    140.5137    161.0101   9.7265457195e+01   2.1314619146e+01      0.27148    0.2040474  45.33 0.0005009351    1.275    0.216
       193 -10.9658     37.5997    159.8287   1.2093532701e+02   3.7284299741e+01     0.586027    0.1920039  49.00  0.002536242    3.035    0.671
       194 -10.5855     30.4464    154.7209   1.2201216224e+02   3.9152854364e+01    0.3581204    0.1843109  53.63  0.001872273    1.938    0.484
       195 -10.4328    100.2715    160.2874   1.0647764704e+02   2.8734798416e+01    0.2805637    0.1263561  32.28  0.001084495    2.792    0.642
       196  -9.4224    122.6504    166.6704   1.0238770746e+02   2.3470719637e+01    0.1401598    0.1136254  -6.31 0.0007048549    1.766    0.434
       197  -9.4142    114.0226    158.5080   1.0293049766e+02   2.6781408080e+01    0.2017335    0.1357485  42.83 0.0003413727    1.468    0.319
       198  -9.4978     65.9941    158.4602   1.1426627908e+02   3.4236090191e+01    0.1844752    0.1217785  43.44 0.0004587715    1.555    0.357
       199  -9.8806    113.1218    153.8286   1.0228845319e+02   2.7977014581e+01    0.2215355    0.1830941  76.53 0.0007529205    1.256    0.204
       200  -9.0413    183.2925    156.7234   8.7004707899e+01   1.3488358839e+01     0.137803     0.117872  85.42 0.0001881491    1.524    0.344
       201  -9.6581    207.2703    151.9383   8.1102814623e+01   9.3797428042e+00    0.1967881    0.1773599  -7.89 0.0002787875    1.052    0.049
       202  -9.8820     10.2272    152.3660   1.2628309203e+02   4.1462429907e+01    0.1528148   0.09000152  48.57 0.0009584958    1.725    0.420
       203  -8.9725     45.7190    151.6893   1.1815177349e+02   3.8247408634e+01    0.1191913   0.08741733 -49.73 0.0001795246    1.566    0.361
       204  -9.2716     85.9461    150.0583   1.0821222001e+02   3.3327354644e+01    0.1650933    0.1430557 -79.59 0.0004062452    1.052    0.050
       205  -9.0824    159.5109    148.6271   9.0392719951e+01   2.0036703462e+01    0.1484056    0.1398192  44.21 6.362618e-05    1.037    0.036
       206  -9.7566     38.5181    148.2255   1.1943599300e+02   3.9813429841e+01     0.250622    0.1388801  38.97  0.001379152    1.942    0.485
       207  -9.8934    201.7690    143.4794   8.0256250139e+01   1.2023404522e+01      0.27337    0.1886835 -54.20  0.001141972    1.791    0.442
       208 -10.0673     14.5057    143.6739   1.2456181616e+02   4.3050835271e+01    0.2290408     0.170316   7.82  0.001507077    2.064    0.515
       209  -9.3047      4.7638    143.0257   1.2672103835e+02   4.3936791602e+01    0.1511546   0.07440443 -78.52 0.0005155354    1.548    0.354
       210  -9.0281     21.3101    142.3104   1.2284471587e+02   4.2792463176e+01    0.1161277   0.07788934 -52.20 0.0006900186    1.623    0.384
       211  -8.8379     57.5732    141.5195   1.1390725889e+02   3.9216455789e+01     0.132249    0.1107713 -82.62 9.191759e-05    1.018    0.018
       212  -9.7311    103.9899    139.7501   1.0183525651e+02   3.2768537346e+01    0.1962161    0.1816643 -77.12 0.0004181452    1.017    0.017
       213 -10.7110     35.3436    139.1043   1.1910451086e+02   4.2232388988e+01    0.2900583    0.1925609  66.71  0.001705557    1.533    0.348
       214 -10.6039    236.1237    137.8068   7.2566790908e+01   5.8689486350e+00    0.2066296    0.1947514 -42.56 0.0006786536    1.235    0.190
       215  -9.3830     82.9243    138.5351   1.0697692428e+02   3.6461064555e+01    0.1804296    0.1267319   0.54 0.0008078802    2.527    0.604
       216  -9.9938     50.1057    135.7917   1.1495699969e+02   4.1438544147e+01    0.2537665    0.1374899 -46.03  0.001229667    2.105    0.525
       217  -9.3389     23.6218    136.3047   1.2164643648e+02   4.3961827356e+01    0.1284469   0.07534084  69.56 0.0006734374    1.775    0.437
       218  -9.4305     77.4219    134.8313   1.0773526801e+02   3.8142314605e+01    0.2041862    0.1152615 -51.46 0.0009533862    1.704    0.413
       219  -9.4464     64.8534    135.1186   1.1105420582e+02   3.9800371794e+01    0.1712675    0.1440222 -52.08 0.0002902705    1.246    0.197
       220 -11.9408     28.0821    131.8437   1.2001905411e+02   4.4595818226e+01    0.3421169    0.2322437  66.96  0.002078279    1.510    0.338
       221 -10.3112    102.7465    132.2074   1.0062129006e+02   3.4725189281e+01    0.4737017    0.2023238  44.09  0.001829578    2.404    0.584
       222 -10.2074     57.0323    132.0826   1.1260043320e+02   4.1498478262e+01    0.1975593    0.1672478 -76.69 0.0003370831    1.007    0.006
       223 -11.0276     39.1590    131.4739   1.1715131006e+02   4.3625259326e+01    0.3300948    0.1940815  66.44   0.00118809    1.937    0.484
       224  -9.4618     69.0252    131.5010   1.0934879332e+02   4.0101433626e+01    0.1849693    0.1359269  36.56 0.0006741328    1.529    0.346
       225 -10.6195     77.9210    129.3042   1.0658799958e+02   3.9373292714e+01    0.3906828    0.2063056  47.77  0.001513386    2.045    0.511
       226 -10.8873     20.5159    126.6921   1.2131547920e+02   4.6430531129e+01    0.2379112    0.2137496 -39.30 0.0009402854    1.408    0.290
       227 -10.0757     92.0188    126.1184   1.0218177398e+02   3.7950252632e+01     0.212089     0.197097 -73.99 0.0003116357    1.013    0.013
       228 -10.9377      9.6013    131.3422   1.2453185022e+02   4.6202912843e+01    0.2648448    0.1537428 -53.57 6.242727e-05    1.726    0.421
       229  -9.5447    128.0354    124.9397   9.2485103673e+01   3.1629249574e+01    0.2256651    0.1825548 -15.58 0.0005696373    1.542    0.352
       230  -9.3698      3.5302    125.0089   1.2539530885e+02   4.8047489249e+01    0.1740737   0.08691838 -73.80 0.0003201681    1.493    0.330
       231  -9.9092     69.2316    123.4222   1.0782947589e+02   4.1986455779e+01    0.1756941    0.1259008  51.40 0.0003091804    1.512    0.339
       232 -10.7095    237.6002    121.2140   6.8410452317e+01   8.2492410849e+00    0.2191791    0.1981047  39.30  0.001247359    1.199    0.166
       233  -9.0553    123.4447    121.3911   9.2808744569e+01   3.3342321869e+01    0.1494414      0.14339 -88.41 9.476838e-05    1.052    0.050
       234  -9.8142     21.8401    120.9992   1.2027482906e+02   4.7638181219e+01    0.2787463    0.1109178 -56.24 0.0007506301    2.105    0.525
       235 -10.6386     19.5699    118.2985   1.2053295758e+02   4.8442570401e+01    0.2524295    0.1613068  26.58  0.001533268    1.979    0.495
       236 -11.5371      9.0788    118.3990   1.2330349043e+02   4.9179739516e+01    0.3730688    0.1746629 -48.13 0.0006768986    2.239    0.553
       237 -11.0310      1.4008    115.9681   1.2502913481e+02   5.0218749382e+01    0.1751246   0.08640026 -76.12 0.0009884785    1.524    0.344
       238 -11.3783      5.9667    114.9972   1.2373752036e+02   5.0157860810e+01    0.2348652    0.1756295 -57.69  0.001624829    1.288    0.224
       239 -11.7112      5.0778    110.5149   1.2346820034e+02   5.1232060265e+01    0.4669681    0.2235872 -48.46  0.001667879    2.082    0.520
       240 -10.4876     92.2223    118.8404   1.0056306447e+02   3.9622236465e+01    0.3638123    0.2832291  77.55  0.001321514    1.514    0.340
       241 -10.3468     55.3893    118.2280   1.1070642434e+02   4.4974014322e+01    0.2060766    0.1821443  41.21 0.0005037775    1.305    0.234
       242  -9.4518     30.4424    117.5000   1.1749317700e+02   4.7723387898e+01    0.1269815    0.1006855 -70.23 0.0001482821    1.039    0.038
       243  -9.5938     61.3879    115.2428   1.0846313429e+02   4.4950206420e+01      0.19766    0.1173821 -71.89 0.0009465169    1.676    0.403
       244  -9.9527     34.4753    115.1395   1.1603045120e+02   4.7909387099e+01    0.2399143    0.1406766  54.29  0.001278124    1.985    0.496
       245 -11.2770     19.2030    110.2610   1.1957079693e+02   5.0329540806e+01    0.4110192    0.1921466 -39.25  0.001959521    2.757    0.637
       246 -10.8449    149.9345    111.0600   8.3532888833e+01   2.9961180220e+01    0.2253492    0.2213212 -27.87            0    1.003    0.003
       247 -10.0366     48.6894    111.5776   1.1141044987e+02   4.7311213264e+01    0.2994781    0.1288725  31.15  0.001336829    2.702    0.630
       248  -9.4234     13.1943    110.0616   1.2120647331e+02   5.0808264325e+01    0.1532966    0.1130573  86.95 0.0003112363    1.265    0.210
       249  -9.4861     92.5281    109.6611   9.8367888523e+01   4.1712169236e+01    0.2363655    0.1386101  38.29 0.0009443364    1.851    0.460
       250 -10.3560     36.6819    108.6015   1.1435488793e+02   4.9237042462e+01    0.2246737    0.1928814 -27.13 0.0009917998    1.413    0.292
       251 -10.2112     63.6737    106.1040   1.0595468334e+02   4.6819254906e+01     0.367524    0.2090339 -84.72  0.001115462    2.763    0.638
       252  -9.5465    123.9882    104.7012   8.8408519199e+01   3.6945577834e+01     0.201243    0.1959454  55.18 0.0003689931    1.066    0.062
       253 -10.7192     74.4042    103.4395   1.0217527044e+02   4.5981299048e+01    0.2399612     0.221937 -69.39 0.0005432199    1.065    0.061
       254 -10.3586     19.0976    102.9821   1.1856216097e+02   5.2020107318e+01    0.2296829    0.1628131  83.12  0.001422307    1.457    0.313
       255 -11.0736     51.9737    102.4792   1.0870038307e+02   4.9089413076e+01    0.2784613    0.1186626  37.74  0.001224955    2.617    0.618
       256 -10.8158     43.1891    102.7939   1.1140500581e+02   4.9961168221e+01    0.2711818     0.158681 -49.03 0.0003683171    1.550    0.355
       257 -10.3059     38.3799    101.0000   1.1251748490e+02   5.0856590614e+01     0.279172    0.1912722  23.95   0.00161481    1.818    0.450
       258 -10.1378     42.0062     99.0000   1.1103783125e+02   5.0968726533e+01    0.2393743    0.1869292  48.20 0.0008015771    1.498    0.332
       259  -9.1249     29.4500    103.4884   1.1561421743e+02   5.1082830345e+01    0.1271689    0.1017826 -71.07 8.633965e-05    1.034    0.033
       260  -9.2680    134.5555    101.5825   8.4787753590e+01   3.5378156410e+01    0.1532576    0.1502642 -35.96 0.0001639016    1.009    0.009
       261  -9.7212     78.9900    100.2127   1.0003895524e+02   4.6056339903e+01    0.1794148    0.1170926  36.40 0.0008692446    1.704    0.413
       262  -9.7993      9.1453     99.6928   1.2098008514e+02   5.3447813990e+01     0.175239    0.1278672  67.05  0.001147315    1.531    0.347
       263  -9.6624     16.8981     98.1983   1.1848982181e+02   5.3279796572e+01    0.1948273     0.114503 -36.42   0.00109055    1.981    0.495
       264 -11.3081     55.9649     96.6045   1.0623485094e+02   4.9999989373e+01    0.3977285    0.2625652   2.91 0.0009787127    2.283    0.562
       265 -10.2348     62.9566     96.0879   1.0394796062e+02   4.9254295070e+01    0.2025845    0.1777837 -57.60 0.0003108939    1.018    0.017
       266 -10.1105     23.0557     95.7201   1.1623952667e+02   5.3400616731e+01    0.2038808    0.1458213 -89.64  0.000271247    1.431    0.301
       267  -9.7687     79.6674     95.6700   9.8703776046e+01   4.6999981041e+01     0.147944    0.1057535 -24.27 0.0007052007    1.722    0.419
       268 -10.5127     38.5958     95.1025   1.1133030733e+02   5.2210350027e+01    0.2157151     0.185108   3.61  0.001388116    1.456    0.313
       269 -10.0025    117.5980     93.8610   8.7132763632e+01   4.0616144191e+01    0.4060387     0.212402  55.67  0.001358302    2.429    0.588
       270 -10.1574    117.6470     90.6762   8.6198833848e+01   4.1289148861e+01    0.2893325    0.1998631  -7.94  0.001184818    2.185    0.542
       271 -11.7242     48.1633     93.6144   1.0802329159e+02   5.1581301433e+01    0.4010774    0.3074046  15.78  0.002359938    1.628    0.386
       272 -10.7400      1.4629     92.9779   1.2232821842e+02   5.5408912457e+01    0.2542416    0.1036725 -75.66 0.0006241119    1.974    0.493
       273 -10.4240     20.0582     81.8230   1.1471324541e+02   5.6797543830e+01    0.2453899    0.1861691  76.88 0.0004839511    1.572    0.364
       274 -11.0960     27.1236     88.4658   1.1367477200e+02   5.4750815706e+01      0.51967    0.2182158 -56.54  0.002032077    1.801    0.445
       275 -10.4898     17.7253     91.5851   1.1718985113e+02   5.4739147475e+01    0.1815598    0.1679478  -3.78 0.0007469348    1.378    0.274
       276 -12.2105     21.1957     87.9580   1.1547503955e+02   5.5321315191e+01    0.2470927    0.2142565 -56.79 0.0003324731    1.127    0.112
       277  -9.9501    104.7914     91.1285   8.9977825870e+01   4.3725070011e+01    0.2842691    0.1972733  45.72 0.0004995307    1.547    0.354
       278 -10.5123     59.0872     90.2879   1.0379644237e+02   5.1082420836e+01    0.2442731    0.1729518 -58.63 0.0003013103    1.241    0.194
       279 -10.8491     87.7452     88.9968   9.4460889973e+01   4.7222699732e+01     0.298649    0.2374893 -28.51  0.001174424    1.314    0.239
       280  -9.8695     10.6799     85.3062   1.1836867465e+02   5.6623536672e+01    0.2773072    0.1572483  89.91  0.001499818    1.988    0.497
       281 -11.9688     14.5595     83.7096   1.1685482959e+02   5.6742629988e+01    0.2645085    0.1943045 -61.74 0.0002592881    1.045    0.043
       282 -10.1478      2.8237     87.5127   1.2116448112e+02   5.6567503385e+01    0.2084851    0.1230528 -69.71 0.0005434089    1.263    0.208
       283 -10.8521    155.1163     85.3689   7.5017964622e+01   3.3944088861e+01    0.2696469    0.2375624 -32.50 0.0003369983    1.118    0.106
       284  -9.6790    128.4949     86.0218   8.1865277217e+01   3.9960539332e+01    0.2490366    0.1997577  45.26 0.0008917653    1.286    0.222
       285 -11.9966     50.5487     83.2710   1.0487987146e+02   5.3692638379e+01    0.4133821     0.280818   6.01  0.001263368    1.987    0.497
       286 -10.6327     55.0796     77.9836   1.0201437357e+02   5.4355474736e+01     0.225911    0.1766381 -42.79 0.0003948333    1.119    0.107
       287 -11.3890     73.1970     81.2072   9.6873509479e+01   5.1226930361e+01    0.5150525    0.2460991 -48.27  0.002045782    1.833    0.454
       288 -10.4394     44.0290     80.9886   1.0651046644e+02   5.4911435758e+01    0.2840193    0.1964208 -20.59  0.001240369    1.770    0.435
       289 -11.0171      7.0764     90.3670   1.2027609726e+02   5.5690858756e+01      0.25939    0.1573988 -73.43 0.0006508711    1.298    0.229
       290  -9.1382    120.7373     80.3354   8.2222258783e+01   4.2795868322e+01    0.1510244    0.1203346 -70.35 0.0006020152    1.582    0.368
       291 -10.4609    111.4010     77.8902   8.4088824896e+01   4.5234877914e+01    0.4425944    0.1638301  49.98  0.001453541    3.159    0.683
       292  -9.6654     18.4229     77.5028   1.1442676056e+02   5.7884347675e+01    0.2003898    0.1228032 -70.75 0.0004696628    1.418    0.295
       293 -10.4071     17.8267     73.9981   1.1393111893e+02   5.8707944107e+01    0.3363781    0.1879875 -24.97  0.001815089    2.252    0.556
       294  -9.9101     51.0833     76.6175   1.0301776453e+02   5.5126494453e+01    0.3037789    0.1369219 -43.27  0.001347515    2.019    0.505
       295 -11.1974     62.6390     75.3394   9.8723348534e+01   5.3988165408e+01    0.3272978    0.2517907  45.93  0.001073374    1.559    0.359
       296  -9.9999     28.5822     75.1635   1.1044946986e+02   5.7647025031e+01     0.346431     0.114164 -52.12  0.001511753    2.233    0.552
       297 -10.6650     69.5438     74.2617   9.6080326272e+01   5.3273609079e+01    0.2370425    0.2084068 -58.35 0.0005630447    1.177    0.151
       298  -9.3380     81.0919     74.1826   9.2237467260e+01   5.1536177048e+01    0.1832963    0.1655771 -78.64 0.0004077238    1.325    0.245
       299  -9.3657    142.9743     72.7948   7.4035295379e+01   3.9228411329e+01    0.2247662    0.1677482 -11.54 0.0006426321    1.588    0.370
       300 -11.0371     88.8853     70.5113   8.8568588686e+01   5.0997421895e+01    0.5205691    0.1852156 -45.26  0.001392074    2.592    0.614
       301  -9.2190     94.9990     71.7326   8.7036031051e+01   4.9656698094e+01    0.1730431    0.1287584  38.53 0.0004065909    1.435    0.303
       302 -10.7115     42.0620     70.9888   1.0469264120e+02   5.7341752577e+01    0.2195014     0.177346 -36.80            0    1.142    0.124
       303 -10.8019     45.2060     69.0059   1.0303988261e+02   5.7448485666e+01     0.310788    0.1479282 -43.98  0.001014312    1.804    0.446
       304 -10.5656     79.7613     70.0218   9.1375757054e+01   5.2624512928e+01    0.2113233    0.1977416   3.86 0.0004079434    1.123    0.110
       305 -11.0577     52.7334     69.6738   1.0054654766e+02   5.6459045796e+01    0.2423718    0.2111918 -70.60 0.0009348083    1.292    0.226
       306 -11.3078     56.0720     66.2179   9.8350335087e+01   5.6796032865e+01    0.3474505    0.2474804  30.22  0.001956295    1.608    0.378
       307 -10.7044      1.4110     70.0235   1.1885723241e+02   6.0523804924e+01    0.1832986   0.08636934 -67.26 0.0007893304    1.581    0.368
       308  -9.4878     36.1809     68.5872   1.0617608752e+02   5.8439513376e+01    0.1523275    0.1157497 -10.43 0.0001410293    1.533    0.348
       309 -10.2534    105.8858     67.0652   8.2183667119e+01   4.8502297424e+01    0.2430906    0.2102632  35.23 0.0005113197    1.200    0.166
       310  -9.8873     21.2815     67.4151   1.1128798116e+02   5.9922333029e+01     0.183856     0.156245  37.86  0.001265225    1.496    0.332
       311  -9.8096     75.5915     66.2080   9.1548725900e+01   5.4071565265e+01    0.2163781    0.1864785  39.00 0.0006859582    1.319    0.242
       312  -9.0452    101.3718     64.2514   8.2588625046e+01   4.9937399647e+01    0.1488474    0.1104762   8.52 0.0003088622    1.636    0.389
       313 -10.0743     31.1229     64.0701   1.0685791880e+02   5.9874303747e+01    0.2368936    0.1922554 -78.51  0.001509232    1.424    0.298
       314 -12.6759     23.9805     57.6368   1.0787198969e+02   6.1832542222e+01    0.3041922     0.229047 -52.93 0.0004170276    1.077    0.071
       315 -11.0479      1.6895     61.4434   1.1717254287e+02   6.2376013792e+01     0.311686    0.1431583 -49.73  0.001111225    1.635    0.388
       316 -11.1459      9.3158     62.4876   1.1457868917e+02   6.1759971762e+01    0.4194661    0.2142598 -64.14  0.001470863    1.523    0.343
       317 -11.3544      5.4711     58.2891   1.1511740628e+02   6.2868953086e+01    0.3853234    0.2473332 -81.23  0.002364975    1.687    0.407
       318 -10.2538     98.5130     60.1923   8.2062531347e+01   5.1263949438e+01    0.3753661    0.2299893 -22.17 0.0008586429    1.913    0.477
       319 -10.1833     73.5127     61.4191   9.0682074505e+01   5.5365902091e+01    0.2297471    0.1950938  11.82 0.0007503893    1.249    0.199
       320 -10.5879     70.4871     60.4197   9.1398150566e+01   5.6025251498e+01    0.3132931    0.2192474  37.52   0.00137198    1.601    0.375
       321  -9.8062     38.9027     60.7013   1.0302524103e+02   5.9877290413e+01    0.1666995    0.1527835 -30.80  0.000496336    1.146    0.128
       322  -9.7625     16.5513     60.7114   1.1147850796e+02   6.1703352155e+01    0.1647375   0.09954551 -70.68 0.0008760229    1.604    0.377
       323 -10.7905     32.4483     59.1862   1.0504227760e+02   6.0803361504e+01    0.2597916    0.1610678  28.47  0.001493023    1.931    0.482
       324  -9.0839    238.4603     58.5691   5.2633597353e+01   1.7867394177e+01    0.1409595    0.1281051 -49.81 7.645402e-05    1.008    0.008
       325  -9.0782     48.4585     58.4786   9.8765200022e+01   5.9326035873e+01    0.1325349    0.1086681 -37.82 0.0003838074    1.009    0.009
       326  -9.7458    105.6815     57.0470   7.8776618529e+01   5.0420961445e+01    0.3024702    0.2248295 -74.33  0.001366427    2.157    0.536
       327 -10.2582     53.3752     56.2503   9.6209598491e+01   5.9198653476e+01    0.2685881    0.1960604  76.09 0.0009358614    2.569    0.611
       328  -9.9777    225.8527     55.8173   5.3563118867e+01   2.1248135813e+01    0.2014045    0.1926631  -2.27 0.0003301135    1.151    0.131
       329  -9.0207    249.7129     55.3019   5.0462490395e+01   1.5770065234e+01    0.1420193   0.09352587 -58.22  0.000278725    1.560    0.359
       330 -10.0679    118.5928     55.1716   7.4417627509e+01   4.8003239525e+01    0.2132174    0.1388969 -20.96 0.0004202788    1.684    0.406
       331 -10.4121    151.1569     53.2861   6.5735489937e+01   4.0581549025e+01    0.2469229    0.2312598  25.56 0.0004100128    1.059    0.055
       332  -9.5215     72.5205     54.5188   8.8648221001e+01   5.6875763203e+01    0.1391256    0.1204946 -24.52 5.092086e-05    1.003    0.003
       333 -10.5305     33.4366     54.2286   1.0322962862e+02   6.1752826234e+01     0.214312    0.1766207   6.43  0.001416407    1.383    0.277
       334 -11.4897     42.3429     51.3231   9.8823993165e+01   6.1462471400e+01    0.4680837    0.2308759 -30.80  0.001723845    2.218    0.549
       335 -11.2829     94.6108     49.5841   7.9442011787e+01   5.3939230155e+01    0.4655514    0.3233801 -20.93  0.001146081    1.467    0.318
       336 -10.2453     60.6600     52.0442   9.2062864120e+01   5.9087253013e+01      0.22648    0.1862737  11.09 0.0004649637    1.288    0.224
       337 -10.7079     19.6424     40.9588   1.0481766418e+02   6.5583033941e+01    0.3733118    0.2677103  40.07  0.002403558    1.917    0.478
       338 -10.0053      4.8758     33.0088   1.0888524956e+02   6.8086313052e+01    0.4863279    0.2428654 -32.10  0.002857948    1.802    0.445
       339 -12.0400     17.3073     47.0446   1.0762904933e+02   6.4523929266e+01    0.4995438    0.2770523 -45.78  0.002105308    1.367    0.268
       340 -10.8200      4.7933     39.7010   1.1086416114e+02   6.6765776094e+01    0.3496361    0.2395505 -21.83  0.001487397    1.485    0.327
       341 -13.0555     12.3469     44.2842   1.0891625893e+02   6.5410510091e+01    0.6167539     0.231721 -44.42 0.0007136815    1.999    0.500
       342 -12.1379     13.6174     36.7487   1.0611671818e+02   6.6833512473e+01    0.3752249     0.192909 -56.52  0.001568693    1.611    0.379
       343 -10.9806     65.6984     49.8040   8.9403154384e+01   5.8803361040e+01    0.2721488    0.2237457 -35.58   0.00112099    1.104    0.094
       344 -10.8922     73.6386     48.5987   8.6098637692e+01   5.7811807374e+01    0.3183037    0.1923364  28.82  0.001564368    1.828    0.453
       345 -10.2766    114.2401     47.2052   7.2727565759e+01   5.0293402630e+01    0.2369916    0.1851202 -16.27  0.000322815    1.287    0.223
       346  -9.9593     28.8362     53.1975   1.0473844815e+02   6.2372451317e+01    0.1747045    0.1512532 -55.27 0.0006905657    1.192    0.161
       347  -9.3577     31.4659     47.9502   1.0208604830e+02   6.3214765501e+01    0.1732613   0.09958931 -49.61 -2.365559e-05    1.395    0.283
       348  -9.2427    165.0397     46.0221   6.0479269589e+01   3.8147814350e+01     0.173905    0.1720076  15.76            0    1.017    0.017
       349  -9.8813    124.0602     45.8267   6.9588152778e+01   4.8300588511e+01    0.2176974    0.2034377 -83.62 0.0007899554    1.273    0.215
       350 -10.8368     62.1386     44.9244   8.8916256627e+01   6.0227798492e+01    0.2998843    0.1963943 -33.09 0.0007268422    1.339    0.253
       351  -9.8233     42.7984     44.8237   9.6436868440e+01   6.2695292080e+01    0.1933631     0.141363 -30.63 0.0003555134    1.159    0.137
       352 -10.4069    141.4458     43.0787   6.4400289987e+01   4.4553185629e+01    0.3552445    0.2381294 -16.44   0.00161145    1.656    0.396
       353  -9.6823     33.2766     43.9170   1.0002269556e+02   6.3848960963e+01    0.1812146    0.1683525  68.36 0.0009353655    1.531    0.347
       354  -9.7046    199.9630     43.5100   5.3810890562e+01   2.9456235654e+01    0.2148557    0.1417171  62.71 0.0003750596    1.501    0.334
       355 -11.4450     76.6999     33.7881   7.9156619115e+01   5.9832855331e+01    0.3267398    0.2919714  39.10  0.001976116    1.319    0.242
       356 -10.7916     70.4307     41.4986   8.4527159656e+01   5.9591825801e+01    0.3532968    0.2642229  -8.29  0.001826221    1.347    0.257
       357 -11.6137     71.0077     37.6728   8.2788261849e+01   6.0153232780e+01    0.2894202    0.2179901 -34.23 0.0002168011    1.237    0.192
       358  -9.4860    151.6642     41.1335   6.1519457535e+01   4.2272918034e+01    0.2156216    0.1405635 -13.79 0.0008820202    1.785    0.440
       359 -11.2213     41.3067     38.2859   9.4668845778e+01   6.4098343960e+01    0.4675796    0.2967806 -15.48 0.0008193717    1.713    0.416
       360 -10.2482     82.1242     39.0855   7.9456395156e+01   5.8028384713e+01    0.2275533    0.1956222 -11.86 0.0004699561    1.022    0.022
       361 -10.1338     85.9755     37.1097   7.7368942254e+01   5.7645652688e+01    0.2075134    0.1794879  -8.36   0.00050839    1.022    0.021
       362 -10.3740    117.7536     38.7060   6.8582161793e+01   5.0821206627e+01    0.4151252    0.1853492  55.52 0.0008568211    2.363    0.577
       363  -9.9201    156.0784     36.9755   5.9219261792e+01   4.1719661494e+01    0.2195256    0.2075452  44.28 0.0003223555    1.019    0.019
       364 -10.2230    208.7320     35.9723   5.0453558139e+01   2.8227098909e+01    0.3146497    0.1508064  41.38  0.001185804    2.737    0.635
       365 -12.1839    193.8623     35.2610   5.2301114175e+01   3.2130838625e+01    0.2781082    0.2622699 -89.97 0.0003155584    1.024    0.023
       366  -9.9388    198.8083     35.1417   5.1561710016e+01   3.0869582048e+01    0.2452872    0.1932271  50.93 0.0004988676    1.304    0.233
       367  -9.2716    176.2989     36.3137   5.5353908974e+01   3.6565027366e+01    0.1521728    0.1105308  28.99 0.0007015527    1.607    0.378
       368 -10.1665    142.4734     36.0420   6.1687756554e+01   4.5289336377e+01    0.3296428    0.2520137 -59.58 0.0003837068    1.589    0.371
       369 -10.8230    142.3325     31.0814   5.9950280377e+01   4.5977390637e+01    0.3815106    0.2644339 -28.57  0.001786712    1.477    0.323
       370  -9.9876    131.5954     36.2762   6.4221936087e+01   4.7926123774e+01    0.3018361    0.1732427  59.10 0.0003556993    1.793    0.442
       371 -10.9303    118.9694     33.6390   6.6327613198e+01   5.1264395282e+01    0.3479121     0.277753 -88.80  0.001152394    1.751    0.429
       372 -10.9628     55.7023     33.8538   8.7041082511e+01   6.3093938008e+01    0.3899865    0.3115216 -60.53  0.001764426    1.812    0.448
       373 -10.3289     60.5504     32.9977   8.4783880391e+01   6.2546498501e+01    0.3496095    0.3375387 -72.76  0.002299812    1.498    0.332
       374 -11.7937    103.5711     38.9744   7.2633947859e+01   5.3877013121e+01    0.2485611    0.2318399  -4.50 0.0003470046    1.069    0.064
       375  -9.8283     87.0096     33.2568   7.5448579567e+01   5.8047880340e+01    0.1910867    0.1695815  12.54 0.0004727222    1.074    0.069
       376  -8.8646     66.3137     33.2951   8.2713612200e+01   6.1623117248e+01     0.135046   0.09214457  -3.28  0.000231504    1.599    0.375
       377 -10.5436    206.4923     31.5140   4.9499683548e+01   2.9364385608e+01    0.2777895    0.2173098  65.44 -0.000117631    1.257    0.205
       378 -11.7269    107.6478     29.2198   6.7590817213e+01   5.4404497384e+01     0.390254    0.2611018 -11.39 0.0004391208    1.591    0.371
       379 -10.4944    158.9923     30.1449   5.6365690912e+01   4.1853626240e+01    0.2338426    0.2115254 -16.41 0.0002731014    1.154    0.134
       380 -10.0538     33.5473     30.3646   9.4939151578e+01   6.6366520227e+01    0.3347872    0.1852102 -64.76  0.001404879    3.818    0.738
       381 -10.0313     24.1488     30.8744   9.9352074123e+01   6.7156148002e+01    0.2091099    0.1686003 -53.99 0.0005826345    1.389    0.280
       382 -10.3069     23.0889     27.0236   9.8367374648e+01   6.7949119712e+01    0.1755846    0.1335135 -34.49 0.0002839656    1.050    0.047
       383  -9.8003     77.8778    248.2648   1.2115895966e+02   1.4939500013e+01    0.2061391    0.1210088  86.67 0.0009441627    1.812    0.448
       384 -11.1218    139.8595    247.0710   1.1034411546e+02   6.0509741780e+00     0.213622    0.1687651  57.05 0.0009037938    1.155    0.134
       385  -9.7640     10.4222     22.5011   1.0268073597e+02   6.9733989974e+01    0.1843665    0.1065665  16.61 0.0005724709    1.999    0.500
       386 -10.1829    163.5370     29.9943   5.5501948787e+01   4.0695752089e+01     0.212561    0.1457933 -24.98 0.0004070258    1.527    0.345
       387 -10.4917    221.0598     28.8250   4.7010488923e+01   2.6046119901e+01    0.2344721    0.1752024 -64.67   0.00124495    1.323    0.244
       388 -10.0926    181.4962     28.4812   5.2091800360e+01   3.6199044310e+01    0.2982883    0.1458501 -25.17  0.001209483    2.168    0.539
       389 -10.4345     71.2504     28.9077   7.9024441779e+01   6.1515838425e+01    0.3225859    0.1896059  45.94  0.001631522    1.943    0.485
       390 -10.9368     49.0934     27.2638   8.6947230900e+01   6.5085216658e+01    0.2977403    0.2518029  84.76  0.001319326    2.298    0.565
       391  -9.8482     45.5132     24.4943   8.7247374717e+01   6.5997496794e+01    0.2060773    0.1553333 -32.48  0.000611526    1.196    0.164
       392 -10.4526    204.9195     26.1464   4.8195278764e+01   3.0423200705e+01    0.3574268    0.2118047 -22.76  0.001450864    1.841    0.457
       393 -10.6940     97.1081    246.0327   1.1771166811e+02   1.2638446205e+01     0.293439    0.1516939 -61.96  0.001766534    2.270    0.559
       394  -9.9750    210.6142    246.8373   9.7882590113e+01  -5.0512271262e+00    0.2123433    0.1388037  45.14 0.0008541308    1.502    0.334
       395  -9.2398    243.2453     24.9778   4.3748032422e+01   2.1208648359e+01    0.1685968    0.1039894 -33.70 0.0004153029    1.517    0.341
       396 -10.5722    153.4925     23.2014   5.5003525426e+01   4.4100404303e+01    0.2690631    0.2106007  42.38 0.0006060437    1.239    0.193
       397  -9.1697    202.2835     23.2983   4.7720791522e+01   3.1433333007e+01    0.1379853    0.1053283  34.26 0.0001826331    1.547    0.353
       398  -9.4831    188.3041     23.3189   4.9546213875e+01   3.5038051249e+01    0.1467964    0.1049917  33.84 0.0002384532    1.629    0.386
       399 -11.4702    176.4054     21.8992   5.0811994736e+01   3.8301186965e+01    0.4222277    0.2352167  39.76  0.001384519    2.039    0.510
       400 -10.7285    207.0236    245.9674   9.8375275032e+01  -4.3989262672e+00    0.1980077      0.15804 -17.88 0.0008692935    1.437    0.304
       401 -10.1769    169.7867     23.1739   5.2232983713e+01   3.9882643331e+01    0.2096883    0.1903998 -73.36 0.0004018859    1.143    0.125
       402 -12.0289    116.9139     22.5742   6.2510538062e+01   5.3160724972e+01    0.2468792    0.2091018 -11.13 0.0001661797    1.173    0.148
       403  -9.9343     62.5816     23.1375   7.9703035979e+01   6.3784190764e+01    0.2032587    0.1437994  23.92 0.0009694772    1.392    0.282
       404 -10.9514    131.8266     21.3476   5.8607567416e+01   4.9753648724e+01    0.3239387    0.2548498 -89.00 0.0007617311    1.604    0.377
       405 -10.4813     45.9150    245.6325   1.2620022760e+02   1.9401451542e+01     0.254506    0.1195267  73.00  0.001543067    1.984    0.496
       406  -9.6962     93.3159     19.6793   6.7690597627e+01   5.8664807339e+01    0.3276429    0.1898187 -41.85  0.001555961    2.052    0.513
       407 -10.6992     37.9574     21.4133   8.9186337019e+01   6.7411964772e+01    0.4210703    0.1816611  33.10  0.002101716    2.565    0.610
       408 -10.0700     27.5341     21.0591   9.3830118016e+01   6.8582180561e+01    0.2895803    0.1480257 -24.59  0.001335274    1.951    0.487
       409  -9.4841     29.9869     16.9853   9.0854320509e+01   6.9004182335e+01    0.1733985    0.1277468 -21.43 0.0004458294    1.051    0.049
       410  -9.6194    106.2189    244.8094   1.1601895350e+02   1.1513240102e+01     0.142583    0.1190403  42.70 0.0004513968    1.284    0.221
       411 -10.3234    225.7457     21.4043   4.4572242190e+01   2.5788136423e+01    0.1869117    0.1189855  60.81 0.0007562987    1.586    0.370
       412 -10.1938    122.2078     20.7994   6.0544379999e+01   5.2130536894e+01    0.2868504    0.1975511  64.31 0.0008722103    1.552    0.356
       413  -9.8568    101.8072     19.6239   6.5234678813e+01   5.6887216118e+01    0.2840319    0.1457443 -25.39  0.001289597    1.936    0.484
       414  -9.7119    190.1261     20.3133   4.8408767423e+01   3.4908081221e+01    0.1974063    0.1698774  78.74  0.000275999    1.104    0.095
       415  -9.8915    140.5076     20.5429   5.6521044961e+01   4.7695771930e+01    0.1420965    0.1336215  45.26 6.090005e-05    1.029    0.028
       416 -10.6034    219.5080     19.5011   4.4724757347e+01   2.7537910026e+01    0.1374328    0.1238645 -72.16 -7.647873e-05    1.005    0.005
       417 -11.5904     73.4021    244.1921   1.2159253863e+02   1.6204894918e+01    0.1926725    0.1321303  69.88 0.0003003041    1.192    0.161
       418 -10.0298     65.4505     19.0996   7.6760801511e+01   6.3899147736e+01    0.1874222    0.1123014 -25.94 0.0003895418    1.514    0.339
       419  -9.5690     61.5143     18.0052   7.7743720514e+01   6.4685543966e+01    0.2043989    0.1477414   2.84  0.000362943    1.294    0.227
       420 -10.1451     46.5630     17.7961   8.3737113691e+01   6.6901431301e+01    0.2684158    0.2211521  72.40  0.001559669    2.530    0.605
       421  -9.5704    166.3228     17.3457   5.0889246646e+01   4.1429682022e+01    0.1542635    0.1002248  33.68 0.0007049962    1.737    0.424
       422  -9.5491    157.5780     17.5070   5.2349592181e+01   4.3678478715e+01     0.236614      0.13339  64.36 8.042729e-05    1.661    0.398
       423  -9.3045    160.5491     15.5222   5.1197610722e+01   4.3119443201e+01    0.1416161    0.1319127  56.82 0.0001335974    1.010    0.010
       424 -10.2568     80.9362     17.4522   7.0564741113e+01   6.1377874819e+01    0.1865119     0.172006  64.13 0.0006369194    1.473    0.321
       425 -11.8977     76.1757    242.1287   1.2096156591e+02   1.6180385793e+01    0.2718033     0.187444  69.76 0.0005420939    1.198    0.165
       426 -10.8209    145.8117    242.8939   1.0879662232e+02   5.7242383530e+00    0.1999663    0.1578936  39.05 0.0004206711    1.120    0.107
       427  -9.8950     23.3062     16.5452   9.3874161607e+01   6.9737534708e+01    0.1514205   0.09822831   1.32 0.0009496008    1.590    0.371
       428 -10.8527     91.7761    242.3261   1.1829962372e+02   1.3998891247e+01    0.2153815    0.1505087  60.22 0.0004295194    1.122    0.109
       429  -9.0854     62.4393    242.9613   1.2333270185e+02   1.7830793307e+01    0.1504337   0.07034298  77.14 0.0008057993    2.435    0.589
       430 -10.0044     55.5743    241.8735   1.2439246889e+02   1.8872698973e+01    0.2612968    0.1249675  85.62  0.001248798    2.261    0.558
       431  -9.6942     88.9788     13.7819   6.6374620601e+01   6.0243219059e+01    0.1809358     0.151963  28.38 0.0002767895    1.096    0.088
       432 -10.6840    190.9789    240.6812   1.0042414443e+02  -1.2286920318e+00    0.2628187    0.1804973 -49.29  0.001550399    2.012    0.503
       433 -10.2615    110.7389    241.7605   1.1492432102e+02   1.1329643986e+01    0.2032699    0.1470902  62.84 0.0007561534    1.201    0.167
       434 -10.7406    179.9282     13.5206   4.7720597669e+01   3.8290000212e+01    0.2173327    0.1301085  67.98 0.0005960477    1.551    0.355
       435 -10.7241    137.8186    240.5628   1.0995521909e+02   7.3396174208e+00    0.1637027    0.1380583 -80.55 0.0005935816    1.430    0.301
       436 -11.1399    134.0650    240.9723   1.1067789689e+02   7.8693891110e+00    0.1756044    0.1443729  49.21 0.0004392986    1.050    0.047
       437 -11.3923    116.0124    249.4462   1.1477113967e+02   9.3409729862e+00    0.3435108    0.2064494  48.82  0.002200363    1.278    0.217
       438 -10.9445    119.9190    238.9209   1.1299074682e+02   1.0390943066e+01    0.3358996    0.1965972 -55.05  0.001919187    2.088    0.521
       439  -9.6485    241.7395    237.5739   9.1163843952e+01  -8.6870208814e+00    0.2341588   0.09254563  44.54   0.00112983    2.616    0.618
       440 -10.7733     96.1431    238.4412   1.1717954688e+02   1.4018283871e+01    0.3454584    0.1825117  58.20  0.002005942    1.662    0.398
       441 -10.0635     93.7284    234.0201   1.1718937536e+02   1.5112146488e+01     0.158273    0.1249845  77.80 0.0005728229    1.175    0.149
       442 -10.3902    167.8768    238.5529   1.0426950727e+02   2.7929159906e+00    0.1901433    0.1757015 -83.54 0.0007043668    1.400    0.286
       443 -11.1315    144.5427    237.9786   1.0842836323e+02   6.6581038889e+00    0.2540481    0.1690875  38.22 0.0003024277    1.292    0.226
       444 -10.5151    246.5591    239.6503   9.0696004835e+01  -9.6007614346e+00    0.1885865    0.1502671   3.55  0.001039606    1.179    0.152
       445  -9.5068     63.4110    238.7977   1.2286807588e+02   1.8415606517e+01    0.1662744    0.1079643  46.74 0.0006283639    1.369    0.270
       446  -9.8708     83.8210    237.9115   1.1929353219e+02   1.5850163820e+01    0.2355787    0.1037986  58.83  0.001234581    2.114    0.527
       447 -10.0408    229.9961     16.0526   4.2797102601e+01   2.5374970564e+01    0.2201135    0.1344944 -59.87 0.0005646257    1.607    0.378
       448 -10.1606    101.8114    235.3153   1.1586788779e+02   1.3713343944e+01    0.3187045    0.2380093 -31.27   0.00196535    2.370    0.578
       449  -9.4919    106.0015    235.0690   1.1508959034e+02   1.3131851008e+01    0.1646477    0.1387129  47.85 0.0003531049    1.201    0.167
       450  -9.9326     43.4745    236.0980   1.2600805059e+02   2.1319423592e+01    0.1824245    0.1498337  87.47  0.001263079    1.298    0.230
       451  -9.1373    160.5007    236.4557   1.0532859389e+02   4.2952414533e+00    0.1222138   0.09742326  41.70 0.0001706849    1.006    0.006
       452  -9.5983     30.5265    236.5090   1.2813476573e+02   2.2710409593e+01    0.1057737   0.07369708  70.18 8.662248e-05    1.002    0.002
       453 -10.3405    249.8801    235.1649   8.9417680582e+01  -9.6071444819e+00    0.1619085    0.1307994  18.12 0.0004799184    1.201    0.167
       454  -9.4966    156.7757    233.6861   1.0564334148e+02   5.3127764838e+00    0.1567714   0.09923966 -64.30 0.0005486705    2.291    0.564
       455  -9.9527    230.0735    233.2242   9.2439281588e+01  -6.4662555309e+00    0.1829032     0.123979  19.03   0.00037432    1.237    0.192
       456  -9.7713    197.1237    233.4875   9.8270286036e+01  -1.2931029608e+00    0.1838214     0.098402  40.42 0.0005575552    1.526    0.345
       457 -10.4136    174.4500    232.8747   1.0228941016e+02   2.5132468189e+00    0.2667884    0.1379326  29.50  0.001334511    2.032    0.508
       458 -10.6499    144.5814    232.3302   1.0771515298e+02   7.5164290022e+00    0.4435324    0.1783825  48.11  0.002017303    2.134    0.531
       459 -10.0964     74.9914    231.6227   1.2030134612e+02   1.8143590146e+01    0.2189852    0.1441297 -72.23  0.001032133    1.602    0.376
       460 -11.3118     72.8391    226.1653   1.2021624252e+02   1.9405253425e+01    0.3278297    0.1467776  53.27  0.001235124    1.845    0.458
       461 -10.5253     47.9872    231.5106   1.2495650370e+02   2.1595653068e+01    0.1739786    0.1111361  76.44 2.575955e-05    1.273    0.215
       462 -10.4608     45.6166    228.2210   1.2513574123e+02   2.2465899420e+01    0.2490648    0.1642752 -84.55  0.001102316    1.382    0.276
       463 -10.5870     29.4139    231.3092   1.2802525027e+02   2.3745673478e+01    0.2078172    0.1348297 -85.20 0.0005957947    1.371    0.270
       464  -9.9908     24.2829    231.7926   1.2888196039e+02   2.4208716537e+01    0.2083582   0.08630624  57.80  0.001271339    1.840    0.456
       465  -9.3440    186.6818    230.6641   9.9734187516e+01   7.9586193898e-01    0.1245515   0.08471983  14.21 0.0007048854    1.700    0.412
       466 -10.9224    153.1681    226.6091   1.0536203728e+02   6.9891321363e+00    0.3006371    0.2403379 -52.43 0.0009157681    1.521    0.343
       467 -10.3618    149.5184    225.5071   1.0589889636e+02   7.7720085583e+00    0.2199653    0.1659419  71.16 0.0004895498    1.573    0.364
       468  -9.5030    143.4938    228.5920   1.0743774686e+02   8.2812247655e+00    0.1504285    0.1172929 -79.78 0.0001229662    1.628    0.386
       469 -11.4194    110.7130    227.0424   1.1337171573e+02   1.3775979479e+01    0.3921073    0.2221702  70.92  0.001921408    2.210    0.548
       470  -9.8715    112.5346    223.5630   1.1263879186e+02   1.4095776518e+01    0.1790348     0.151521  62.20 0.0001117984    1.051    0.049
       471  -9.7663     55.4306    228.5217   1.2347292761e+02   2.1226042741e+01     0.110947   0.08366638  69.90 7.947269e-05    1.026    0.025
       472  -9.7829     93.7048    227.0087   1.1650921867e+02   1.6331737546e+01    0.1642225    0.1328335  78.19 0.0006716466    1.144    0.126
       473  -9.5914     23.8632    227.5786   1.2872399261e+02   2.5004154192e+01    0.1429982   0.06773654  54.52 0.0004432429    1.615    0.381
