#   1 NUMBER                 Running object number                                     
#   2 MAG_AUTO               Kron-like elliptical aperture magnitude                    [mag]
#   3 X_IMAGE                Object position along x                                    [pixel]
#   4 Y_IMAGE                Object position along y                                    [pixel]
#   5 X_WORLD                Barycenter position along world x axis                     [deg]
#   6 Y_WORLD                Barycenter position along world y axis                     [deg]
#   7 A_WORLD                Profile RMS along major axis (world units)                 [deg]
#   8 B_WORLD                Profile RMS along minor axis (world units)                 [deg]
#   9 THETA_WORLD            Position angle (CCW/world-x)                               [deg]
#  10 FWHM_WORLD             FWHM assuming a gaussian core                              [deg]
#  11 ELONGATION             A_IMAGE/B_IMAGE                                           
#  12 ELLIPTICITY            1 - B_IMAGE/A_IMAGE                                       
         1 -12.7784    243.3715      9.3500   4.1464273028e+01   2.2825857081e+01     1.850169     1.122782 -59.00  0.009816383    1.531    0.347
         2  -8.6858    138.0695      3.9872   5.2552482148e+01   5.0014541576e+01    0.2026524    0.1838125  41.63 0.0003114523    1.028    0.027
         3  -9.0431     62.2993    248.6717   1.2452307350e+02   1.7227413250e+01    0.2194775    0.1162818  39.37  0.001389446    1.901    0.474
         4 -12.3229    155.1811    242.7525   1.0814870302e+02   4.5006332558e+00     2.337817    0.9505427  38.12   0.01143742    2.139    0.532
         5 -11.4956    204.0119    235.5920   9.8575442746e+01  -2.4877142233e+00     1.885206     0.694161 -25.82    0.0065548    6.208    0.839
         6 -11.4369    182.4141    224.4894   1.0076991386e+02   2.5593334828e+00     2.999968     1.564694 -13.84  0.009219861    7.512    0.867
         7 -13.6967    206.4794    205.4376   9.3270818695e+01   1.0829309233e+00     17.45258      5.15678 -28.13   0.03259921   16.267    0.939
         8 -10.9039    215.4469    222.7413   9.4568148699e+01  -2.7518727648e+00     1.032744    0.5391098  12.78  0.004451655    3.265    0.694
         9 -11.5657    180.2404    240.9268   1.0350098445e+02   6.8812455805e-01     1.411066    0.7767368  10.46  0.005445942    4.945    0.798
        10 -11.5732    191.0429    230.3481   1.0008417191e+02   3.0606486350e-01     1.620554    0.5068887 -34.88  0.006267872    4.705    0.787
        11 -11.6503    210.3625    247.5043   9.9223576566e+01  -4.8890002461e+00    0.7959073    0.5136465  14.64  0.005059177    1.640    0.390
        12 -11.1029    216.5236    231.3884   9.5759018271e+01  -3.9862924137e+00     0.770119    0.4752805 -27.34  0.004711869    1.863    0.463
        13 -12.7804    224.4820    177.7121   8.4775642131e+01   1.8600561512e+00     5.871967     1.620097 -27.29   0.01225363   10.577    0.905
        14 -12.1973    233.1824    245.6664   9.5137154228e+01  -8.1360497966e+00     1.108245    0.5840237  32.29  0.006785726    1.476    0.323
        15 -11.8290    225.0245    244.2880   9.6285935678e+01  -6.7727501170e+00      1.15724    0.4401225 -31.70  0.005870974    3.159    0.683
        16 -12.8466    243.2778    149.2571   7.5458507299e+01   2.5988225925e+00     2.708214     1.246175 -14.77  0.008962392    3.996    0.750
        17 -12.2239    235.0340    170.7727   8.1477911686e+01   9.3906180137e-01     2.386259     1.063699 -13.55   0.00677254    5.957    0.832
        18 -11.4099    230.4774    234.6719   9.3891035746e+01  -6.5491202403e+00     0.531226    0.3799771 -31.37  0.003604363    1.679    0.404
        19 -12.9116    228.2064    198.8810   8.8174273331e+01  -1.7942461827e+00     2.258574     1.249903  -7.73   0.01035016    2.617    0.618
        20 -12.4068    230.5062    214.7941   9.0605772645e+01  -4.2248333890e+00     1.504562       0.7372  -7.01  0.005815468    4.214    0.763
        21 -11.6780    241.2842    177.9867   8.1855971526e+01  -1.2119609290e+00    0.7653292    0.3664515 -29.36  0.002468248    2.078    0.519
        22 -13.6456    246.5523    161.6196   7.7576249880e+01   1.6549441161e-01     7.779421    0.7145761 -34.33   0.01596925   10.085    0.901
        23 -11.6452    236.0777    227.5055   9.1791692078e+01  -6.6068187462e+00    0.5709725    0.4271005  21.56  0.003081625    1.036    0.035
        24 -13.7277    242.4566    194.1995   8.4815989626e+01  -3.5901608332e+00     2.969852     1.268181 -31.20   0.01396736    2.379    0.580
        25 -11.9349    248.6779    201.9813   8.5212723410e+01  -5.5847446185e+00     0.802145    0.3650807 -15.43  0.003468557    3.071    0.674
        26 -11.6974    238.5117    217.9650   8.9777638262e+01  -5.8867732026e+00    0.5658308    0.3626344 -13.81   0.00201982    1.622    0.383
        27 -12.8498    245.6382    238.8446   9.2032863265e+01  -9.2568914123e+00      1.09733    0.6276659 -37.68  0.006755415    2.312    0.568
        28 -11.6643    249.3506    232.8847   9.0466635491e+01  -9.1817589670e+00     0.399407    0.2513673 -21.38  0.001571554    1.646    0.392
        29 -12.1950    247.1897    225.4926   8.9599104727e+01  -8.0734713226e+00    0.6267273    0.3940411  -3.65  0.003201044    1.619    0.382
        30 -12.5200    247.8977    214.7025   8.7630275700e+01  -6.9707886678e+00    0.6195595    0.3688401 -18.41  0.002451692    1.704    0.413
        31 -11.1620    192.3269    245.4973   1.0202248844e+02  -1.8300110317e+00    0.5773494    0.3714415  25.90  0.002253887    1.460    0.315
        32  -8.2059    186.4957    245.5039   1.0303060501e+02  -9.0253119587e-01    0.1325548    0.1072821  -5.01 0.0006937967    1.474    0.322
        33  -8.1759    183.9440    250.0595   1.0407600657e+02  -1.0608114462e+00    0.1688123    0.1157774  19.63 0.0004432711    1.579    0.367
        34 -10.1075    124.9461    247.5366   1.1396388180e+02   8.5686481070e+00    0.3394822      0.22704  34.84   0.00219854    1.540    0.351
        35  -7.5993     74.3074    250.6504   1.2272822539e+02   1.5352448389e+01    0.1152853   0.06013802  66.57  0.000603446    1.708    0.414
        36  -8.5438     48.5170    250.4623   1.2681173038e+02   1.8634919934e+01    0.2117714   0.07949461  42.53  0.001220873    2.212    0.548
        37  -9.5752    148.2909    221.3953   1.0664972795e+02   8.8461417634e+00    0.3515221    0.2542993 -29.06   0.00202004    1.965    0.491
        38  -9.9460    132.9387    245.6246   1.1237738771e+02   7.6168957706e+00    0.3301621    0.2612912  16.10  0.001683579    1.781    0.438
        39  -9.6704    145.4531    231.1046   1.0844241798e+02   7.7984423312e+00     0.347238    0.2378207  26.67  0.001467503    1.704    0.413
        40  -9.6498    135.4072    239.0503   1.1120750458e+02   8.2113394271e+00    0.3351703    0.2428957  29.00  0.001809838    1.571    0.363
        41  -9.8581    139.9400    234.3931   1.0984770172e+02   8.1938749952e+00    0.3728549    0.2442139  26.61   0.00158567    1.881    0.468
        42 -10.2373    113.8288    244.2460   1.1554797023e+02   1.0758305225e+01    0.3365116    0.2461952  16.68   0.00178638    2.320    0.569
        43  -9.9713    118.8066    238.9510   1.1413652546e+02   1.0827878292e+01    0.3608677    0.1786469  37.68   0.00194557    1.927    0.481
        44  -8.3158     34.0352    246.4952   1.2882732941e+02   2.0964413512e+01    0.1496176   0.07689092  47.44  0.001030733    1.584    0.369
        45  -9.1788     81.7604    243.6662   1.2096138992e+02   1.5475492086e+01    0.2612416    0.1253271  33.62  0.001363863    2.682    0.627
        46  -9.8609    104.7854    241.4623   1.1684071028e+02   1.2547354620e+01    0.2762514    0.2401036 -11.21  0.001786686    1.977    0.494
        47 -10.5977    133.4912    230.6716   1.1056960043e+02   9.8187920112e+00    0.3854808    0.3105416  46.14  0.002525182    1.094    0.086
        48 -10.4277    126.0622    240.1127   1.1298099882e+02   9.5214751299e+00    0.3323436    0.2412446  25.32   0.00184453    1.787    0.440
        49  -9.6008    129.4933    235.4491   1.1185082986e+02   9.7061664149e+00    0.2659723    0.1968588 -38.86   0.00146587    1.928    0.481
        50  -8.9097     69.5960    239.3560   1.2266075694e+02   1.7825859021e+01    0.2101393    0.1141598  43.84 0.0009798605    1.611    0.379
        51  -8.9929    112.5073    237.4642   1.1509338183e+02   1.2029378337e+01     0.216313    0.1713656   3.07  0.001006031    2.301    0.565
        52  -8.5091     90.7326    236.1982   1.1878913953e+02   1.5454488172e+01    0.1933537    0.1301821 -43.04  0.001175646    2.491    0.599
        53  -8.9054     94.8691    243.8912   1.1876661867e+02   1.3601647708e+01     0.255634   0.09582721  45.18  0.001325362    2.053    0.513
        54  -9.0175    179.4576    215.7962   9.9991833923e+01   4.3290761322e+00    0.2750011    0.2136973   1.17   0.00111712    1.569    0.363
        55  -9.4094    170.8732    233.2553   1.0411858519e+02   3.2667445545e+00    0.3189001    0.2416237  -0.21  0.001846002    1.778    0.437
        56  -9.0726    174.5220    227.3468   1.0262790266e+02   3.4922379094e+00      0.30427    0.2156126  13.96  0.001293293    1.761    0.432
        57  -9.0801    174.9286    221.3044   1.0167042981e+02   4.2993323191e+00    0.3157223    0.2168619  19.10  0.001295579    1.721    0.419
        58  -8.6307    169.3943    227.8379   1.0363336852e+02   4.2878807932e+00    0.2185104    0.1218436 -37.11 0.0007732015    2.319    0.569
        59  -8.7356    170.4181    223.7752   1.0286581526e+02   4.7085630831e+00    0.2172592    0.1684593   7.56 0.0007940333    1.604    0.376
        60  -8.5085     53.0020    240.0000   1.2544544897e+02   1.9826125045e+01    0.1693311   0.04895233  40.52 0.0008066955    2.972    0.664
        61  -9.9211    123.2990    231.0657   1.1246927979e+02   1.1387268265e+01    0.3211769     0.245982 -23.98  0.001969687    2.221    0.550
        62  -8.4837    154.2942    218.6161   1.0513737811e+02   8.2653856237e+00    0.2425497    0.1526474 -43.77  0.001155281    1.942    0.485
        63  -9.0453    158.2491    229.4086   1.0588591368e+02   5.9307406879e+00    0.2780873    0.2115622  -0.55  0.001519891    1.915    0.478
        64  -8.6712    153.1352    232.7743   1.0725924120e+02   6.2791103618e+00    0.2399228     0.191366  37.60 0.0009748321    1.138    0.121
        65  -9.5381    163.5647    225.3382   1.0435219737e+02   5.6433219914e+00    0.4171914    0.3695718  44.89  0.002347581    1.090    0.082
        66  -8.6629    165.7637    220.4107   1.0324199830e+02   6.0116214634e+00    0.2285066    0.1666346  31.89 0.0009673834    1.288    0.223
        67  -8.8163    152.6777    227.8635   1.0670106145e+02   7.0963523401e+00    0.2837664    0.2324184  -6.34  0.001464795    1.692    0.409
        68  -8.8644    155.3850    223.7940   1.0565237088e+02   7.2664272565e+00    0.2227543     0.204249 -37.12 0.0008612759    1.343    0.255
        69  -8.7956    138.9479    227.0347   1.0912291367e+02   9.5067084949e+00    0.2748292    0.2012659 -19.71  0.001499331    2.301    0.565
        70  -8.3913    100.6934    230.4167   1.1647919349e+02   1.4974546767e+01    0.1758879    0.1451609 -42.83  0.001203905    1.794    0.443
        71  -9.4307    113.9815    228.8642   1.1391656797e+02   1.3212085960e+01    0.2359999    0.1519586 -69.28  0.001448115    1.805    0.446
        72 -10.3065    129.5982    223.4759   1.1041405392e+02   1.1619783433e+01    0.3066347    0.2510875  28.39  0.001945333    1.425    0.298
        73  -9.1541    128.8720    218.8654   1.0997652159e+02   1.2512864327e+01    0.2217392    0.1668139  25.43  0.001244469    1.652    0.395
        74  -9.7025    135.7964    223.0626   1.0920640563e+02   1.0669025664e+01    0.1986843    0.1749205 -18.94   0.00132979    1.569    0.363
        75  -9.2701    140.6615    220.7875   1.0800103307e+02   1.0230871257e+01    0.2695942    0.1945316  22.12  0.001415364    1.784    0.439
        76  -9.1610    180.5291    221.4919   1.0066521076e+02   3.3090845529e+00    0.2901821    0.2037829 -22.61  0.001303681    1.832    0.454
        77  -8.7027    114.7737    221.8223   1.1298032398e+02   1.4282974382e+01    0.1819558    0.1351681  -4.85  0.000956554    2.852    0.649
        78  -9.3136    170.6918    215.3780   1.0157139059e+02   5.9258267645e+00    0.3173283    0.2086917 -32.40  0.001348525    1.922    0.480
        79  -8.6166    136.5192    217.5170   1.0835347212e+02   1.1468288593e+01    0.2203584    0.1069224  34.44  0.001021726    2.225    0.551
        80  -9.0040    158.8066    217.7829   1.0416768327e+02   7.6197962416e+00    0.2813952    0.2099523   5.94  0.001288848    1.907    0.476
        81  -8.6422    165.1148    214.8694   1.0254809772e+02   6.9808276184e+00    0.2622456    0.2181243   1.72  0.001528919    1.476    0.322
        82  -9.1572    143.7633    226.3631   1.0814829028e+02   8.8164593629e+00    0.2361973    0.1777288 -47.76  0.001292832    1.645    0.392
        83  -9.4475    143.5267    214.4578   1.0660368021e+02   1.0792398301e+01    0.2609254    0.1881662   4.56  0.001366631    2.363    0.577
        84  -8.4204    120.5200    224.9750   1.1227839643e+02   1.2834378013e+01    0.1476019    0.1033334 -29.61 0.0008099186    2.517    0.603
        85  -9.0907    154.5920    212.7970   1.0424705759e+02   9.1527525634e+00    0.2644656    0.2076446  -7.68  0.001445566    1.807    0.446
        86  -8.0701    138.4520    213.4867   1.0744426621e+02   1.1822868916e+01    0.1263756    0.1075165  48.59 0.0002632217    1.051    0.048
        87  -9.4207    176.9993    209.3647   9.9441989255e+01   5.7390019242e+00      0.36347    0.2504332 -29.17  0.002050065    1.784    0.440
        88  -8.1629    124.3642    211.3216   1.0987539718e+02   1.4567928186e+01    0.1202122   0.09795536  11.13 0.0007040169    1.784    0.439
        89  -8.4067    167.7251    208.7185   1.0111098705e+02   7.4943332441e+00      0.34234    0.1660476 -56.60  0.001510485    3.000    0.667
        90  -8.9633    161.2726    209.1558   1.0241969251e+02   8.5713989950e+00    0.2782703    0.2140036  -3.82   0.00158377    1.814    0.449
        91  -7.8600    140.3154    210.3076   1.0664524804e+02   1.2047744616e+01    0.1206712   0.09750492  14.15 0.0006346478    1.629    0.386
        92  -8.0804    171.4001    206.7459   1.0009380591e+02   7.1521485882e+00    0.2050479    0.1576111 -14.74 0.0008515624    1.674    0.403
        93  -8.4632    173.0354    202.6905   9.9122361519e+01   7.5082179774e+00    0.2098569    0.1810412 -12.99 0.0008940015    1.342    0.255
        94  -8.9822    146.2010    207.2299   1.0505842621e+02   1.1554112450e+01    0.2339275    0.1786091  10.54  0.001114203    1.849    0.459
        95  -8.4631    183.1317    205.7913   9.7695717593e+01   5.1927564397e+00    0.2603264    0.1724227   1.60  0.001026686    2.309    0.567
        96  -8.9555    186.8918    202.2837   9.6391952962e+01   5.0544709015e+00    0.2486109    0.2086075  17.67 0.0009342615    1.174    0.149
        97  -8.5289    156.3606    205.6977   1.0284413253e+02   1.0017560390e+01     0.222254    0.1611037 -45.18  0.001282798    1.613    0.380
        98  -9.2633    139.4074    204.2697   1.0596325623e+02   1.3258392206e+01     0.258667    0.1581463 -37.07  0.001304902    2.260    0.557
        99  -8.7443    178.9974    202.5947   9.7955528913e+01   6.4398109243e+00    0.2335346    0.1809312 -12.18  0.001199624    1.587    0.370
       100  -8.4676    192.9984    201.2021   9.5047382624e+01   4.1126783569e+00    0.2116296    0.1827186 -12.00  0.001000006    1.246    0.197
       101  -8.6899    165.4731    200.3646   1.0021761498e+02   9.2680479918e+00    0.2907845     0.183478  15.25  0.001316254    2.535    0.605
       102  -7.9377    126.3260    206.3040   1.0882933122e+02   1.5138578908e+01    0.1188635   0.09963931  12.16  0.000453637    1.644    0.392
       103  -9.0651    199.2471    189.5110   9.1762924381e+01   4.7627024916e+00    0.3019371    0.2125148  10.23  0.001440642    1.677    0.404
       104  -8.4702    191.2115    196.7765   9.4613257196e+01   5.1194494003e+00      0.24139    0.1659917 -16.92 0.0007025213    1.819    0.450
       105  -8.7342    194.1925    193.1197   9.3389628505e+01   5.1396655099e+00     0.269921     0.194626  -2.75 0.0009829518    1.718    0.418
       106  -8.6199    176.4754    196.4114   9.7400332061e+01   7.9004567939e+00    0.2290681     0.187511 -36.00  0.001120261    1.381    0.276
       107  -7.8468    162.2618    197.3777   1.0036412790e+02   1.0361272639e+01    0.1285674    0.1013523   0.86 0.0004620085    1.670    0.401
       108  -9.0244    184.4548    194.9249   9.5587981774e+01   6.6617903239e+00    0.3224171    0.2274669 -11.18  0.001619713    1.876    0.467
       109  -8.2351    170.0905    196.1851   9.8616326700e+01   9.1202626110e+00    0.2025381    0.1689963  20.45 0.0005789076    1.256    0.204
       110  -8.3603    149.6516    196.6829   1.0277181843e+02   1.2783813158e+01    0.1320239    0.1022243  11.72 0.0007048024    1.729    0.422
       111  -8.0547    140.6697    195.6895   1.0443040695e+02   1.4579713001e+01     0.127989    0.1033268  10.41 0.0007042105    1.669    0.401
       112  -8.2232    190.3165    190.3761   9.3637815275e+01   6.2980432784e+00    0.2276338    0.1332045 -26.63 0.0008527328    2.136    0.532
       113  -8.8558    193.3541    186.7152   9.2374922395e+01   6.3141353544e+00    0.3368551    0.2182259   6.58  0.001362412    2.257    0.557
       114  -8.2545    161.6845    190.9556   9.9408565194e+01   1.1583437757e+01     0.203968    0.1674929 -19.81  0.001162849    1.492    0.330
       115  -8.6279    185.7050    189.1444   9.4311226687e+01   7.3664898413e+00    0.2412644    0.1800766 -11.64  0.001146717    1.639    0.390
       116  -8.5571    172.4776    189.4972   9.6989360400e+01   9.8082194853e+00    0.2386289    0.1928454 -24.24    0.0010946    1.435    0.303
       117  -8.4361    179.1224    188.3721   9.5467423309e+01   8.7412220930e+00    0.2171909    0.1852622  -9.02 0.0006302219    1.313    0.238
       118  -7.4615    199.3656    185.2626   9.0943523935e+01   5.4085490484e+00    0.1405206   0.09614288  18.13 0.0004242478    1.644    0.392
       119  -8.1300    166.4232    184.8006   9.7377353898e+01   1.1777837292e+01    0.1842151    0.1301887 -28.42 0.0009391069    1.740    0.425
       120  -7.9259    189.5604    183.9423   9.2594832931e+01   7.4891756819e+00    0.1802234    0.1158329 -10.09 0.0007304737    2.325    0.570
       121  -9.5463    203.4185    181.9996   8.9543669880e+01   5.1570523991e+00    0.3175407    0.2502645 -16.41  0.001028934    1.341    0.254
       122  -9.2033    205.3440    175.5527   8.7908777342e+01   5.8163938677e+00    0.3444281    0.2334194 -17.18  0.001162824    1.708    0.415
       123  -8.3154    197.5730    181.2486   9.0521603225e+01   6.3934823049e+00    0.2222012    0.1649359 -22.66  0.000773069    1.472    0.320
       124  -8.6661    183.8307    181.4284   9.3253064908e+01   9.0139657295e+00    0.2616031    0.1962572 -24.56  0.001403384    1.515    0.340
       125  -8.1131    176.5066    179.9261   9.4439883747e+01   1.0694855943e+01    0.1966231    0.1384267 -38.80 0.0007152571    1.556    0.357
       126  -8.6356    190.9758    177.5575   9.1095781420e+01   8.2798688693e+00      0.25953    0.1896953 -14.06  0.001102087    1.636    0.389
       127  -8.7936    197.4333    175.1894   8.9363889728e+01   7.4138183298e+00    0.2897384    0.2388786  20.24  0.001088126    1.174    0.148
       128  -8.3040    200.8782    170.6828   8.7788139005e+01   7.4850972386e+00    0.3262483    0.1744771 -19.88 0.0009731666    2.811    0.644
       129  -7.5306    169.3229    176.3616   9.5237439940e+01   1.2734006520e+01    0.1447299    0.1084271   5.56 0.0007041991    1.780    0.438
       130  -9.1642    210.5772    174.1167   8.6626188668e+01   5.0360976853e+00    0.2884268     0.230827 -21.70 0.0009656259    1.269    0.212
       131  -8.4043    182.8726    174.2539   9.2068299007e+01   1.0439621990e+01    0.2562947    0.1796446  -4.71  0.001084517    1.994    0.498
       132  -8.5520    192.8419    171.7439   8.9578570142e+01   8.8973806649e+00    0.2342115     0.186624 -13.46 0.0009892849    1.380    0.275
       133  -7.6201    187.4763    171.4655   9.0591834328e+01   1.0012116338e+01    0.1438398    0.1267164  19.35 0.0001719224    1.101    0.092
       134  -8.6279    212.1112    168.0772   8.5101239441e+01   5.7027048710e+00    0.2320755    0.1888362 -16.60 0.0006911765    1.230    0.187
       135  -8.8937    205.2549    167.6683   8.6323515050e+01   7.1189831918e+00    0.3024125    0.2230263 -10.59 0.0009134046    1.527    0.345
       136  -8.6464    191.9540    163.6918   8.8109121727e+01   1.0468240607e+01    0.3137878     0.202013 -18.98  0.001417288    1.988    0.497
       137  -8.4424    199.7583    163.1217   8.6443314247e+01   8.9831837542e+00    0.2560855    0.1884113 -10.74  0.001282021    1.579    0.366
       138  -7.7477    185.3163    163.3598   8.9380499809e+01   1.1880580763e+01    0.1506051    0.1102112   5.92 0.0005786741    1.757    0.431
       139  -8.9748    205.6438    159.8382   8.4600935176e+01   8.3484866761e+00     0.320707    0.2243846  -3.47  0.001236104    1.786    0.440
       140  -8.4215    197.2651    155.4206   8.5289131012e+01   1.0829385351e+01    0.3157501     0.206623  -7.38  0.001213848    2.186    0.543
       141  -8.4921    218.7617    143.0785   7.8404672425e+01   8.4705855611e+00    0.3011343    0.1692474 -21.77 0.0009526928    2.086    0.521
       142  -8.9042    215.1682    147.6579   8.0111065528e+01   8.4485966261e+00    0.3785138     0.280225  -1.73  0.001503185    1.541    0.351
       143  -7.7096    211.5307    154.4759   8.2311456439e+01   8.0525077245e+00    0.3457431    0.2166036  18.93  0.001514822    2.061    0.515
       144  -8.2076    212.0000    150.9998   8.1455468969e+01   8.5403003356e+00    0.2932681    0.1487005 -30.94 0.0008352915    2.068    0.516
       145  -7.9401    188.0000    154.0093   8.6848144021e+01   1.3016840990e+01    0.2329385   0.08330244 -40.35  0.000795304    2.893    0.654
       146  -8.6343    206.1188    152.7728   8.2974165537e+01   9.4533064333e+00    0.2682542    0.1800533  -4.53 0.0007797151    1.988    0.497
       147  -7.6540    202.3459    150.3203   8.3165049609e+01   1.0663639209e+01    0.1542273    0.1099746  10.84 0.0006548564    1.731    0.422
       148  -8.6329    208.2879    143.4877   8.0470239250e+01   1.0600661788e+01    0.3110121    0.2261942 -10.76  0.001181577    1.578    0.366
       149  -8.1924    214.2999    141.1048   7.8782359006e+01   9.7384410523e+00    0.2795859    0.1287202 -28.99  0.001056529    2.406    0.584
       150  -8.7580    224.4666    138.7119   7.6361709291e+01   8.0102853578e+00    0.3017234    0.1859388 -24.59 0.0008655755    1.670    0.401
       151  -8.9747    218.6656    136.9493   7.7008280707e+01   9.5206089919e+00    0.3584206    0.2380113 -14.47    0.0016419    1.752    0.429
       152  -8.1058    208.5879    136.7230   7.8845479254e+01   1.1715063765e+01    0.2898113    0.1413879 -31.66  0.001138141    2.134    0.531
       153  -8.6404    212.2510    129.9005   7.6533250727e+01   1.2109769838e+01    0.5707621    0.1591364 -36.26  0.001732447    3.505    0.715
       154  -8.0752    205.6570    130.3101   7.7885029262e+01   1.3487259583e+01    0.1491247    0.1207196 -78.30 0.0007045108    1.698    0.411
       155  -8.2279    192.3250    128.5340   8.0091284315e+01   1.6786351906e+01     0.272011    0.1388601 -38.17  0.001072677    1.949    0.487
       156  -8.1804    217.5882    124.2279   7.4177598307e+01   1.1920243866e+01    0.2161307    0.1374228 -21.91  0.000949864    1.709    0.415
       157 -10.3516    212.7815    120.5513   7.4159714333e+01   1.3622656022e+01    0.6431324    0.2287896 -29.26  0.001970803    3.473    0.712
       158  -7.8691    188.3675    123.1620   7.9577002913e+01   1.8692140805e+01     0.224461      0.13856 -47.74 0.0005314414    1.722    0.419
       159  -8.1673    194.2065    120.9840   7.7847364848e+01   1.7762256991e+01    0.2125452    0.1204547 -37.35 0.0008686364    1.740    0.425
       160  -8.4618    203.4690    114.9830   7.4518613862e+01   1.6726746000e+01    0.2346867    0.1464226 -35.97 0.0009902023    1.557    0.358
       161  -8.0087    185.5112    114.5094   7.7973475825e+01   2.0992842476e+01    0.1542526    0.1504332  -6.01  0.000810513    1.005    0.005
       162  -8.6251    194.6124    112.2343   7.5540954059e+01   1.9287002427e+01    0.2188332     0.146025 -26.22 0.0007916752    1.602    0.376
       163  -9.8521    212.9959    110.7037   7.1655160378e+01   1.5291282990e+01    0.2101537    0.2022917   6.02  0.001152937    1.037    0.036
       164  -9.5175    218.7489    108.6501   7.0106079530e+01   1.4330128666e+01     0.277949    0.1760231 -23.38 0.0006586466    1.679    0.404
       165  -8.5658    201.3707    108.7427   7.3320111578e+01   1.8338016417e+01    0.2213863     0.143473 -24.78 0.0006953841    1.669    0.401
       166  -8.4772    189.6786    108.6596   7.5597877511e+01   2.1112971520e+01     0.246852    0.1851118  10.18 0.0008814326    1.714    0.417
       167  -8.4959    183.0000    108.9256   7.7038139955e+01   2.2646111246e+01    0.2610411    0.0880124 -37.96 0.0008004029    2.928    0.659
       168  -9.1923    160.2437    107.6486   8.1678895359e+01   2.8255556150e+01    0.2656898    0.1970377 -15.37 0.0005794568    1.690    0.408
       169  -8.6934    205.3571    104.3111   7.1414654537e+01   1.8191253976e+01    0.2463396    0.1809516  11.20  0.001095496    1.756    0.430
       170  -8.2961    200.6712    102.6707   7.1864711562e+01   1.9594143541e+01    0.1612822    0.1200906  12.67 0.0006724523    1.710    0.415
       171 -10.0983    225.4738     98.0301   6.6257444008e+01   1.4578462185e+01    0.3668067    0.1865377 -27.07  0.001195032    2.056    0.514
       172  -7.7700    209.3521     99.2844   6.9365949002e+01   1.8128126787e+01    0.1572139    0.1169642  18.67 0.0005398626    1.660    0.398
       173  -8.9619    216.5613     98.0058   6.7758173043e+01   1.6648696278e+01    0.2417799    0.1418907 -34.24  0.000954648    1.617    0.381
       174  -8.7504    203.2788     96.5683   6.9754657370e+01   2.0052901266e+01    0.2659754    0.1901697  -8.29 0.0009576403    1.757    0.431
       175  -9.6588    225.1647     92.3500   6.4849810683e+01   1.5585769420e+01    0.2816379    0.1941286  -4.50 0.0009199111    1.903    0.475
       176  -9.1730    219.6215     92.7451   6.5866469035e+01   1.6815413573e+01    0.2210946    0.1293483 -42.52 0.0009433395    1.652    0.395
       177 -10.4868    231.3006     88.3710   6.2854843499e+01   1.4813607936e+01    0.5132244    0.2493631 -23.20  0.001935607    2.420    0.587
       178  -7.9606    210.3363     90.2959   6.6808162835e+01   1.9438306722e+01    0.1562141    0.1176718  18.26 0.0006423361    1.649    0.394
       179  -7.7785    188.6626     91.6725   7.1210432660e+01   2.4485102972e+01      0.16426    0.1223847  15.26 0.0007051784    1.728    0.421
       180  -9.4746    226.0189     86.5298   6.3206045017e+01   1.6334995934e+01    0.2388786    0.1932016 -32.03 0.0006676702    1.163    0.140
       181  -7.7032    198.3196     86.3020   6.7879746749e+01   2.3056241327e+01      0.15784    0.1204832  17.48 0.0006772006    1.626    0.385
       182  -7.8383    104.0089     86.4851   9.0277571895e+01   4.4803179662e+01    0.1859459    0.1305042   8.79  0.000356561    2.115    0.527
       183  -9.8332    230.5256     81.8570   6.1298817600e+01   1.6029995822e+01    0.3361096    0.2293383  10.01  0.001464083    2.135    0.532
       184  -8.6902    195.3397     96.1199   7.1130488622e+01   2.2051751582e+01    0.3119902    0.1468186 -27.12  0.001078254    2.512    0.602
       185  -7.8022    193.3292     81.3570   6.7424532313e+01   2.5151909017e+01    0.1648883    0.1211447  15.53 0.0007044148    1.785    0.440
       186  -8.8931    225.9717     80.0650   6.1527580865e+01   1.7383476416e+01    0.2372903    0.1778935  15.90  0.001059329    1.712    0.416
       187  -9.4533    238.4088     76.2407   5.8709790709e+01   1.5081274345e+01    0.3760833      0.22764  26.31  0.001542508    2.546    0.607
       188  -8.6437    230.6433     76.6769   5.9940494654e+01   1.6815936295e+01    0.1522473    0.1121995  19.08 0.0007045351    1.767    0.434
       189  -7.7279    201.4684     76.5341   6.4595972591e+01   2.3934679929e+01    0.1522984    0.1476718  -5.03  0.000160206    1.062    0.058
       190  -7.8857    211.5433     74.9544   6.2452036582e+01   2.1692119232e+01    0.2065829    0.1336183  -1.27 0.0008063437    2.365    0.577
       191  -8.8204    234.5054     74.4977   5.8817408492e+01   1.6250284363e+01     0.145203    0.1348975 -37.27 5.845053e-05    1.018    0.017
       192  -8.4396    224.0043     74.4985   6.0363413251e+01   1.8732548029e+01    0.2134924     0.114582  36.51  0.000810283    2.518    0.603
       193  -9.5423    239.2681     70.7759   5.7202462864e+01   1.5712770400e+01    0.2370833    0.1859079  68.72   0.00112668    1.398    0.284
       194  -8.6438    230.3070     70.3546   5.8345051934e+01   1.7871578628e+01     0.149219     0.112967  14.31 0.0007042084    1.719    0.418
       195  -9.0223    118.2065     65.4443   7.9650229034e+01   4.6182324123e+01    0.2610894    0.1988548 -35.75 0.0002937309    1.268    0.211
       196  -8.5412    248.8922     63.7162   5.4184895420e+01   1.4562213850e+01    0.2369418     0.187584 -18.66  0.001015338    1.338    0.253
       197  -9.9895    246.4208     59.7762   5.3511154161e+01   1.5687485974e+01    0.6355633    0.1603792  59.58  0.002076942    3.909    0.744
       198  -8.8205    214.3147     55.0279   5.6545903724e+01   2.4082277173e+01    0.3439879    0.1808439 -23.47  0.001098952    2.129    0.530
       199  -7.7468    250.6362     54.7353   5.1765553308e+01   1.5444875608e+01    0.1336302    0.1041746  28.81 0.0006202511    1.645    0.392
       200  -7.3584    162.2948     35.3386   5.9123935485e+01   4.0333436537e+01    0.1556345    0.1108484  25.86 0.0007029413    1.652    0.395
       201  -8.2936     87.7560    249.4337   1.2043150882e+02   1.3721762898e+01    0.1502369   0.08982422  37.95  0.000949486    1.738    0.424
