#   1 NUMBER                 Running object number                                     
#   2 MAG_AUTO               Kron-like elliptical aperture magnitude                    [mag]
#   3 X_IMAGE                Object position along x                                    [pixel]
#   4 Y_IMAGE                Object position along y                                    [pixel]
#   5 X_WORLD                Barycenter position along world x axis                     [deg]
#   6 Y_WORLD                Barycenter position along world y axis                     [deg]
#   7 A_WORLD                Profile RMS along major axis (world units)                 [deg]
#   8 B_WORLD                Profile RMS along minor axis (world units)                 [deg]
#   9 THETA_WORLD            Position angle (CCW/world-x)                               [deg]
#  10 FWHM_WORLD             FWHM assuming a gaussian core                              [deg]
#  11 ELONGATION             A_IMAGE/B_IMAGE                                           
#  12 ELLIPTICITY            1 - B_IMAGE/A_IMAGE                                       
         1 -12.4480    192.7143     29.6132   6.0034283342e+01   3.3275445914e+01      1.11391    0.8649392  35.04  0.004823162    1.353    0.261
         2 -12.2393    202.8609     16.5364   5.4574538088e+01   3.2053441618e+01      1.06684    0.7106718  21.72  0.004925936    1.819    0.450
         3  -9.1160     58.3335      2.6763   8.1512201860e+01   6.7641416041e+01    0.1166566   0.09719832 -54.90 0.0004011503    1.708    0.414
         4 -11.7604    121.0576    248.9168   1.1864832521e+02   1.3091648088e+01    0.6179031    0.2048156  39.63   0.00323455    2.536    0.606
         5 -12.1889    131.9112    246.6933   1.1675275560e+02   1.1862089660e+01     0.799742    0.1754434  44.01  0.003558105    3.199    0.687
         6 -10.2891     69.9821    249.9982   1.2655020928e+02   1.9486045801e+01    0.2149097    0.2063675  61.95 0.0009285201    1.644    0.392
         7  -9.6165     73.5494    249.4888   1.2598414909e+02   1.9132010256e+01    0.2366024     0.155885 -72.23  0.001960938    1.817    0.450
         8  -8.5442     62.8865    250.2298   1.2762115184e+02   2.0280618784e+01     0.151529   0.08430631  60.14  0.000684566    1.291    0.225
         9 -17.4397      7.8381    136.7143   1.3042490902e+02   4.5454250226e+01     16.05903      1.76794 -77.11   0.04640796    7.735    0.871
        10 -10.7605     54.9139    239.5490   1.2823096488e+02   2.2697808702e+01    0.2362953    0.1361654  68.70 0.0008225379    1.381    0.276
        11  -9.2723    147.3983    239.7820   1.1361725585e+02   1.0485770644e+01    0.1197102    0.1012432 -27.79 0.0006877905    1.715    0.417
        12  -9.5673    193.6861    237.7785   1.0600097285e+02   3.7787768357e+00    0.1959276    0.1306241 -41.66  0.001405427    2.074    0.518
        13  -9.2316    101.8502    234.1205   1.2045511401e+02   1.7672287208e+01    0.1566365    0.1054616  63.02 0.0004086659    1.244    0.196
        14 -10.0044     50.8722    232.7431   1.2847771249e+02   2.4153043695e+01    0.1914352    0.1119021  86.38 0.0007336615    1.598    0.374
        15 -11.5746    126.2068    229.5942   1.1604643541e+02   1.4895602371e+01     0.361459    0.2824042  89.03  0.002790495    1.503    0.335
        16 -10.7170    134.8183    229.2104   1.1457853443e+02   1.3688151741e+01    0.3669705    0.1470537 -63.02  0.001795913    4.170    0.760
        17 -10.6596    119.6092    229.6470   1.1714494860e+02   1.5836256930e+01    0.2601646    0.1712633  73.18  0.001799259    1.689    0.408
        18 -11.8793    103.8180    227.7658   1.1959020639e+02   1.8309895470e+01    0.4939279    0.2344322  51.38  0.003071516    1.618    0.382
        19 -11.4527    114.2148    228.2850   1.1791143405e+02   1.6791092731e+01    0.3468378    0.2446001 -64.17    0.0025934    1.759    0.431
        20 -11.2168     96.4061    226.8487   1.2073995252e+02   1.9447049399e+01    0.4132263    0.1884278  58.22  0.002440608    1.980    0.495
        21  -9.6702     54.9635    229.7090   1.2766369654e+02   2.4150367577e+01    0.3514054    0.1009815  57.37  0.001778043    3.060    0.673
        22 -11.2418     81.3803    222.1354   1.2285655360e+02   2.2120427142e+01     0.532752    0.1759282  54.61  0.002700756    2.660    0.624
        23  -9.1261     55.0835    223.1707   1.2725137151e+02   2.5139701889e+01    0.1388735    0.1177961  65.95  0.000840012    1.297    0.229
        24  -9.3891     82.8665    229.7065   1.2318891453e+02   2.0793423940e+01    0.1511016    0.1258827 -84.10 0.0009464959    1.392    0.282
        25  -9.6585     83.2582    244.7491   1.2419871932e+02   1.8598050184e+01    0.1519907    0.1059389  89.17  0.001085489    1.509    0.337
        26  -9.5817     32.1819    205.3352   1.2998623801e+02   3.0496792915e+01    0.2085072    0.1555486  46.89 0.0009358146    1.403    0.287
        27  -9.7855     35.6945    198.1989   1.2897890151e+02   3.1347662973e+01    0.2478812    0.1053258  52.30  0.001312174    1.812    0.448
        28 -10.3361     74.4135    183.7893   1.2077181187e+02   2.9404495389e+01    0.3319433    0.2226202 -46.28  0.001958687    2.185    0.542
        29 -10.0378     78.5278    178.0338   1.1939132338e+02   2.9911715796e+01    0.2239994    0.2026989 -49.73  0.001272067    1.513    0.339
        30 -10.3248     86.5315    167.4632   1.1658901782e+02   3.0788544883e+01    0.2770905    0.2185001 -64.66 0.0006600695    1.361    0.265
        31 -12.0046     74.3872    163.0649   1.1859135336e+02   3.3283286041e+01     0.634196    0.4258176 -75.77  0.002018779    1.433    0.302
        32 -11.8240     68.0300    144.3292   1.1770850221e+02   3.7845704393e+01    0.7583026     0.426222  73.14  0.003947528    2.069    0.517
        33 -10.3580     92.1512    160.5216   1.1453723439e+02   3.1308287389e+01    0.3797211     0.288428 -32.76  0.001415997    2.004    0.501
        34 -10.5242     93.0494    144.0212   1.1199743591e+02   3.4429063401e+01    0.2274825    0.2186247 -76.70 0.0003924625    1.194    0.162
        35  -9.1906    113.7464    132.4418   1.0528848744e+02   3.3424955208e+01    0.2495598    0.2073525   3.47 0.0009813401    1.686    0.407
        36  -9.2675    100.9197    129.2853   1.0772656831e+02   3.6210802492e+01    0.2598047    0.2000801 -33.00 0.0008703839    1.691    0.409
        37  -8.2382    109.2234    120.8064   1.0411627626e+02   3.6574113621e+01    0.1719985    0.1580905 -20.48 0.0003821861    1.312    0.238
        38 -13.3186     55.4430    206.6124   1.2610945699e+02   2.7762859104e+01     1.685805     1.122012  53.80  0.009659176    1.202    0.168
        39  -8.3119    167.9778    112.4999   8.8779773471e+01   2.6515255703e+01    0.1930266    0.1298807  75.97 0.0005005524    2.280    0.561
        40 -10.4388     41.5177    106.7424   1.1913253119e+02   4.8897707940e+01     0.406872     0.235887  87.06  0.002201044    1.879    0.468
        41 -10.3904    102.2045     96.2665   1.0052668773e+02   4.2923076673e+01    0.5370369    0.3150482 -45.81   0.00244057    1.674    0.403
        42 -10.1408     75.4069     90.7211   1.0669017269e+02   4.8352800866e+01    0.5882323    0.2496896 -67.00  0.002201261    3.106    0.678
        43 -11.7543     82.1584    100.5390   1.0692349778e+02   4.5237076946e+01    0.9070104    0.7044713 -58.85  0.004362647    1.188    0.158
        44 -11.1290     93.8852     99.4100   1.0349245704e+02   4.3656121383e+01    0.8465225    0.5002548 -53.49  0.003713303    1.596    0.373
        45  -9.7347     73.3110    105.0905   1.1024542346e+02   4.5506635176e+01    0.4292866    0.2700012 -65.11  0.002077425    1.475    0.322
        46 -10.9731    111.9547     84.2052   9.4814850989e+01   4.3649560904e+01     0.694444    0.4774101  14.16  0.003091149    2.255    0.557
        47  -8.6414    164.6459    243.6808   1.1128082606e+02   7.4865028084e+00    0.1056975   0.06871705  24.94 0.0007046586    1.749    0.428
        48  -9.9371    103.3485     61.1834   9.0374800582e+01   4.9878120479e+01    0.2015435    0.1856397   4.59  0.001150397    1.143    0.125
        49 -10.9522    114.6151     55.9107   8.5426078802e+01   4.8619712055e+01    0.7573813    0.2205171 -35.26  0.002254323    3.794    0.736
        50  -9.0692     87.7552    241.5819   1.2327844005e+02   1.8471160940e+01    0.1743486    0.0878949  51.47  0.000418422    1.424    0.298
        51 -11.0718    183.5326     36.5855   6.3699975691e+01   3.4834371285e+01    0.3855459    0.3410908  18.35  0.001056243    1.168    0.144
        52  -9.5286    163.3722    248.8667   1.1203414926e+02   7.0938246779e+00    0.1556156    0.1028868  48.31  0.001130883    1.177    0.150
        53 -10.0781     95.2494    248.2788   1.2259794964e+02   1.6603332974e+01    0.1749925    0.1422623  60.36   0.00113403    1.195    0.163
