#   1 NUMBER                 Running object number                                     
#   2 MAG_AUTO               Kron-like elliptical aperture magnitude                    [mag]
#   3 X_IMAGE                Object position along x                                    [pixel]
#   4 Y_IMAGE                Object position along y                                    [pixel]
#   5 X_WORLD                Barycenter position along world x axis                     [deg]
#   6 Y_WORLD                Barycenter position along world y axis                     [deg]
#   7 A_WORLD                Profile RMS along major axis (world units)                 [deg]
#   8 B_WORLD                Profile RMS along minor axis (world units)                 [deg]
#   9 THETA_WORLD            Position angle (CCW/world-x)                               [deg]
#  10 FWHM_WORLD             FWHM assuming a gaussian core                              [deg]
#  11 ELONGATION             A_IMAGE/B_IMAGE                                           
#  12 ELLIPTICITY            1 - B_IMAGE/A_IMAGE                                       
         1  -8.7506     80.6522     12.6955   7.7001064935e+01   5.9912533983e+01    0.2745858    0.1771573 -47.15 0.0009846552    2.251    0.556
         2  -7.8011    142.3230     11.7146   6.3842394338e+01   4.7056584679e+01    0.1221228   0.08650185 -80.40 0.0002188231    1.599    0.375
         3 -10.5830    246.9238    233.9720   9.5602503426e+01  -1.2111588734e+01    0.5218207    0.1956486 -32.67  0.002327827    2.614    0.617
         4 -10.6262    232.5985    250.1379   1.0097467404e+02  -1.2602682783e+01    0.3437249    0.2333382  25.20  0.002155993    1.352    0.260
         5  -8.8147    163.8279    248.5006   1.1416495604e+02  -2.0292994433e+00    0.4144764    0.2922058 -10.72  0.002181904    1.915    0.478
         6  -8.3535    150.8604    249.3374   1.1695948286e+02  -6.1432209884e-02    0.2650558    0.2038392  78.86  0.001470044    1.762    0.432
         7  -8.4088    133.8761    247.2310   1.2018146166e+02   3.1245920674e+00    0.4125572    0.2406828 -73.50  0.001877271    2.605    0.616
         8  -9.5316     10.0667    247.7832   1.4453273715e+02   2.0503925629e+01     0.284272    0.1463791  72.47  0.001577078    1.644    0.392
         9  -8.4667    139.4506    247.7103   1.1908863437e+02   2.1153700850e+00    0.2237699    0.1868774  80.91  0.001276829    1.402    0.287
        10 -10.2886    180.4293    242.3052   1.0979007134e+02  -3.6325616779e+00    0.6214392    0.4376202  -6.94  0.002608093    1.768    0.434
        11 -10.0832    176.3850    242.1805   1.1059539625e+02  -2.9565638759e+00    0.5960814     0.226964 -47.96   0.00244076    2.918    0.657
        12  -9.7345    250.0523    241.0516   9.6285622913e+01  -1.3554579293e+01    0.4487729     0.139521 -38.74  0.001933905    2.976    0.664
        13 -10.1670    240.2369    241.4781   9.8107467469e+01  -1.2348643930e+01    0.3126464    0.1829628 -16.50  0.001714331    1.808    0.447
        14  -9.8381    221.8015    239.7904   1.0122153044e+02  -9.5511148900e+00    0.3023799     0.258629 -46.38  0.001188249    1.482    0.325
        15  -6.9948    109.5363    240.5128   1.2437973181e+02   8.4422459564e+00    0.1351987    0.1172011  60.16 0.0001147499    1.024    0.023
        16  -9.6720     90.3016    238.6875   1.2819719995e+02   1.1872193459e+01    0.4914246    0.2517201  34.96  0.002302155    2.001    0.500
        17  -8.7643     59.8833    237.7635   1.3435559471e+02   1.6526563946e+01    0.2623096    0.1407768  77.23  0.001250428    2.138    0.532
        18  -9.0433    159.8370    232.9244   1.1254214942e+02   1.4995317023e+00    0.6244996    0.3849478 -61.41  0.002988449    2.085    0.520
        19  -9.3719    139.5478    228.0862   1.1613034878e+02   5.9475647968e+00     0.669575    0.3381076  34.88  0.002919084    1.949    0.487
        20  -9.4896    156.7937    224.1121   1.1173909756e+02   3.7479133135e+00    0.4375677    0.3258223  -9.77  0.001561915    1.781    0.439
        21 -10.1048    154.4568    219.4313   1.1145562141e+02   5.1052149914e+00    0.8078725    0.4852383  39.74  0.003825216    1.570    0.363
        22 -10.4892    148.4071    228.1232   1.1421314496e+02   4.4055006586e+00    0.8085853    0.5211679 -38.76   0.00270844    1.778    0.438
        23  -7.6399    231.8833    234.1336   9.8351163153e+01  -1.0096315299e+01    0.1693752    0.1231157 -12.07 0.0002568977    1.285    0.222
        24 -10.0838    144.5134    238.5362   1.1667598506e+02   3.0199001098e+00    0.8603833    0.4100068  41.12  0.003850489    1.884    0.469
        25  -8.1571    188.1869    233.7198   1.0677742796e+02  -3.3815207943e+00    0.2210458    0.1840851 -53.31  0.001303889    1.427    0.299
        26  -9.2566    174.6781    233.4247   1.0950711282e+02  -1.1005987147e+00     0.228667    0.2147233 -32.87 0.0006095415    1.150    0.130
        27  -9.9181     81.7774    230.8101   1.2905250274e+02   1.4870576105e+01    0.4437786    0.3446481 -77.02  0.002602256    1.266    0.210
        28  -8.8379     89.8881    231.3891   1.2739144521e+02   1.3498142437e+01     0.299033    0.1920099  77.10    0.0014876    1.789    0.441
        29  -8.9710    115.0889    230.6377   1.2184371115e+02   9.5836328598e+00    0.5983225    0.2708277  43.98  0.002569904    1.999    0.500
        30  -7.5335    112.6308    226.2130   1.2175033245e+02   1.0939172829e+01    0.2035284    0.1373912 -62.86 0.0005464668    1.569    0.363
        31  -9.3529    107.4809    225.4856   1.2278094478e+02   1.1954076954e+01    0.3197298    0.1715411 -61.96  0.001384864    1.984    0.496
        32  -9.7503    104.4706    224.4720   1.2330252042e+02   1.2672331350e+01    0.3394001    0.2943352 -21.48   0.00192694    1.530    0.346
        33  -8.1759    110.2225    223.3692   1.2187288045e+02   1.1959751393e+01    0.2679656    0.1982663  49.62 0.0006570793    1.248    0.198
        34  -8.9578    106.5322    230.9409   1.2374422232e+02   1.0933526167e+01    0.2147452    0.1686404  47.84 0.0005289801    1.161    0.139
        35 -10.0546    243.8948    248.2315   9.8607144970e+01  -1.3799912128e+01    0.4766678    0.2685016  13.50  0.002633076    1.917    0.478
        36  -8.1965    218.0825    221.9576   9.8769448669e+01  -6.0783692525e+00    0.1899086    0.1684444  -0.84 0.0003130904    1.039    0.037
        37  -9.7656    127.1102    216.6765   1.1707601601e+02   1.0527856068e+01    0.4100927    0.3721876 -72.67  0.002359342    1.142    0.124
        38 -10.2408    126.1376    211.7735   1.1650398442e+02   1.1778557928e+01    0.4924951    0.3354543  22.78  0.002301244    1.818    0.450
        39  -8.6195     86.1224    220.4983   1.2682075964e+02   1.6498221795e+01     0.251458    0.1896109 -71.64 0.0008214769    1.310    0.236
        40  -9.4566     73.2053    219.9130   1.2958744347e+02   1.8586158180e+01    0.4437515    0.1657831 -63.58   0.00178772    2.599    0.615
        41  -9.8683    152.4688    229.1940   1.1351011629e+02   3.4894433848e+00    0.4496181    0.3477338 -49.47  0.001522423    1.395    0.283
        42  -7.2741    115.6261    216.6769   1.1966712016e+02   1.2519963485e+01    0.1428967    0.1134153  -9.17 0.0007030055    1.816    0.449
        43  -8.1339    110.3029    215.6156   1.2071053986e+02   1.3664637667e+01     0.189821    0.1326583  31.53  0.000933824    1.544    0.352
        44  -8.4761     86.5398    213.6255   1.2581108249e+02   1.8003941203e+01    0.3458075    0.1882992 -72.69  0.001541361    2.008    0.502
        45  -8.4066     54.6608    214.6855   1.3301882615e+02   2.2393817431e+01    0.1244325    0.1010949 -38.21 0.0003058687    1.699    0.412
        46  -9.3088    103.5785    210.6448   1.2149592303e+02   1.5927488566e+01    0.3494412    0.2715272   0.31  0.001724682    1.937    0.484
        47  -8.1550    135.7994    211.0151   1.1418097022e+02   1.0223402619e+01    0.3429309    0.1991505  23.11  0.001390919    2.362    0.577
        48  -9.2083     52.2798    209.9565   1.3300984653e+02   2.3810275714e+01    0.1931029     0.159341 -86.56  0.001172185    1.067    0.063
        49 -10.7234    117.2030    200.9983   1.1678839098e+02   1.5809794812e+01    0.4006843    0.3331896  62.05 0.0004060256    1.192    0.161
        50 -10.5400    114.7925    207.9269   1.1848682245e+02   1.4636243850e+01    0.5596598    0.3261328  75.55  0.002028258    2.899    0.655
        51 -10.9761    108.9122    205.9456   1.1953606139e+02   1.6107597216e+01    0.5876341    0.4036563 -77.66  0.002815858    1.657    0.397
        52  -9.8124    126.5858    195.2271   1.1357475304e+02   1.5460426923e+01    0.6237597    0.2181763 -57.60  0.002019852    3.211    0.689
        53  -8.8321    128.6285    206.4482   1.1504720849e+02   1.2524787391e+01    0.3998132    0.2693307  87.15  0.001735469    2.161    0.537
        54 -10.8549    130.2838    200.9481   1.1371694794e+02   1.3469593798e+01     0.562593     0.464604 -10.59  0.002858153    1.565    0.361
        55  -8.7018    151.9645    204.7006   1.0941965698e+02   8.6533745027e+00    0.4728911    0.2805399 -53.00  0.002118731    1.767    0.434
        56 -10.1535    123.9701    205.8917   1.1602933576e+02   1.3483895053e+01    0.2397643    0.2072402 -72.03  0.001298208    1.189    0.159
        57  -8.4805    136.5123    203.4949   1.1272171608e+02   1.1758021799e+01    0.3094242    0.1976286  56.92  0.001146874    1.755    0.430
        58  -9.2606    137.4944    200.0393   1.1188174566e+02   1.2353068910e+01     0.284661    0.1821347 -41.39  0.001117881    1.719    0.418
        59  -9.6082     98.0390    202.6654   1.2156822602e+02   1.8710860124e+01    0.2772276    0.2276186  86.44 0.0009379853    1.220    0.180
        60 -10.0148     71.6035    197.2683   1.2701171549e+02   2.4149885753e+01    0.4776614    0.2478103 -83.47  0.001911898    2.509    0.602
        61  -9.9327     81.0898    196.6114   1.2466897365e+02   2.2879548534e+01    0.3868227    0.2705476  28.51  0.001699014    1.688    0.408
        62 -10.0238     97.9797    195.4576   1.2044925991e+02   2.0437479018e+01    0.2908936    0.2666085  80.16  0.001128361    1.011    0.010
        63  -8.7655     89.7330    194.8961   1.2234191413e+02   2.1928708565e+01    0.3153489    0.2208814  17.18  0.001465518    2.012    0.503
        64  -9.1495    119.4221    192.3884   1.1477703539e+02   1.7429193665e+01     0.537719    0.2222368 -42.52  0.001822565    3.045    0.672
        65  -9.9197    117.6826    188.6602   1.1453159105e+02   1.8628595752e+01    0.5118767    0.3307406 -12.87  0.001843278    3.284    0.695
        66 -10.7302    114.8338    187.0110   1.1492778775e+02   1.9537632254e+01    0.6944701    0.3503965 -38.11  0.002526101    2.745    0.636
        67  -9.8620    108.7690    198.4320   1.1835556394e+02   1.7889474338e+01    0.3362155    0.2111086  30.71  0.001511152    1.794    0.443
        68 -11.5065     68.0725    203.6949   1.2869791208e+02   2.3118817538e+01    0.7688733    0.5744417  84.64  0.004218397    1.289    0.224
        69  -9.8381    144.0159    187.1210   1.0795663814e+02   1.4063071948e+01      0.62314    0.3895259 -19.19  0.002296763    2.899    0.655
        70 -10.8699    110.7249    193.7316   1.1709934893e+02   1.8662352748e+01    0.5286779    0.3877935 -87.67  0.002528151    1.594    0.373
        71  -6.8417    209.9938    187.2144   9.3704362226e+01   1.6246034966e+00    0.1724232    0.1139444  39.35 0.0006252821    1.595    0.373
        72  -8.7683     56.7009    197.8661   1.3057423763e+02   2.6098311887e+01    0.2825153    0.1879852  23.75  0.001381871    1.971    0.493
        73  -8.9985    126.2999    185.5939   1.1188402178e+02   1.7772815603e+01    0.2496403    0.1967385 -68.69 0.0006223402    1.329    0.248
        74  -9.1263     63.3297    186.5713   1.2749489125e+02   2.7947963110e+01    0.3105019    0.1517676  52.76  0.001310517    2.217    0.549
        75  -9.3256     50.8103    185.1737   1.3033272553e+02   2.9961298106e+01    0.3073322    0.2342545 -76.90  0.001733174    1.154    0.133
        76  -9.5538    129.6567    180.8939   1.1017801088e+02   1.8255514800e+01    0.3542705    0.2429311  43.25  0.001626621    1.453    0.312
        77  -7.9894    140.3191    183.6676   1.0815822455e+02   1.5568030661e+01     0.157957    0.1195263  80.73  0.000478701    1.694    0.410
        78  -7.8605     90.0461    183.3075   1.2040221963e+02   2.4709226442e+01    0.2254314    0.1278166  11.05 0.0007042616    4.311    0.768
        79  -9.2401    123.6257    178.3435   1.1115942579e+02   2.0002182763e+01     0.622457    0.2971442 -34.13  0.001942196    3.651    0.726
        80 -10.1512    114.8616    179.1981   1.1348827829e+02   2.1418219090e+01    0.4398059     0.293586  15.43  0.001815871    2.259    0.557
        81  -9.0291    249.7847    178.9288   8.4858323483e+01  -3.4447785655e+00    0.2545431    0.1707185 -53.57  0.001363343    1.653    0.395
        82  -7.4703    138.4634    179.5042   1.0778296296e+02   1.6895936384e+01    0.1528845    0.1469335  86.54 0.0002232837    1.034    0.033
        83  -8.1453     82.2335    179.3380   1.2170193881e+02   2.6942801207e+01    0.2040154    0.1752679 -65.81   0.00110614    1.108    0.098
        84  -8.7184     51.8233    175.6149   1.2878115564e+02   3.2196098177e+01    0.1930078    0.1174572  48.47 0.0004197652    1.707    0.414
        85  -8.1958    238.7491    173.9753   8.5750484978e+01  -7.8836223455e-01     0.193322    0.1581381 -35.78 0.0004154497    1.064    0.060
        86  -8.2422    239.5403    169.4627   8.4713154646e+01  -8.7128175255e-02    0.2591808    0.1746455  -7.70  0.001078781    2.101    0.524
        87  -9.0031    240.4973    165.0090   8.3657184073e+01   5.7709772690e-01    0.3546384    0.2274444 -62.35  0.001690362    2.086    0.521
        88  -9.6731     93.3869    168.0637   1.1687148320e+02   2.7941248549e+01    0.2935455    0.2333332  78.75  0.001459936    1.376    0.273
        89  -8.7161     69.6088    165.0782   1.2257424363e+02   3.2418442232e+01     0.297505    0.1561578 -50.27  0.001179454    1.860    0.462
        90  -8.0912    249.5233    164.4878   8.2064956447e+01  -8.1675045308e-01     0.134034    0.1136902 -40.71 0.0008094708    1.056    0.053
        91  -7.7934     78.3885    169.1680   1.2097397124e+02   3.0080755687e+01    0.2211045    0.1329761 -73.47 0.0009571479    1.786    0.440
        92  -8.6935    207.8112    162.3279   8.8999780865e+01   6.9849889703e+00    0.2714126    0.2453824  11.50 0.0005697704    1.209    0.173
        93  -8.0591    243.4563    154.4796   8.1044661988e+01   2.0276983960e+00    0.1370453    0.1170512 -37.63 0.0002110282    1.029    0.028
        94  -6.9836     93.7002    152.3164   1.1372834872e+02   3.1815064552e+01    0.1544191    0.1163128  80.81 0.0001817601    1.614    0.381
        95  -7.4052    227.3232    144.6759   8.1706545666e+01   6.7828859760e+00    0.1431255    0.1064186 -72.72 0.0003743712    1.684    0.406
        96  -7.3406    168.7542     96.3950   8.1508668749e+01   2.8801828544e+01    0.1563255    0.1101429 -68.89 0.0006939114    1.675    0.403
        97  -9.0497    225.4658     89.8798   7.0273601512e+01   1.7361341155e+01    0.2364324    0.2053704  79.82 0.0002745427    1.176    0.150
        98  -7.5581    250.3139     85.3237   6.6097283701e+01   1.3145646227e+01    0.1154561    0.1031048  -8.53 0.0002770422    1.661    0.398
        99  -7.4425    112.1759     78.0977   8.9830905026e+01   4.4813936217e+01    0.1807988    0.1648728 -72.57 0.0002653207    1.257    0.205
       100  -7.2983    169.4326     70.5466   7.4794536261e+01   3.3239113135e+01    0.1429942    0.1296906 -87.66 0.0001484326    1.039    0.038
       101  -8.2342    125.6387     55.9463   7.9851954501e+01   4.5564563787e+01    0.2263968    0.1760567  41.53 0.0003920219    1.235    0.191
       102  -8.2274     94.9006     52.6675   8.6785344141e+01   5.2445831903e+01    0.2064267    0.1843384 -23.01 0.0006618148    1.164    0.141
       103  -7.6008     96.3091     45.6760   8.4104194850e+01   5.3163276820e+01    0.1233914    0.1048901 -82.30 0.0007037214    1.651    0.394
       104  -8.5276    221.4373     41.1338   6.0487910014e+01   2.5813650350e+01    0.2537831    0.1976436 -63.70  0.001036664    1.129    0.114
       105  -7.6553     92.2909     36.6800   8.2217096325e+01   5.5120379711e+01    0.1165302       0.1015 -79.54 0.0003053063    1.604    0.376
       106  -8.6415     77.2715     29.8169   8.4172616071e+01   5.8755979465e+01    0.1803788    0.1540201 -41.16 0.0008986579    1.471    0.320
       107  -7.4910     96.4964     27.4744   7.7984228078e+01   5.5364936150e+01    0.1276484    0.1061825  33.28 0.0001088027    1.054    0.051
       108  -8.8381     84.9824     21.5061   7.8978266293e+01   5.8243321363e+01    0.2111725    0.1740846 -16.31 0.0005499216    1.310    0.236
       109  -7.1563     30.2523     22.3124   9.8177445690e+01   6.6730178854e+01    0.1120343   0.06998415  -5.83 0.0002259733    1.520    0.342
       110  -7.2119     50.4520     21.4849   8.9945932285e+01   6.4125949655e+01    0.1152209   0.09457585  10.77 0.0001413241    1.063    0.059
       111  -9.2603     75.2920     17.9294   8.0433437926e+01   6.0400712798e+01    0.2205335    0.1999087  -7.59 0.0004984722    1.236    0.191
       112  -7.6610    143.7635    248.9673   1.1837334330e+02   1.1713066290e+00    0.1483812    0.1120835 -51.37            0    1.495    0.331
