#   1 NUMBER                 Running object number                                     
#   2 MAG_AUTO               Kron-like elliptical aperture magnitude                    [mag]
#   3 X_IMAGE                Object position along x                                    [pixel]
#   4 Y_IMAGE                Object position along y                                    [pixel]
#   5 X_WORLD                Barycenter position along world x axis                     [deg]
#   6 Y_WORLD                Barycenter position along world y axis                     [deg]
#   7 A_WORLD                Profile RMS along major axis (world units)                 [deg]
#   8 B_WORLD                Profile RMS along minor axis (world units)                 [deg]
#   9 THETA_WORLD            Position angle (CCW/world-x)                               [deg]
#  10 FWHM_WORLD             FWHM assuming a gaussian core                              [deg]
#  11 ELONGATION             A_IMAGE/B_IMAGE                                           
#  12 ELLIPTICITY            1 - B_IMAGE/A_IMAGE                                       
         1 -14.3271     68.3589    144.3465   1.0635714663e+02   3.7265890130e+01     3.544763     1.653579 -85.14  0.002854906    4.642    0.785
         2 -13.9997    224.9455     16.3783   3.7795094111e+01   2.7334732291e+01       1.3106    0.9469644  46.69  0.002609398    1.692    0.409
         3 -13.5224    207.9748     33.8141   4.3904935206e+01   2.9254866438e+01    0.9920666    0.8287125 -71.68  0.003664644    1.135    0.119
         4 -12.6900    215.5928     26.0845   4.1070501296e+01   2.8387436000e+01    0.6137284    0.4808657  49.74  0.001210613    1.448    0.309
         5 -10.8371      2.3125      4.6762   9.4012345882e+01   7.3788869373e+01    0.3888617   0.08576188 -49.25   0.00154064    4.093    0.756
         6 -10.4397     49.3208      3.0408   6.8494774869e+01   6.8589994905e+01    0.1880923    0.1723414  47.25 0.0009593117    1.632    0.387
         7 -13.8512    199.4235     39.3299   4.6461551497e+01   3.0621333940e+01      1.52803     1.239272 -25.75  0.004451517    1.331    0.248
         8  -9.0463     61.3473      1.3094   6.2859348005e+01   6.6737994136e+01    0.1343336   0.07616038  20.96 0.0007044673    1.707    0.414
         9  -9.4137     43.6527      1.2774   7.0000063146e+01   6.9657098793e+01   0.09851947   0.09602953  -0.09 0.0003638535    1.635    0.388
        10 -11.2239    193.1154    193.5667   8.5547147206e+01   4.8713603519e+00    0.7657737    0.4124213 -53.79  0.003229081    2.728    0.633
        11 -10.7803    139.0273    249.4595   1.0519511526e+02   4.5768391357e+00    0.2736101    0.1625504  47.17  0.001582838    1.452    0.311
        12 -15.4306     80.5199    246.6257   1.1596931531e+02   1.3540349354e+01     8.914645     2.866325  29.43    0.0274406    6.656    0.850
        13 -13.3604     31.7412    247.9244   1.2470940572e+02   1.9264320576e+01    0.8157684    0.7490407  52.69  0.006825298    1.468    0.319
        14 -13.5094     23.9718    224.5758   1.2472905892e+02   2.4446448288e+01     1.164515    0.4890086  58.99   0.00645736    2.018    0.504
        15 -13.8252      4.2238    184.1779   1.2605868654e+02   3.4614606760e+01     1.300258    0.5090029 -86.44 0.0008651569    2.205    0.546
        16 -16.0968     38.2344    191.2444   1.1950257921e+02   2.9859607850e+01     9.179244     3.437595  80.98   0.02980417    5.192    0.807
        17  -9.4681     99.3421    180.9549   1.0434103255e+02   2.4011720382e+01    0.1900741    0.1735513 -78.54 0.0005132995    1.086    0.079
        18 -10.6719    137.9767    171.8025   9.3530406836e+01   1.9330968023e+01    0.3834248    0.2444901  55.38  0.001713996    1.772    0.436
        19 -13.5803     64.2507    160.5779   1.0994530892e+02   3.3865699301e+01    0.5697149    0.3369117 -46.86  0.001579041    1.880    0.468
        20 -11.6090     76.8447    164.5279   1.0734289190e+02   3.1214813407e+01    0.3092961    0.2803126 -84.07 0.0003732551    1.025    0.025
        21 -14.2986     80.9584    157.6016   1.0520428346e+02   3.2277054585e+01     3.527938     1.324225  53.47  0.001892346    3.907    0.744
        22 -13.4059     35.3689    207.8353   1.2144847166e+02   2.6616843339e+01    0.6950155    0.4786921  29.12  0.001626997    1.782    0.439
        23 -10.3731     65.2286    196.2042   1.1414974604e+02   2.5547909321e+01    0.3414918    0.2792698   5.18  0.002046744    1.803    0.445
        24  -9.2600    159.2774    163.0119   8.6761897181e+01   1.7097453154e+01      0.20657    0.1915713 -35.02 0.0002568777    1.097    0.088
        25 -15.3054      8.3246    238.8889   1.2816636070e+02   2.3295373724e+01     2.034929     1.251532 -80.04   0.01493002    1.509    0.337
        26 -14.6617      9.6461    207.3002   1.2636362452e+02   2.9283474824e+01     1.112424      1.00324  -9.55  0.005158716    1.801    0.445
        27 -10.6402    134.1258    146.8228   8.9341861543e+01   2.5615529273e+01    0.6823227    0.2148709 -54.49  0.001909561    4.019    0.751
        28  -9.5879    174.8525    149.1107   8.0152224659e+01   1.6805670999e+01    0.2291863    0.2152023 -85.74 0.0006173782    1.258    0.205
        29 -10.0015    174.0756    248.7727   9.8412425288e+01  -6.9312222583e-01    0.1962203    0.1655636  64.06  0.001239971    1.595    0.373
        30 -10.8826     48.0682    145.7655   1.1205234485e+02   3.9398643631e+01    0.2324223    0.1920851 -22.18  0.001362389    1.571    0.364
        31 -11.3469     32.3860    143.9595   1.1596048345e+02   4.1440243544e+01    0.3494641    0.2336316  79.01  0.001337695    1.516    0.340
        32 -10.5923     98.4705    143.5013   9.7993659932e+01   3.2930396490e+01    0.2838808    0.2680926  62.11 0.0008184153    1.076    0.071
        33 -10.0118    101.2148    140.1635   9.6567955308e+01   3.3269205186e+01    0.4007878    0.2725806 -18.93  0.001369108    2.247    0.555
        34 -12.2869     86.3416    142.0656   1.0102129901e+02   3.5231812337e+01    0.2980362    0.2595203 -47.68 0.0005227131    1.160    0.138
        35  -9.5937     80.9514    141.1732   1.0233782764e+02   3.6266529059e+01    0.2429392     0.152007  64.11 0.0009817389    2.050    0.512
        36 -12.0249     62.0326    179.9817   1.1301912863e+02   2.9593270838e+01     0.421461    0.2930524 -33.11  0.002200438    2.137    0.532
        37 -10.8657    107.6412    131.3227   9.2882925632e+01   3.4256823984e+01    0.5814281    0.3211369  44.04  0.002413367    1.881    0.468
        38 -11.6174     46.8816    129.5229   1.0993108665e+02   4.3510146453e+01    0.3445214    0.2109193  36.77  0.001778456    1.802    0.445
        39  -9.8772    136.0000    129.0143   8.4720576558e+01   2.9277043746e+01    0.2658641   0.08827008 -46.57 0.0008056761    2.965    0.663
        40 -10.4811     96.7540    128.0544   9.5208955947e+01   3.6949914003e+01    0.3224227    0.2532817 -25.20  0.001580053    1.494    0.331
        41 -10.1420    116.0612    125.5938   8.9215624167e+01   3.4043820576e+01    0.2627317    0.2169972 -62.53  0.001000366    1.261    0.207
        42 -11.3649     44.8031    122.9512   1.0945456238e+02   4.5346230076e+01    0.3348111    0.2449002   3.95  0.001746038    1.819    0.450
        43  -9.6212    135.0000    119.9558   8.2705353697e+01   3.1523722122e+01    0.2662467   0.08856697 -45.56 0.0008027887    2.945    0.660
        44  -9.9078    106.7115    120.0208   9.0487379312e+01   3.7110486061e+01    0.2290014    0.2142996  27.92 0.0003492727    1.121    0.108
        45 -11.8668     22.9394    118.2790   1.1519606334e+02   4.8470603911e+01    0.3429898    0.2639256 -81.78  0.002127176    1.164    0.141
        46  -9.6036    168.2886    113.3041   7.2787529385e+01   2.5593698516e+01    0.3092177    0.2269737 -77.54  0.001209436    2.022    0.506
        47 -10.0649    205.5345    110.3646   6.4329071550e+01   1.7710786469e+01    0.3012317    0.2533064  30.29 0.0008582097    1.281    0.219
        48 -10.8103    244.8204    109.3843   5.7518339511e+01   9.6244193765e+00    0.1903651    0.1271438  38.33 0.0008741171    1.751    0.429
        49  -9.4055     83.8014    118.0111   9.6736887995e+01   4.1492590640e+01    0.2377624    0.1680136 -88.81 0.0008734988    1.945    0.486
        50 -10.2243    134.5194    104.2442   7.8614809969e+01   3.5086970740e+01    0.5276102    0.1534441 -43.34  0.001514891    3.361    0.702
        51 -10.8435    242.6042    102.3943   5.6217939332e+01   1.1207471252e+01    0.2519203    0.1351416  72.78 0.0009619869    3.367    0.703
        52 -10.0917    244.3291     89.3039   5.2901326203e+01   1.2963224218e+01    0.1347121    0.1057276   7.56 0.0003124215    1.651    0.394
        53 -10.7343    249.3909     87.8856   5.1889426082e+01   1.2158793790e+01    0.2219614    0.1888744 -89.22  0.000721495    1.368    0.269
        54  -9.1873     73.0422     83.9792   9.1472412882e+01   5.1114129886e+01    0.2199233    0.1765539  75.98  0.001113723    1.774    0.436
        55  -9.3941     61.9268     71.6491   9.1756776795e+01   5.5397577279e+01    0.1867146    0.1677684  -0.56 0.0004555906    1.140    0.122
        56  -9.5078     47.6038     62.1684   9.4282086781e+01   5.9202197199e+01    0.1885236    0.1737841  14.91 0.0004813992    1.245    0.197
        57 -10.5725     13.5084     60.1679   1.0764868969e+02   6.2605466271e+01     0.221126    0.1767893 -47.41 0.0004182197    1.042    0.040
        58 -13.1429     40.4700    234.7020   1.2238543735e+02   2.0716299721e+01    0.7690671    0.3655971  80.74   0.00421404    2.192    0.544
        59 -10.7984     73.3849    231.2001   1.1594955302e+02   1.7317305710e+01     0.406372    0.1926678  36.41  0.001846878    1.994    0.499
        60 -11.9660     67.1363    174.4405   1.1112040307e+02   3.0211129701e+01     0.316556    0.2628793 -49.18 0.0008291425    1.370    0.270
        61 -10.4167    137.4062     43.8331   5.8804760539e+01   4.5473420364e+01    0.3833443    0.2445778 -78.62  0.001484167    2.845    0.648
        62 -10.7607    189.5383     15.4432   4.1219431170e+01   3.5880699377e+01    0.2405832    0.2158444 -88.65 0.0007721197    1.008    0.008
        63  -8.6969    132.4165     10.7255   4.8219242900e+01   5.0555543051e+01    0.1387924   0.09964035 -75.72 0.0006963168    1.796    0.443
        64 -11.8219    183.9291    215.1492   9.1301917506e+01   2.8448999526e+00    0.3345341    0.2633666   6.71  0.001975826    1.268    0.211
        65 -13.7900     86.1866    226.9585   1.1302186583e+02   1.6372143204e+01     1.678155    0.8312418  49.45  0.002902223    1.736    0.424
        66  -9.4914     62.8142    201.3283   1.1521361245e+02   2.4751064426e+01    0.2043183    0.1456954  88.03 0.0004492172    1.317    0.241
        67  -9.0557    159.0597    200.3406   9.3949206481e+01   9.7282139325e+00    0.3128383     0.184013  -8.26  0.001097476    3.931    0.746
