#   1 NUMBER                 Running object number                                     
#   2 MAG_AUTO               Kron-like elliptical aperture magnitude                    [mag]
#   3 X_IMAGE                Object position along x                                    [pixel]
#   4 Y_IMAGE                Object position along y                                    [pixel]
#   5 X_WORLD                Barycenter position along world x axis                     [deg]
#   6 Y_WORLD                Barycenter position along world y axis                     [deg]
#   7 A_WORLD                Profile RMS along major axis (world units)                 [deg]
#   8 B_WORLD                Profile RMS along minor axis (world units)                 [deg]
#   9 THETA_WORLD            Position angle (CCW/world-x)                               [deg]
#  10 FWHM_WORLD             FWHM assuming a gaussian core                              [deg]
#  11 ELONGATION             A_IMAGE/B_IMAGE                                           
#  12 ELLIPTICITY            1 - B_IMAGE/A_IMAGE                                       
         1 -14.0266    204.0270    115.0345   6.5507075501e+01   1.6874078938e+01     3.576881     2.683156  -1.10   0.01671857    1.686    0.407
         2 -14.8289    179.5955     77.9223   6.0315168714e+01   2.9361413239e+01     8.018869     4.056373 -64.80  0.005393735    4.567    0.781
         3 -13.4571    248.5436     60.8213   4.5620375123e+01   1.6002597456e+01     2.312867    0.5560685 -39.36  0.008123384    3.190    0.687
         4 -12.7610    248.4433      5.8511   3.3573952144e+01   2.2951301922e+01     1.051615    0.5613564 -14.83    0.0050067    3.115    0.679
         5 -12.5530    230.8934     27.7036   3.9826839570e+01   2.4303866075e+01     1.296377    0.7476322  83.03  0.004331948    1.785    0.440
         6 -15.0826    240.8295     39.4207   4.1554926513e+01   2.0604102808e+01     8.335837          nan  57.62   0.01986521    8.784    0.886
         7 -11.7431    227.1648     17.5633   3.7815395571e+01   2.6346913076e+01     1.237067    0.6038538  41.96  0.005194656    3.328    0.700
         8 -13.9475    231.5155     59.4682   4.7306500360e+01   1.9901749217e+01     1.799239     1.339703  -2.90  0.009243904    1.900    0.474
         9 -13.2197    234.1946      9.2306   3.5336804756e+01   2.5682294354e+01    0.6541206     0.437483 -26.38 0.0009047631    1.704    0.413
        10 -13.1680    249.7043     24.0531   3.7338700807e+01   2.0614281173e+01    0.7621951    0.4894053 -28.89  0.002045701    1.674    0.403
        11 -14.8742    218.6658     74.9598   5.2878911492e+01   2.0467103521e+01     10.80119     2.630293 -47.34   0.02750187    5.429    0.816
        12 -10.9036    144.6416     27.3107   5.1464845131e+01   4.5620736344e+01    0.4928235    0.2997961 -39.81  0.001612491    1.768    0.435
        13 -14.3852    239.6072     77.5845   5.0597473761e+01   1.5399796863e+01     2.986434     1.326444 -41.98   0.01282218    1.966    0.491
        14 -10.7814    205.9942     20.1557   4.0523908953e+01   3.1039155465e+01    0.6209975    0.3489707 -74.71  0.001170919    2.029    0.507
        15 -11.9947    215.0615     15.7795   3.8514389772e+01   2.9359710644e+01    0.4226414    0.3999693   0.76  0.002772331    1.341    0.254
        16 -10.2695    135.5207     14.7992   4.8912442121e+01   4.9226675154e+01    0.3471673    0.2306879 -25.58   0.00180458    1.646    0.393
        17  -9.4964    115.9625     12.5292   5.2042430038e+01   5.4169503172e+01    0.3061804    0.2129411  52.56  0.001017688    1.258    0.205
        18 -11.3623    120.4148      8.8904   4.9722222777e+01   5.3447267388e+01    0.4960886    0.4431834 -24.31  0.001887046    1.255    0.203
        19 -10.4085    224.1334      9.6335   3.6242176509e+01   2.7913207370e+01     0.460573    0.1752271 -27.52  0.001820065    2.837    0.647
        20 -11.4179    208.1628     10.2481   3.7819644708e+01   3.1591741190e+01     0.296847    0.2549481 -74.05   0.00103714    1.036    0.035
        21  -9.5405    184.7863      5.3417   3.8930487388e+01   3.7778099005e+01    0.4817157    0.3107445  85.45   0.00256742    1.457    0.314
        22  -8.8944    129.1308      5.8369   4.6929708582e+01   5.1607677857e+01    0.1979359    0.1764958 -86.11 0.0007538681    1.240    0.194
        23  -8.4894    171.8779      2.3615   3.9558465454e+01   4.1260707283e+01    0.2064128    0.1625456 -54.81 0.0005682237    1.318    0.241
        24  -9.5099    143.2404      1.6180   4.3143865901e+01   4.8478900623e+01    0.2293981     0.155333  69.43 0.0006986887    1.309    0.236
        25  -8.9201    201.2216    173.6866   7.9582958578e+01   6.6121747747e+00    0.2530339    0.1764001  41.18  0.001272287    1.433    0.302
        26  -8.0416    105.9411    250.7786   1.1135410857e+02   9.2781735892e+00     0.152351   0.08049776  40.01 0.0003042858    1.554    0.356
        27  -8.3452     60.7705    170.2578   1.1182790798e+02   3.2169921531e+01    0.1629483    0.1417482 -54.51 0.0002678279    1.283    0.221
        28 -11.3877     16.8219    161.1813   1.2138816304e+02   3.8990461320e+01    0.4661021    0.2275035 -50.15   0.00236174    2.341    0.573
        29  -8.4269    208.9648    165.4564   7.6295739512e+01   6.6024761089e+00     0.193888    0.1287382  66.46 0.0008090053    2.622    0.619
        30 -10.6832     66.5344    145.4086   1.0670551734e+02   3.7385809120e+01     2.163017     1.165695  20.15  0.009136902    2.659    0.624
        31 -13.0058     36.0328    161.4079   1.1680831960e+02   3.7130018855e+01    0.7788203    0.6904411 -34.87  0.002394624    1.454    0.312
        32 -12.6505     48.6566    154.5593   1.1280785900e+02   3.7387988368e+01    0.8067876    0.6701327 -70.27  0.003070424    1.107    0.097
        33  -9.0358    136.0677    242.2143   1.0457694553e+02   6.1033900955e+00    0.2139048     0.118579  56.35  0.001082557    2.012    0.503
        34  -8.2671    248.3013    240.7023   8.3272560461e+01  -1.0696045741e+01   0.09634488   0.08686483  21.01 0.0002731705    1.579    0.367
        35  -8.4853     57.4884    236.5035   1.1918454526e+02   1.8494597261e+01    0.1180077   0.08967132  64.85 0.0008104965    1.019    0.019
        36  -9.6331    205.0990    154.1555   7.4582523154e+01   9.3911497137e+00    0.4071166     0.291847 -65.82  0.001838077    2.147    0.534
        37  -9.1237    191.2982    150.6331   7.6602924237e+01   1.2855634282e+01    0.2287671    0.1877105 -80.18 0.0006891111    1.722    0.419
        38  -9.9655    133.6668    145.2627   8.8750946394e+01   2.5978153043e+01      1.05457     0.262044 -53.66  0.002480506    5.642    0.823
        39  -8.3031    157.4866    149.4526   8.3864754769e+01   2.0163640429e+01     0.152211    0.1489978  25.39 8.468706e-05    1.023    0.022
        40  -8.7255    219.3009    230.9297   8.6802713974e+01  -5.3847358442e+00    0.1681457     0.134573  -7.47  0.001111758    1.182    0.154
        41  -8.0949    222.5244    145.4551   6.9296159755e+01   7.5070499204e+00    0.1434077    0.1303168 -16.86  9.32715e-05    1.032    0.031
        42  -9.6865    197.0998    143.6514   7.3796556439e+01   1.2985690708e+01    0.5043929    0.3103878  68.57   0.00157845    2.906    0.656
        43  -8.8380    192.3177    144.1220   7.4891011967e+01   1.3898169455e+01    0.2229806    0.1991873  36.64 0.0004592972    1.137    0.121
        44 -10.1903    179.8307    145.0023   7.7760237346e+01   1.6366638087e+01     0.302081     0.200191 -24.05  0.001305318    1.747    0.428
        45  -9.1701    158.8026    142.8109   8.2029777125e+01   2.1303553742e+01    0.2179286    0.1907463 -87.19  0.001076028    1.379    0.275
        46  -9.2800    211.5168    136.0659   6.9183718955e+01   1.1396903027e+01    0.2312685    0.1385092 -35.35  0.001027342    1.579    0.367
        47  -8.4584     33.6654    218.6602   1.2235862135e+02   2.4795138966e+01    0.1035927   0.08535138 -48.57 0.0007051349    1.753    0.429
        48 -10.4563    160.4333    127.9274   7.8045241806e+01   2.4118272556e+01     0.455573    0.2975369 -42.61   0.00151429    1.520    0.342
        49 -10.7446    224.2129    128.9109   6.5184872842e+01   1.0070283583e+01    0.3334513    0.2618119  70.60  0.001617321    1.692    0.409
        50  -8.7725    138.2513    128.8660   8.3742255993e+01   2.8735197096e+01    0.4201939    0.3142195  60.93  0.001903042    1.540    0.351
        51 -10.0857    135.6026    124.8068   8.3417830427e+01   3.0205938930e+01    0.6588553    0.1536494 -48.78  0.001633907    4.636    0.784
        52 -12.5095    198.1701     76.8578   5.6636924816e+01   2.5001478661e+01     1.544841    0.7359536  40.86  0.004264015    2.675    0.626
        53  -9.3141    143.4306    125.1861   8.1508674642e+01   2.8444074907e+01    0.2638084    0.2570801 -87.00 0.0005424839    1.077    0.072
        54  -9.2476    217.7075    121.5472   6.4591238724e+01   1.2721939515e+01    0.2520587    0.1642422 -52.63 0.0004937738    1.736    0.424
        55  -9.8220    162.9716    120.6334   7.5596855547e+01   2.5083139888e+01    0.2878279    0.2620441 -56.20 0.0004304386    1.152    0.132
        56  -8.8135    217.6985    213.0094   8.3986759581e+01  -2.6370909498e+00    0.2062874    0.1767492  52.75  0.001273679    1.632    0.387
        57 -10.2290    167.4115    115.3259   7.3193115275e+01   2.5165893228e+01    0.4541408    0.3868341 -11.61  0.002216059    1.290    0.225
        58 -10.6737    135.1294    109.3709   7.9510004457e+01   3.3726757448e+01    0.9993516    0.3513556 -42.23  0.003149254    2.841    0.648
        59  -9.8807    121.1374    111.9781   8.3993545937e+01   3.6124142000e+01    0.3633162    0.2734327 -46.69  0.001697861    1.302    0.232
        60 -11.2579    123.1256    104.3931   8.1385288016e+01   3.7401654515e+01     1.044248    0.5076891 -55.66  0.003643567    2.552    0.608
        61  -8.9527    142.7471    105.4406   7.6460043153e+01   3.2874367288e+01    0.2252459    0.1501173  33.97 0.0008413359    1.651    0.394
        62  -9.6958    149.0943    101.4241   7.3751661901e+01   3.2259644404e+01    0.4710876    0.3443153  73.87  0.001669646    1.828    0.453
        63  -9.4361    135.2949     98.1739   7.6337821113e+01   3.6086121390e+01    0.2850444    0.2499743  75.77  0.000586085    1.319    0.242
        64  -8.0421     89.2939     99.2825   9.0009433175e+01   4.5073537330e+01    0.1475009    0.1134976 -16.54 0.0002482263    1.537    0.349
        65 -10.2718    237.1838    206.0484   7.9120604642e+01  -4.6948243700e+00    0.2055982    0.1754565  -1.25 0.0002325225    1.132    0.116
        66 -10.8099    160.5600     96.4772   6.9629185526e+01   3.0559718936e+01    0.6093253    0.3552989  38.30  0.002401227    1.895    0.472
        67  -8.8073    205.8347    207.2043   8.5208983882e+01   1.8201853958e-01    0.1870245     0.165719  25.85 0.0003878711    1.174    0.148
        68 -10.0218    143.2193     91.9370   7.2489381826e+01   3.5553526899e+01    0.3299611    0.3114204 -80.40 0.0008606635    1.156    0.135
        69  -9.0987    206.9352    202.7623   8.4176340605e+01   6.9292051786e-01    0.2129915    0.1753964 -18.52  0.000283547    1.196    0.164
        70  -9.3318    195.0530    198.5649   8.5752832164e+01   3.4345530526e+00    0.3706415    0.2657411 -75.89  0.001629556    2.970    0.663
        71 -11.4165    158.7729     86.9288   6.7298619367e+01   3.2832164242e+01     0.383843    0.2955978 -19.88 0.0007654017    1.455    0.313
        72  -7.9001    133.6637     82.7137   7.2170627281e+01   3.9594164745e+01    0.1598716    0.1217173  12.88 0.0007016119    1.629    0.386
        73  -9.0146    161.0826     79.4698   6.4590252642e+01   3.3650782539e+01    0.2377608    0.2078127 -37.37 0.0005651391    1.143    0.125
        74 -10.5052    106.0081     78.9725   7.8811408081e+01   4.6353160726e+01    0.3847814    0.2925874  -9.36 0.0004040158    1.555    0.357
        75  -9.1326    158.9749    157.7189   8.5345007083e+01   1.8105800570e+01    0.3889576    0.2453212 -65.31  0.001559457    2.305    0.566
        76  -9.5652    116.9802     77.5662   7.5126054147e+01   4.4333380251e+01    0.4144975    0.2169477 -40.55  0.000919043    1.887    0.470
        77 -10.0738    155.3512    153.3954   8.5248257812e+01   1.9764657623e+01    0.6140034    0.3847611 -76.22  0.001159451    3.222    0.690
        78  -9.2940    195.8647     63.5222   5.3407629398e+01   2.7711129978e+01    0.3646668    0.2004513 -52.95  0.001507112    2.018    0.504
        79  -9.5386    105.9753     60.2062   7.2548198269e+01   4.9931106452e+01    0.2686485      0.20367 -33.54 0.0007076303    1.305    0.234
        80  -8.3235     72.6046     58.4737   8.3044158434e+01   5.6510765679e+01    0.1393843    0.1228378 -20.18 8.528769e-05    1.030    0.029
        81  -9.7871    124.1315     53.2993   6.5037194498e+01   4.7052412800e+01    0.2552204    0.2009068 -16.75 0.0008197812    1.346    0.257
        82  -9.3738    191.5278    192.2259   8.5270578585e+01   5.1452020706e+00     0.492619    0.3039057 -66.74  0.001873715    3.719    0.731
        83 -10.0017    198.6561     33.2333   4.4796972262e+01   3.1277391881e+01    0.5071834     0.254712 -19.29  0.002083451    2.645    0.622
        84  -9.2385    207.2417    198.1653   8.3253238474e+01   1.3731312221e+00    0.1652136    0.1576057  35.13 0.0004245768    1.302    0.232
        85 -10.3482    147.1353    143.4418   8.4982111157e+01   2.3626868208e+01     0.374239    0.2852261 -75.30   0.00117901    1.720    0.419
        86  -9.9613    175.0307    193.3741   8.8933035050e+01   7.9547701074e+00    0.2316025    0.2023472 -35.80 0.0002216201    1.231    0.188
        87 -10.1994    179.3664     23.7876   4.4745448591e+01   3.7229703560e+01    0.4454442     0.369726  75.28  0.002550063    1.109    0.098
        88  -8.2281    163.9740     24.0092   4.7068542315e+01   4.1107753174e+01    0.1596256    0.1530968  79.88 0.0009521375    1.050    0.048
        89  -8.0712    127.2687    192.3090   9.9308133767e+01   1.6853076972e+01    0.1320055    0.1099491  -9.02  0.000230621    1.541    0.351
        90  -8.1988    159.9505     20.9184   4.6745389905e+01   4.2468610041e+01    0.1594084    0.1530892  67.99 0.0005711018    1.058    0.055
        91 -10.3347    209.2703    187.0715   8.0703172693e+01   2.8321477081e+00    0.3683849    0.3105433  89.87  0.001693968    1.982    0.496
        92  -8.3422    164.5602     16.4946   4.4687499144e+01   4.1765055966e+01    0.1373412    0.1235293  63.54 0.0001604124    1.049    0.047
        93  -9.1701     59.8428    186.0424   1.1395680814e+02   2.8650978323e+01    0.1879629    0.1592127  82.35 0.0002697091    1.018    0.018
        94  -9.3781    150.4436    147.5167   8.5106841371e+01   2.2046845641e+01    0.2676849    0.2375558 -82.98 0.0006339531    1.308    0.236
        95 -11.5660      2.9622    182.5086   1.2602845177e+02   3.5352679498e+01    0.4355654    0.3402765  70.31  0.002906431    1.135    0.119
        96 -12.0251      5.0011    175.9949   1.2518088376e+02   3.6615086682e+01     0.594561    0.3687781  71.75  0.003788677    1.377    0.274
        97  -9.6160    219.4959    183.8969   7.8094107615e+01   1.5512692252e+00    0.4653878    0.2473997  57.25  0.001779183    3.541    0.718
        98 -12.0521    228.2480    172.5812   7.4138037980e+01   1.8547317310e+00     1.207837    0.6245654   6.83  0.003675809    5.130    0.805
        99 -10.6469    236.3404    174.6236   7.3096117136e+01   1.2850623762e-01    0.4691973    0.3159835  64.26  0.002167497    2.825    0.646
       100 -10.9539    231.0336    167.8905   7.2646249122e+01   2.1271173623e+00    0.4228733    0.2541431 -44.21  0.002055286    1.819    0.450
       101  -9.0934    196.2219    177.8839   8.1466969107e+01   6.8064734014e+00    0.1965051    0.1892287  -6.51 0.0003220967    1.144    0.126
