#   1 NUMBER                 Running object number                                     
#   2 MAG_AUTO               Kron-like elliptical aperture magnitude                    [mag]
#   3 X_IMAGE                Object position along x                                    [pixel]
#   4 Y_IMAGE                Object position along y                                    [pixel]
#   5 X_WORLD                Barycenter position along world x axis                     [deg]
#   6 Y_WORLD                Barycenter position along world y axis                     [deg]
#   7 A_WORLD                Profile RMS along major axis (world units)                 [deg]
#   8 B_WORLD                Profile RMS along minor axis (world units)                 [deg]
#   9 THETA_WORLD            Position angle (CCW/world-x)                               [deg]
#  10 FWHM_WORLD             FWHM assuming a gaussian core                              [deg]
#  11 ELONGATION             A_IMAGE/B_IMAGE                                           
#  12 ELLIPTICITY            1 - B_IMAGE/A_IMAGE                                       
         1 -14.2005    157.2850     53.1503   8.3001467813e+01   3.9170071967e+01     1.404424     1.061548  19.25   0.00417409    1.453    0.312
         2 -14.3701    169.4316     37.3659   7.5164287471e+01   3.8352319269e+01     1.326212     1.038147   6.00  0.004393198    1.351    0.260
         3 -13.4878    183.8041      8.4122   6.2985106919e+01   3.7802502970e+01     1.114622    0.6401581 -53.07  0.004786756    2.038    0.509
         4 -13.2340    188.4330      3.5931   6.0816095826e+01   3.7009462767e+01    0.8815969    0.5849367 -39.41  0.004297463    1.527    0.345
         5 -12.8053    159.1419    234.8626   1.2085380519e+02   9.4236253296e+00    0.4964783    0.2015263  46.36  0.002655685    2.004    0.501
         6 -19.0773     71.9157    240.8367   1.3565937688e+02   2.0079875460e+01     5.388618     4.234527  63.25   0.03973079    1.124    0.110
         7 -10.2024     21.5374    234.5795   1.4313641926e+02   2.6211546137e+01   0.08906009   0.06440153  63.19 0.0003780491    1.095    0.087
         8 -12.6103    155.2771    197.0888   1.1676686897e+02   1.4986132141e+01    0.3602616    0.2549342 -89.08   0.00201408    2.498    0.600
         9 -11.8507    208.0327    196.2243   1.0716689130e+02   6.5049072437e+00    0.1970766    0.1640305  -1.15 0.0008624388    1.215    0.177
        10 -11.2128    175.0075    193.7790   1.1264476242e+02   1.2245345770e+01    0.2478919    0.1704239 -64.44  0.001384851    2.456    0.593
        11 -10.8220    180.0301    192.4587   1.1152378636e+02   1.1594059439e+01    0.1936752    0.1759333 -72.70 0.0007082405    1.549    0.355
        12 -12.4081    167.3043    190.8507   1.1361728079e+02   1.3926571161e+01    0.3735612    0.2630427  36.80  0.001870173    1.187    0.158
        13 -11.0349     25.7182    232.2785   1.4241255422e+02   2.6165096315e+01    0.1035484    0.0870157  72.52 0.0006674771    1.320    0.242
        14 -11.2487    198.6765    222.7892   1.1275697362e+02   4.9591255381e+00    0.1949418    0.1154211  32.68 0.0005874141    1.304    0.233
        15 -10.8290    176.6347    188.2876   1.1148722233e+02   1.2732629494e+01    0.2114022    0.1504477 -33.83   0.00120467    1.634    0.388
        16 -10.8739    184.2805    186.6077   1.0980881930e+02   1.1674507256e+01    0.2297144    0.1342548  34.72 0.0008989683    1.469    0.319
        17 -10.0905     38.5738    185.7833   1.3780223744e+02   3.2585642388e+01    0.1298303   0.07942016  80.16 0.0001160301    1.426    0.299
        18 -18.8688     56.9031     93.9074   1.2271516751e+02   4.9760002290e+01     17.20978    0.6734624 -61.26   0.02372151   22.007    0.955
        19 -12.2127    205.2596    180.5670   1.0498839627e+02   8.8896995043e+00    0.4607034    0.2564267  45.47  0.001886289    1.698    0.411
        20 -12.1985    208.5301    178.5081   1.0404147026e+02   8.5893452167e+00    0.4164108    0.2637424  30.95   0.00234659    1.350    0.259
        21 -12.3509    168.2530    233.3237   1.1916444110e+02   8.2869268945e+00    0.3028227    0.1762757  46.71  0.001424632    1.445    0.308
        22 -11.3538    163.5022    209.9469   1.1703897677e+02   1.1907640326e+01    0.1865532    0.1412769  49.61  0.001275831    1.258    0.205
        23 -12.5520    195.9470    171.2693   1.0499822472e+02   1.1749625938e+01    0.6562658    0.3754052 -44.68  0.003137839    2.213    0.548
        24 -11.2102    231.4220    170.2143   9.8547690225e+01   5.6680565136e+00    0.1637536    0.1118412 -34.08 0.0009537133    1.709    0.415
        25 -11.0479     25.5598    165.5899   1.3897073823e+02   3.7594528753e+01     0.277798    0.1758273  10.59  0.001316595    2.790    0.642
        26 -12.5466    144.4215    168.1256   1.1448100496e+02   2.1318576419e+01     0.448311    0.2899679  65.18  0.002280998    2.069    0.517
        27 -10.8295    223.7434    163.8887   9.8628627887e+01   7.7702879537e+00     0.204159    0.1695464 -36.33 0.0005197037    1.527    0.345
        28 -10.8730     30.1294    205.8150   1.4049119298e+02   2.9933301630e+01    0.1136057    0.1070927  86.25  0.001029844    1.471    0.320
        29 -11.6758    159.0262    204.8242   1.1715002077e+02   1.3299382664e+01    0.3006361    0.1637523  53.06  0.001196549    1.924    0.480
        30 -11.8446    163.0840    155.0131   1.0834474351e+02   2.0199747905e+01    0.3149616    0.2651624  76.75  0.001141502    1.539    0.350
        31 -14.0476    132.8617    145.4544   1.1299709663e+02   2.7363512629e+01    0.9158542    0.5573233 -61.58   0.00374046    2.024    0.506
        32 -11.0941     14.2421    151.3164   1.4035533455e+02   4.1347241222e+01    0.2388356    0.1989672 -23.38  0.001824715    1.881    0.468
        33 -11.6511    163.3936    203.7506   1.1621354386e+02   1.2758362907e+01    0.2720482    0.2032911 -45.27  0.001384515    1.664    0.399
        34 -11.0170    174.8031    148.9101   1.0477280927e+02   1.8999068434e+01    0.2338521    0.1967853 -62.25  0.000828514    1.550    0.355
        35 -12.7275    144.5691    145.6293   1.1045846993e+02   2.5231551302e+01    0.4287906    0.3377849  86.47  0.002315175    1.719    0.418
        36 -12.7720      5.4099    139.7255   1.4151607920e+02   4.4338142007e+01    0.8268766    0.3518296 -79.22  0.003758357    1.871    0.466
        37 -12.2084      2.8679    112.6348   1.4023752710e+02   5.0175130593e+01    0.4384603    0.1745768 -71.17  0.002416669    1.912    0.477
        38 -12.0688     10.1629    111.0402   1.3824285448e+02   5.0061309917e+01    0.3792089    0.2054083   1.38  0.001834032    3.235    0.691
        39 -13.2054      2.6366    126.3270   1.4128079077e+02   4.7287332226e+01    0.6602309     0.327662 -60.79  0.004062723    1.905    0.475
        40 -12.6171      2.2849    122.0001   1.4106857971e+02   4.8217870389e+01    0.3805837    0.2532096 -75.50  0.001649842    1.234    0.190
        41 -11.1460     14.2731    146.5897   1.4003801172e+02   4.2292788802e+01    0.1215772    0.1047705  20.99 0.0009504248    1.599    0.374
        42 -12.8734    105.5450    138.2153   1.1795424874e+02   3.3364071616e+01    0.4565254    0.3019415  66.89 0.0006086126    1.833    0.455
        43 -12.7068    115.4801    138.0044   1.1558502300e+02   3.1789085156e+01    0.4629428     0.294874 -38.40   0.00232737    1.861    0.463
        44 -11.6641     20.3399    141.1416   1.3831352084e+02   4.2920847739e+01     0.193069    0.1370347  55.75 0.0004773416    1.325    0.245
        45 -11.3470    160.8247    198.3346   1.1591942810e+02   1.3919735480e+01    0.1981499    0.1769172  57.62 0.0006019775    1.246    0.197
        46 -12.4543    106.0648    130.8063   1.1650090397e+02   3.4794361964e+01    0.3895947    0.3153099 -68.84  0.001352824    1.265    0.209
        47 -11.7858    108.8594    125.0098   1.1471008012e+02   3.5532570498e+01    0.2790859    0.2583594 -15.39 0.0008440612    1.237    0.192
        48 -12.5810     32.4883    132.5942   1.3475207234e+02   4.3668744269e+01    0.2822103    0.2269432  11.17  0.001956342    1.752    0.429
        49 -12.7097    119.6963    129.1906   1.1290845295e+02   3.2832628057e+01      0.38204    0.3698664 -19.33  0.001149543    1.110    0.099
        50 -12.6885    125.3825    127.0922   1.1112753175e+02   3.2245311543e+01    0.5890191    0.3640532  78.79  0.002258224    3.316    0.698
        51 -12.9132    135.7428    123.1333   1.0783401036e+02   3.1109404722e+01    0.7339527    0.2547491 -51.14  0.002503362    3.337    0.700
        52 -10.4724    132.2729    129.3373   1.0997166086e+02   3.0550298886e+01    0.1360153    0.1083342  -8.47 0.0003209653    1.604    0.377
        53 -11.5654     99.1623    126.5834   1.1741187151e+02   3.6771048181e+01    0.3046678     0.193543  51.05 0.0009613081    1.616    0.381
        54 -11.4253    113.9729    118.4975   1.1210753629e+02   3.6009700842e+01    0.2334863    0.1955565 -52.49 0.0003834306    1.186    0.157
        55 -11.3420    116.0081    115.2558   1.1089702145e+02   3.6321854834e+01    0.2441798    0.2280261  57.39 0.0007487452    1.080    0.074
        56 -13.3889     29.6857    112.4190   1.3326902357e+02   4.8293233573e+01    0.4264101    0.3487747  -0.43  0.002922672    1.720    0.419
        57 -11.1604    167.4316    113.0316   9.8292646612e+01   2.6582099886e+01    0.4011818    0.3036902  80.02  0.001870266    1.994    0.498
        58 -11.4279    160.5967    127.8209   1.0326184878e+02   2.5368988350e+01    0.3182968    0.2324008 -46.41  0.001631596    1.481    0.325
        59 -10.6918    205.4709    110.1680   8.9964416117e+01   1.8836659027e+01    0.3206393    0.1970253  38.19 0.0008750019    1.595    0.373
        60 -11.4732    176.1370    234.2522   1.1797290400e+02   7.0331820604e+00    0.1677815    0.1367823   1.49  0.001308376    1.427    0.299
        61 -12.6520     27.6912    118.2769   1.3445155909e+02   4.7173972090e+01    0.3388233    0.2075074 -36.02  0.001304632    2.342    0.573
        62 -12.1919     95.8301    110.2628   1.1504203782e+02   4.0773248657e+01     0.384763    0.2765566  12.07    0.0014995    1.994    0.498
        63 -11.3070     41.9345     91.9613   1.2686212473e+02   5.1783633200e+01     0.205288    0.1784556  35.83  0.000517975    1.355    0.262
        64 -10.8153     95.8950     80.0221   1.0768191860e+02   4.7278060612e+01    0.2269331    0.2021318  41.20 0.0004969139    1.207    0.172
        65 -10.3788    117.7981     67.0693   9.7446789413e+01   4.5780754284e+01    0.2188024     0.197665 -59.41 0.0004121591    1.231    0.187
        66 -11.0001    196.8848    246.9169   1.1617153213e+02   2.7431236113e+00    0.1754871     0.132026 -16.59  0.001383193    1.645    0.392
        67  -9.6696     13.4563    245.1796   1.4468399965e+02   2.5404410359e+01    0.2093096   0.06414753 -71.81  0.001344456    3.362    0.703
        68 -12.5770    173.1158     30.4442   7.2122713156e+01   3.8269513426e+01    0.4799876    0.3279401   4.92  0.001201492    1.674    0.402
        69 -10.1466     13.3882     59.8107   1.3065781194e+02   6.1293693829e+01    0.1680823    0.1507343  80.83  0.000470294    1.263    0.208
        70 -10.6312    135.2467     30.2659   7.9586465911e+01   4.7967020828e+01    0.2969289     0.239307  72.11  0.001479454    1.476    0.322
        71 -13.3652    137.9104    198.4019   1.2017986236e+02   1.7519286021e+01    0.5902878    0.3255487  60.97  0.003045201    2.358    0.576
