#   1 NUMBER                 Running object number                                     
#   2 MAG_AUTO               Kron-like elliptical aperture magnitude                    [mag]
#   3 X_IMAGE                Object position along x                                    [pixel]
#   4 Y_IMAGE                Object position along y                                    [pixel]
#   5 X_WORLD                Barycenter position along world x axis                     [deg]
#   6 Y_WORLD                Barycenter position along world y axis                     [deg]
#   7 A_WORLD                Profile RMS along major axis (world units)                 [deg]
#   8 B_WORLD                Profile RMS along minor axis (world units)                 [deg]
#   9 THETA_WORLD            Position angle (CCW/world-x)                               [deg]
#  10 FWHM_WORLD             FWHM assuming a gaussian core                              [deg]
#  11 ELONGATION             A_IMAGE/B_IMAGE                                           
#  12 ELLIPTICITY            1 - B_IMAGE/A_IMAGE                                       
         1 -14.7669      2.4648    130.2110   1.4338236344e+02   4.8123317741e+01     7.218462          nan -72.97   0.01421006   13.332    0.925
         2 -13.7751    199.9351     27.8963   6.6296038471e+01   3.1137603887e+01     1.666433     1.424004  18.34  0.006881611    1.491    0.329
         3 -13.7229    216.1365      8.6619   5.9676355576e+01   2.9242277849e+01    0.9627953    0.8197678  71.35  0.002660601    1.190    0.160
         4 -12.1429     84.2230    151.7877   1.2483226008e+02   3.4041461637e+01    0.2962044    0.2457041 -49.51 0.0005051515    1.320    0.243
         5 -13.1447    238.6975    248.0345   1.0837905461e+02  -9.3873984518e+00    0.6690103    0.5178251  24.59  0.004944493    1.168    0.144
         6 -14.5207      9.2535    245.2013   1.4918188415e+02   2.4213223860e+01     2.857523     1.168165  42.58   0.01819958    1.980    0.495
         7 -11.4683    198.3741    246.3932   1.1516768738e+02  -3.1547326896e+00    0.2343344    0.1281869  37.31  0.001347942    1.429    0.300
         8 -11.2859    162.1521    249.1292   1.2216796445e+02   2.2902345200e+00    0.2855894    0.1406506  43.73  0.001276683    1.589    0.371
         9 -14.8594     32.8656    228.8014   1.4432579746e+02   2.4620219498e+01    0.9831507    0.8602561 -84.46   0.00782856    1.413    0.292
        10 -10.2722     66.6560    250.2073   1.3977745308e+02   1.6619497933e+01    0.2011895     0.109679  51.93 0.0007013321    1.364    0.267
        11 -10.4257    139.4878    245.4897   1.2594487565e+02   6.4954572979e+00    0.1241278   0.09562453  47.06 -4.357082e-05    1.031    0.030
        12 -12.9509     44.6026    215.4722   1.4122197186e+02   2.5779801690e+01    0.7612501     0.461974  69.11  0.003379555    1.392    0.282
        13 -12.3670    120.4406    232.3878   1.2803806170e+02   1.1696691038e+01    0.5118138    0.1923156  40.88  0.002300754    2.176    0.541
        14 -11.7748    152.2113    249.6572   1.2407527282e+02   3.8215027205e+00     0.381983    0.1696517  38.02  0.001934864    1.824    0.452
        15 -12.4805     94.5436    228.2210   1.3264231566e+02   1.6503360422e+01    0.8014527    0.1524618  48.08   0.00258717    4.476    0.777
        16  -9.7369    175.1760    223.4046   1.1608238724e+02   3.8606522740e+00    0.1887694    0.1030296  47.99 0.0006919148    1.692    0.409
        17 -12.6409      9.6491    207.4008   1.4730634145e+02   3.1138518669e+01    0.6210406    0.4888355  26.95  0.003654975    1.787    0.440
        18 -11.0753     58.0962    212.9029   1.3836660021e+02   2.4587020584e+01    0.4029003    0.1305092  55.26  0.001664762    3.058    0.673
        19  -8.8918    152.6106    213.2302   1.1901924303e+02   9.4782998637e+00    0.1481234    0.1277478 -29.89 0.0002723653    1.406    0.289
        20 -10.3736     56.4005    205.6566   1.3805754400e+02   2.6253679158e+01    0.2262948    0.1369827  39.96  0.001320651    1.600    0.375
        21 -12.1363     57.0157    199.5223   1.3735527178e+02   2.7426323733e+01     0.275013    0.2262137  83.92 0.0004680635    1.099    0.090
        22 -10.7369      7.5026    193.2895   1.4691606824e+02   3.4149835269e+01    0.2423136    0.1326267  62.38 0.0008885048    1.501    0.334
        23 -12.3418     63.7934    190.8920   1.3502499256e+02   2.8332051928e+01    0.2534801    0.2275416  86.69 0.0004413602    1.166    0.143
        24 -11.0635     74.8491    177.7294   1.3096946142e+02   2.9618857934e+01     0.241381    0.2153916  89.34  0.000389594    1.099    0.090
        25 -13.3208     61.0500    175.9984   1.3395381065e+02   3.1922036844e+01    0.4846885    0.2761391 -47.39   0.00163628    2.261    0.558
        26 -14.5580      7.4178    152.2775   1.4409218711e+02   4.2865131618e+01     2.791358    0.8057865 -76.68    0.0120072    2.884    0.653
        27 -12.2190     67.5353    143.5524   1.2784096004e+02   3.8430723136e+01    0.6503291    0.3975126  61.43  0.002390925    1.823    0.451
        28 -10.3540    108.4410    137.5850   1.1582920900e+02   3.3129638106e+01    0.4708928      0.31822 -15.99  0.001486454    2.684    0.627
        29 -10.7643     95.2936    134.9212   1.1879131341e+02   3.6104454603e+01    0.2413631    0.2359226 -48.94 0.0003508146    1.120    0.107
        30 -12.1215    172.4942    248.2529   1.2014463228e+02   7.3906172801e-01    0.4005788    0.2481565  46.74   0.00240742    1.399    0.285
        31  -9.1936    105.9034    124.1040   1.1357551950e+02   3.6666405318e+01    0.2055784    0.1867717  76.21 0.0002764185    1.119    0.107
        32  -8.4740     68.6436    114.7581   1.2224788303e+02   4.5011363345e+01    0.1319231    0.1059233 -17.11 0.0002953188    1.589    0.370
        33  -9.0142     95.2045    172.4442   1.2542861040e+02   2.7620279658e+01    0.1914103    0.1155816  53.04 0.0007894043    1.580    0.367
        34  -8.7668     65.3738     80.5412   1.1508545292e+02   5.3182566885e+01    0.1347428    0.1216164 -47.07  0.000161216    1.048    0.046
        35 -11.0017    158.7912     76.7760   8.7310419045e+01   3.4567333655e+01    0.3560208     0.241434 -49.94  0.000805498    1.586    0.369
        36 -12.3287     83.0469    168.1281   1.2769674524e+02   3.0516840192e+01    0.7484829    0.6672532 -35.82  0.004485275    1.429    0.300
        37 -11.0510     95.6112    153.0875   1.2214159176e+02   3.1882556241e+01    0.3533402    0.3281804 -20.82  0.000860385    1.325    0.245
        38 -11.0275    125.5175    250.0000   1.2906863182e+02   8.0319206840e+00    0.4184314   0.05396447  40.69  0.001162668    5.998    0.833
        39  -9.6837     98.9542    148.6802   1.2048738122e+02   3.2312724179e+01     0.222824    0.1899215 -83.03 0.0004384239    1.173    0.147
        40 -11.8079     99.3151    247.9759   1.3370355809e+02   1.2375923567e+01     0.334602    0.2639962  14.91  0.002162955    1.967    0.492
