#   1 NUMBER                 Running object number                                     
#   2 MAG_AUTO               Kron-like elliptical aperture magnitude                    [mag]
#   3 X_IMAGE                Object position along x                                    [pixel]
#   4 Y_IMAGE                Object position along y                                    [pixel]
#   5 X_WORLD                Barycenter position along world x axis                     [deg]
#   6 Y_WORLD                Barycenter position along world y axis                     [deg]
#   7 A_WORLD                Profile RMS along major axis (world units)                 [deg]
#   8 B_WORLD                Profile RMS along minor axis (world units)                 [deg]
#   9 THETA_WORLD            Position angle (CCW/world-x)                               [deg]
#  10 FWHM_WORLD             FWHM assuming a gaussian core                              [deg]
#  11 ELONGATION             A_IMAGE/B_IMAGE                                           
#  12 ELLIPTICITY            1 - B_IMAGE/A_IMAGE                                       
         1 -14.4882    162.8936     53.7994   7.4788578884e+01   3.7522806528e+01     1.836356     1.433392  22.60  0.006034419    1.455    0.313
         2 -14.2566    175.9886     38.6654   6.7730249608e+01   3.6397792292e+01     1.029756    0.9064925  53.99  0.003303561    1.066    0.062
         3 -14.5454    194.2419      7.2996   5.6028193484e+01   3.5397644073e+01     1.212316    0.9053054  49.53  0.004959173    1.330    0.248
         4 -12.6301    153.2628    194.4619   1.1039610417e+02   1.2891972958e+01    0.3713865    0.2883905  78.21  0.001284742    1.471    0.320
         5 -18.2158     65.4384    238.2625   1.3176349119e+02   1.9206442662e+01     8.327862     5.547025 -84.16   0.05065044    1.388    0.280
         6 -10.0110    169.0965    182.5103   1.0512533289e+02   1.1978909879e+01    0.2166397    0.1273988  46.25 0.0008262845    1.537    0.349
         7 -11.7120    204.5102    199.9905   1.0137777043e+02   2.0609421594e+00    0.2788338    0.1700945  30.80  0.001390792    1.646    0.392
         8 -10.8489      2.8159    176.5444   1.3764520780e+02   3.7588914252e+01    0.1025453   0.07210472 -75.69 0.0002629059    1.248    0.199
         9 -11.2367    201.8217    169.2484   9.5978009364e+01   7.6204856470e+00    0.5463237    0.2872101 -53.57  0.002204162    2.614    0.617
        10 -11.1746    204.6635    166.3946   9.4832247621e+01   7.5191678046e+00     0.698486    0.3388723 -44.73  0.002900768    2.274    0.560
        11 -11.4203    190.1268    155.5018   9.5434867385e+01   1.2558272117e+01    0.6580533     0.442823 -49.49  0.003108671    1.643    0.391
        12 -12.3238    194.5511    167.8332   9.7127920122e+01   9.3871382218e+00    0.4125444    0.3792169 -72.91 0.0008090597    1.270    0.212
        13 -10.9905    191.5827    161.3837   9.6387859529e+01   1.1170373214e+01    0.4208184    0.2296017 -55.55  0.001687307    2.477    0.596
        14 -10.5281    163.7887    169.5154   1.0377643341e+02   1.5484895647e+01    0.3370234    0.2214142  68.32  0.001459132    1.958    0.489
        15 -11.6766    230.3524    166.9024   9.0074153779e+01   2.1669705053e+00     0.311309    0.1642567 -45.71  0.001360783    2.220    0.550
        16 -10.4859    207.5835    193.7706   9.9658871294e+01   2.4317563406e+00    0.1708337    0.1303457 -49.65 0.0005860367    1.595    0.373
        17 -10.1912    140.3413    163.0589   1.0756494764e+02   2.1474817650e+01    0.1940598    0.1779208 -69.50  0.000347317    1.119    0.107
        18 -12.0445    114.0164    161.1154   1.1302188494e+02   2.6786755102e+01    0.3853517     0.278818 -84.75  0.001275951    1.563    0.360
        19 -19.1178     42.9958    101.1783   1.1966066603e+02   4.9838890188e+01     15.03975    0.7559314 -60.56   0.02531638   16.305    0.939
        20 -11.2553    166.2158    154.4293   1.0021988670e+02   1.7908513567e+01    0.4598132    0.2969723  79.71  0.001801729    2.663    0.625
        21 -12.7469    133.9972    145.9469   1.0561887949e+02   2.6277944825e+01       1.3678    0.3307981 -54.83  0.003259243    6.388    0.843
        22 -10.8737    174.3730    148.8282   9.7275906221e+01   1.7246953661e+01     0.310218    0.2606989  82.36 0.0008923621    1.398    0.285
        23 -12.2887    193.4859    195.6754   1.0269686408e+02   4.8728825191e+00     1.166146    0.6266615 -66.05  0.003762659    5.384    0.814
        24 -12.3784    144.4221    146.2365   1.0330463415e+02   2.4124569111e+01    0.4770511    0.3406985 -82.67  0.002177205    1.897    0.473
        25 -12.0645    157.9631    200.9004   1.1051268777e+02   1.0848871827e+01    0.4675957    0.2737968 -77.66  0.001871601    3.427    0.708
        26 -12.7307    102.2595    137.8098   1.1145644082e+02   3.3851217812e+01    0.3052601    0.2735278 -63.36  0.000516917    1.079    0.073
        27 -12.7317    135.4472    125.7229   1.0087436849e+02   3.0268243976e+01     1.503259    0.2823656 -50.61  0.003277376    7.003    0.857
        28 -12.3210    105.9901    130.8500   1.0915770527e+02   3.4737702564e+01    0.4346845    0.3312832 -66.63  0.001185093    1.314    0.239
        29 -11.5737    106.6026    124.8254   1.0773680870e+02   3.5946457815e+01    0.2843624    0.2355746 -36.34 0.0007013183    1.320    0.242
        30 -11.7007    118.3096    128.9967   1.0575074305e+02   3.2922425014e+01    0.3315684    0.2477493 -36.14 0.0007264473    1.503    0.335
        31 -11.5566    160.7645    127.6772   9.5451543979e+01   2.4449145813e+01    0.4685307    0.3361619 -68.11   0.00171244    1.766    0.434
        32 -11.4662    121.8606    123.4995   1.0366001141e+02   3.3434742417e+01    0.3264782    0.2422811 -22.57  0.001026577    1.787    0.440
        33 -10.6609    112.7543    118.5168   1.0479277611e+02   3.6214012535e+01    0.2369076    0.2192997 -44.35 0.0004480219    1.092    0.084
        34 -11.2480    168.2795    113.2819   9.0242525613e+01   2.5615770427e+01     0.411362      0.30773 -83.86 0.0009682398    1.854    0.461
        35 -11.1430    134.5375    105.3096   9.6113547444e+01   3.4717179602e+01    0.6395287     0.139682 -47.01  0.001641423    4.827    0.793
        36 -10.7981    205.3970    110.3161   8.1809010460e+01   1.7393541240e+01    0.3599704    0.2461951  39.27  0.001029268    1.535    0.349
        37 -10.3886    130.4006    109.7673   9.8269647347e+01   3.4652168090e+01     0.216375    0.1386213 -35.60 0.0009536358    1.696    0.410
        38 -11.7591    152.7164    185.4791   1.0899440315e+02   1.4658487040e+01    0.2845221    0.2219139 -77.61  0.001542826    1.518    0.341
        39 -11.0694     76.5825     99.7653   1.1006442666e+02   4.6129713343e+01    0.2249963    0.1882964  37.66 0.0007225907    1.329    0.248
        40  -9.8060    124.5028     92.0555   9.5135056114e+01   3.9474671043e+01    0.2160832    0.1422149 -43.60 0.0003814203    1.490    0.329
        41 -10.6914    149.0974     80.3286   8.5734181854e+01   3.6372552381e+01    0.2131074    0.1929497  52.40 0.0004833127    1.105    0.095
        42  99.0000     11.5946    205.7296   1.3810743398e+02   3.1236013725e+01    0.2379727    0.1908091 -87.85  0.001995089    1.282    0.220
        43 -10.6910    104.9830     73.3409   9.5059058121e+01   4.6893777223e+01    0.1996569    0.1778275  26.40  0.001143341    1.148    0.129
        44 -12.0785    248.4943    244.9832   1.0123292069e+02  -1.1346424765e+01    0.2107836    0.1907851   7.82  0.001617793    1.330    0.248
        45 -11.9578    167.7553    232.6760   1.1344261728e+02   3.8903101541e+00    0.3191602    0.1992317  47.39 0.0007895367    1.299    0.230
        46 -13.5716    180.5173     31.2285   6.4769106988e+01   3.6205251632e+01    0.8107953    0.5032872  52.39  0.001467338    1.490    0.329
        47 -10.3111     13.4315     59.8661   1.2007190263e+02   6.0639690265e+01    0.1527103    0.1383991 -54.08 0.0004037629    1.210    0.174
        48  -9.2257    119.6680     24.3283   7.4861379971e+01   5.1606340993e+01      0.13064    0.1070337 -69.66 0.0007051652    1.716    0.417
