#   1 NUMBER                 Running object number                                     
#   2 MAG_AUTO               Kron-like elliptical aperture magnitude                    [mag]
#   3 X_IMAGE                Object position along x                                    [pixel]
#   4 Y_IMAGE                Object position along y                                    [pixel]
#   5 X_WORLD                Barycenter position along world x axis                     [deg]
#   6 Y_WORLD                Barycenter position along world y axis                     [deg]
#   7 A_WORLD                Profile RMS along major axis (world units)                 [deg]
#   8 B_WORLD                Profile RMS along minor axis (world units)                 [deg]
#   9 THETA_WORLD            Position angle (CCW/world-x)                               [deg]
#  10 FWHM_WORLD             FWHM assuming a gaussian core                              [deg]
#  11 ELONGATION             A_IMAGE/B_IMAGE                                           
#  12 ELLIPTICITY            1 - B_IMAGE/A_IMAGE                                       
         1 -12.1669    164.7805     59.1115   4.8391804256e+01   3.6078821499e+01     2.552491     1.342313 -32.01  0.009969633    2.071    0.517
         2 -13.0136    178.1552     77.6077   5.0931168422e+01   2.9964727318e+01     1.980681     1.207851  42.62  0.002436983    1.900    0.474
         3 -10.8831    233.3771     32.2655   3.3283165323e+01   2.4510344150e+01     2.504226      1.20736 -41.53  0.008862355    1.815    0.449
         4 -13.4822    218.3423     75.5914   4.4239285876e+01   2.1444769429e+01     3.148379     1.685493 -44.87   0.01535305    1.643    0.391
         5 -12.1159    250.0276     27.3819   3.0994961607e+01   2.1866654208e+01    0.9196506    0.3208155 -33.11  0.001858919    3.128    0.680
         6 -12.2891    135.3473     38.3184   4.7888658411e+01   4.5996086477e+01    0.8237798    0.6212071 -33.78  0.003311355    1.439    0.305
         7 -13.8489    241.2710    106.7076   4.7924417527e+01   1.1841950587e+01     5.146841     1.120421 -39.24   0.01635445    3.908    0.744
         8 -13.0657    247.1198     83.5766   4.2388180378e+01   1.4538515006e+01     1.693769     1.176366 -55.56   0.01012291    1.247    0.198
         9 -11.0129    134.1892     21.0949   4.2754967228e+01   4.8253158292e+01    0.3900867    0.3259014  20.78  0.001697445    1.394    0.282
        10  -9.3396    224.0470     18.7491   3.1310170659e+01   2.8037493340e+01    0.2944856    0.2714254   1.14  0.001488583    1.628    0.386
        11  -9.8675    204.3839     15.7207   3.2359646667e+01   3.2558411571e+01    0.3961698    0.2940619 -44.00  0.001612566    1.359    0.264
        12 -10.9958    142.2241     14.5800   3.9454380352e+01   4.7002654377e+01    0.6281347    0.2711619 -35.64  0.002663866    2.449    0.592
        13 -10.4416    143.2413      9.3568   3.7768001002e+01   4.7247619997e+01    0.4121146    0.3046863  14.89  0.001447794    1.796    0.443
        14  -9.7426    144.0000      4.9597   3.6385547507e+01   4.7453021638e+01    0.4156561    0.1928665 -23.36  0.002021593    2.578    0.612
        15  99.0000    213.2139     26.5344   3.3908982649e+01   2.9408144896e+01      1.94137    0.9432869 -42.81  0.004621803    1.855    0.461
        16  -9.4967    112.7762      2.6788   4.0620859273e+01   5.4887574140e+01    0.3443944    0.2311729 -53.34  0.001968892    1.860    0.462
        17 -11.8456    118.9223     10.0213   4.1960747761e+01   5.2876369390e+01    0.6776271    0.5090859  44.11  0.002986247    1.245    0.197
        18 -10.2439    125.9232     13.8613   4.1940529155e+01   5.0904617029e+01    0.3182554    0.2693534 -78.11  0.001564077    1.297    0.229
        19 -11.5864    247.1419      7.9578   2.7578124716e+01   2.4663313162e+01    0.3097982    0.2755974   8.35  0.001407855    1.935    0.483
        20 -10.0927    250.6570      1.6792   2.6237557373e+01   2.4675529215e+01    0.1669256    0.1487914  82.24  0.001308498    1.435    0.303
        21  -7.9788    164.5226      8.5635   3.4770221095e+01   4.2327288219e+01    0.1254141    0.1051734  81.31 9.581093e-05    1.018    0.018
        22  -9.3501     93.1568      7.1668   4.6362123327e+01   5.8910151369e+01    0.1614893    0.1435917  82.04 0.0005913777    1.313    0.239
        23  -9.3622    236.5007      2.9209   2.7303286200e+01   2.7257722291e+01    0.5553057    0.2227687  73.05  0.003009652    2.281    0.562
        24  -8.8807    243.2636      1.3525   2.6602230584e+01   2.6109242172e+01     0.233609     0.111446 -88.39  0.001188941    1.941    0.485
        25  -8.2567    150.2322      4.1977   3.5344888749e+01   4.6057690222e+01    0.1824183    0.1515669  61.68 0.0007814688    1.138    0.121
        26  -9.4631    105.4725      2.4849   4.1947067133e+01   5.6556243649e+01     0.278216    0.1715173 -68.63  0.001398703    2.456    0.593
        27  -9.0392     92.9629      1.7115   4.4315515293e+01   5.9382888933e+01     0.183054    0.1429258  52.12  0.001175508    1.064    0.060
        28  -7.4143    159.3614      1.2818   3.3452106941e+01   4.4176946256e+01    0.1266507   0.07886024  49.39 0.0007016178    1.676    0.403
        29 -11.6606     33.0238    152.7571   1.0849710607e+02   3.9366162335e+01    0.6386845    0.5956525  89.49  0.001593211    1.083    0.077
        30  -8.5666    247.4884    250.4655   7.4434537690e+01  -1.2121460098e+01    0.1144593   0.08516484  -3.89  0.000189555    1.050    0.048
        31  -7.9931    229.5166    250.4718   7.7624238380e+01  -1.0065024992e+01    0.1190045   0.09015876  -0.26 0.0002295483    1.015    0.015
        32 -11.1663     39.8417    149.9177   1.0612594095e+02   3.9399580765e+01    0.7087246    0.5251851 -87.72  0.003170105    1.346    0.257
        33 -11.6928     46.4782    147.6021   1.0381537781e+02   3.9268465498e+01     1.006226    0.6763326 -75.48  0.002812757    1.438    0.305
        34  -8.6077     42.0326    246.9730   1.1557812894e+02   1.6244903683e+01    0.1452775    0.1152702  61.54  0.000411261    1.015    0.014
        35 -13.0044    184.1704     95.4424   5.4379903760e+01   2.5439310328e+01     2.275578    0.9847457 -46.75  0.008683587    2.257    0.557
        36  -9.2353    189.4380    237.8883   8.3271289025e+01  -2.9487243601e+00    0.2880269     0.255353  87.19   0.00135216    1.907    0.476
        37 -10.3315    209.6886    232.1023   7.8297091492e+01  -4.8598223025e+00    0.2196423    0.1847679  -5.02  0.000369836    1.091    0.084
        38 -11.6027    226.8539     89.0591   4.6089880756e+01   1.7526908077e+01     1.147131    0.3885872 -52.79  0.003829913    3.730    0.732
        39  -8.8281    177.0540    231.9772   8.4852381210e+01  -1.5318467090e-01    0.1912686    0.1686085  10.35 0.0003680695    1.066    0.062
        40  -8.9059    178.8991    227.3073   8.3694282052e+01   3.7864661300e-01    0.2193456    0.1782525 -23.46 0.0003283301    1.215    0.177
        41 -12.5090    245.7468     59.7629   3.7692906315e+01   1.8374773506e+01    0.6288297    0.3989607 -77.01  0.002409779    1.678    0.404
        42 -13.4477    243.0266     55.6071   3.7122700083e+01   1.9487194742e+01     2.602721    0.5092097  56.29  0.008863217    5.413    0.815
        43  -8.1635    193.3167    155.6576   6.6759848812e+01   1.1686468839e+01    0.1453056    0.1174702 -76.84  0.000704864    1.713    0.416
        44  -8.1913    206.0848    154.4822   6.3990427912e+01   9.5623428586e+00    0.2018187    0.1428491  40.39 0.0007562618    1.546    0.353
        45  -7.7516    203.5061    151.4974   6.3838161693e+01   1.0613886132e+01    0.1447953    0.1314021 -36.89 0.0008097076    1.069    0.065
        46  -9.8045    176.5864    149.3028   6.8869807097e+01   1.6221729264e+01     0.262767    0.2559196 -27.52 0.0003017423    1.059    0.055
        47  -9.9951    249.9646    143.7466   5.4313730340e+01   4.0559972189e+00    0.3868819    0.2030772 -44.09  0.001717243    1.629    0.386
        48  -9.2362    133.8531    147.0164   7.8571835264e+01   2.5280435306e+01    0.5415706    0.2149071 -56.74  0.001649817    3.221    0.690
        49  -8.4845    181.8596    146.2783   6.7051413485e+01   1.5812363142e+01    0.2874208    0.1857634 -19.76 0.0008043058    2.021    0.505
        50 -11.5612     65.1297    142.7824   9.7359900177e+01   3.8178998868e+01     1.289817    0.9064636  48.25   0.00624946    1.543    0.352
        51  -8.5573    120.0106    145.9786   8.2025589837e+01   2.8218919689e+01    0.2228352    0.2142487 -35.73  0.001160503    1.024    0.023
        52  -7.9900    192.3721    144.1825   6.4407454359e+01   1.4177120585e+01    0.2086962    0.1303577 -50.37 0.0004060957    1.629    0.386
        53  -8.9564    144.2155    139.1609   7.4095978757e+01   2.5018725985e+01    0.5139283    0.2717648 -65.45  0.001620166    3.366    0.703
        54  -9.5815    180.7852    139.3946   6.5702230014e+01   1.7457710834e+01    0.2608095    0.2002869  31.57  0.001081158    1.424    0.298
        55  -8.8475    205.6559    136.4350   6.0106862348e+01   1.3135771935e+01    0.2460986    0.1445134  51.36 0.0009013209    1.966    0.491
        56  -7.8740     82.9021    136.1856   9.0606758892e+01   3.7233949739e+01     0.203387    0.1743768 -18.96 0.0003262062    1.295    0.228
        57  -9.0916    136.1415    129.4734   7.3813257785e+01   2.8904290671e+01    0.4489839    0.1082599 -49.91  0.001099091    4.599    0.783
        58  -8.8600    161.1783    128.5357   6.7444694107e+01   2.3832594492e+01    0.3148163    0.2556471 -73.60  0.001497055    1.491    0.329
        59 -10.5847    184.8128    123.1851   6.1055277652e+01   1.9941231694e+01     0.525186    0.3893689 -44.72  0.002581751    1.266    0.210
        60  -8.4522    135.0000    119.9769   7.1717454641e+01   3.1299775283e+01    0.2630467   0.08870305 -45.64 0.0007965734    2.902    0.655
        61 -12.6037    232.7457     69.8288   4.1182335996e+01   1.9413317401e+01     1.000481    0.7936881  41.29  0.003607722    1.698    0.411
        62  -7.9117    164.0559    120.0000   6.4680795985e+01   2.5030870220e+01    0.2544927   0.08906665  46.92 0.0008068951    2.973    0.664
        63  -8.3194     69.0343    114.0057   9.0035288503e+01   4.4935658579e+01    0.2119891    0.1973515 -45.32  0.001165332    1.019    0.019
        64  -9.5418    134.7780    111.5841   6.9580790651e+01   3.3206705830e+01    0.5350485    0.1653079 -44.72   0.00159353    3.179    0.685
        65 -10.2484    205.3798    110.1783   5.4161378049e+01   1.8170546287e+01    0.3850292     0.312289  24.02    0.0020454    1.547    0.354
        66  -8.7605    149.9098    103.6695   6.3711552856e+01   3.1547119727e+01    0.2857077    0.2533825 -11.42 0.0007232418    1.251    0.201
        67 -10.1039    120.7795    102.3628   7.0837227190e+01   3.8208886478e+01    0.3764974    0.2837097  13.94  0.001692544    1.670    0.401
        68  -9.4464    135.9553     99.4032   6.5968389383e+01   3.5540255438e+01    0.3839558    0.2924192  76.82  0.001410725    1.712    0.416
        69 -10.0120    161.1035     99.1351   5.9967076625e+01   2.9931252267e+01    0.5312453    0.2830317  38.68  0.002070166    2.215    0.549
        70 -10.3497     87.4454     96.0632   7.9175537637e+01   4.6162993361e+01    0.2563495    0.2282876  26.18 0.0002986992    1.140    0.123
        71  -9.4749    144.0748     94.3658   6.2563749454e+01   3.4737975702e+01    0.3393423     0.298966 -66.88 0.0007296583    1.219    0.179
        72  -7.9247     99.1446     95.6503   7.5309059171e+01   4.4069889526e+01    0.2086836     0.140621  28.05  0.000221664    1.628    0.386
        73 -10.4479    159.7085     90.4219   5.7940844680e+01   3.1924342043e+01    0.3474993    0.2799506 -26.40 0.0006239988    1.356    0.263
        74  -9.8803    126.9350     90.3783   6.5752334363e+01   3.9375911218e+01    0.3899826    0.2183802 -45.32 0.0008296499    1.807    0.447
        75 -11.6700    250.0151     40.7958   3.3557493548e+01   2.0169762111e+01    0.7930375    0.3624631 -35.62  0.002988845    2.134    0.531
        76 -10.1375    197.1234     77.2570   4.7683045364e+01   2.5735833675e+01    0.4881819    0.2966436  52.79  0.002363026    1.749    0.428
        77 -10.1508    196.4973     84.2376   4.9476934254e+01   2.4699708035e+01     0.349021    0.2725305  45.06 0.0009669982    1.456    0.313
        78 -10.3811    202.1503     82.1975   4.8092569954e+01   2.3809925932e+01    0.4553049    0.4247867  11.65  0.002706566    1.323    0.244
        79  -9.5175    147.3589     76.4665   5.6751752600e+01   3.7338973173e+01     0.311753    0.2375631 -64.54 0.0009201432    1.511    0.338
        80  -7.6353     79.7563     76.9717   7.6033532560e+01   5.1603615923e+01    0.1869275     0.118814 -41.96 0.0006692847    1.535    0.349
        81  -7.6926    136.4087     75.4602   5.8980509776e+01   4.0060907440e+01      0.14483    0.1436101  34.77  4.99934e-05    1.018    0.017
        82 -10.6963    183.3559     59.0496   4.5290740727e+01   3.1735999984e+01    0.6231829    0.4395799  54.83  0.003291659    1.452    0.311
        83  -8.2045    190.2610     35.3100   3.8413356188e+01   3.3419932072e+01    0.1658245     0.109583 -46.81 0.0001515638    1.453    0.312
        84  -9.0921    189.6454     49.8791   4.2067431932e+01   3.1621266470e+01     0.414444    0.3060077 -45.74  0.002283821    1.309    0.236
        85 -10.0511    188.5712     44.8364   4.0966574234e+01   3.2562924628e+01    0.5246531    0.4039027 -58.08     0.003049    1.228    0.186
        86  -9.5114    184.0976     40.5061   4.0488849646e+01   3.4169969981e+01     0.351357    0.2567168 -68.07  0.001254368    1.352    0.261
        87  -9.9987    185.9263     36.0932   3.9148487731e+01   3.4314992983e+01    0.4014486    0.2897119 -82.11 0.0008604684    1.363    0.266
        88 -11.6600    150.6949     46.9700   4.7530821219e+01   4.1195489848e+01    0.7874435    0.5486783 -77.77  0.002998492    1.777    0.437
        89 -10.7435    141.3440     41.8632   4.7792770971e+01   4.4113796184e+01    0.4547696    0.3572544 -80.05  0.001818551    1.448    0.309
        90  -8.0737    248.2902    224.6584   6.9943358149e+01  -8.6982950301e+00    0.1025239   0.09172408 -38.33 0.0007024564    1.649    0.393
        91  -8.1426    198.8261     41.0417   3.8745031816e+01   3.0743812483e+01    0.1712723    0.1465785 -51.72 0.0004773017    1.161    0.139
        92  -9.3762    162.9727     38.1953   4.2952271138e+01   3.9431246734e+01    0.4516862    0.1695826 -35.58  0.001789234    2.670    0.625
        93 -10.5559    120.6685     39.4322   5.1394628510e+01   4.9291064077e+01     0.357033    0.3226548  14.39  0.002135205    1.177    0.150
        94  -9.5311    203.2789     37.7829   3.7464213304e+01   3.0176947087e+01    0.4450069    0.2193357 -68.18  0.001947484    2.542    0.607
        95  -9.1138    203.9792     32.2299   3.6112281131e+01   3.0724157313e+01    0.2279562     0.154201 -51.43 0.0004538056    1.354    0.261
        96  -8.6315    124.6596     32.7196   4.8307550665e+01   4.9200798608e+01    0.1411277    0.0938433  35.19 0.0002484149    1.626    0.385
        97  -8.3391    179.7552    222.7526   8.2744585270e+01   1.0502661080e+00    0.1934967    0.1607082  -0.36 0.0004991292    1.099    0.090
        98  -7.3196    159.3788     26.2791   4.0217527445e+01   4.1714195292e+01    0.1364345   0.08991186  42.96 0.0007007316    1.711    0.415
        99 -10.1566    146.4473    216.2744   8.8939049325e+01   7.5682316400e+00    0.2490694     0.234915 -14.39 0.0003293648    1.093    0.085
       100  -9.6218    237.2751     22.6487   3.1045905084e+01   2.4905235667e+01    0.2176636      0.15496 -50.65 0.0003128154    1.232    0.188
       101 -11.3115     31.7291    210.2156   1.1489177187e+02   2.5346019213e+01    0.7169279    0.6265367  72.63  0.002852204    1.074    0.069
       102 -11.2414    127.9797     22.4926   4.4332439087e+01   4.9569808698e+01     0.484476    0.2312917  54.97  0.002269782    1.781    0.439
       103  -9.6657    130.5255     18.4856   4.2589598556e+01   4.9381155279e+01    0.2259863    0.2007657 -29.63  0.001188422    1.284    0.221
       104  -8.9932     92.1391     22.2420   5.2407741416e+01   5.7694655552e+01    0.2558798    0.1772733 -28.24 0.0009010809    1.593    0.372
       105  -8.0733     98.0983    211.2530   9.9480140707e+01   1.6366663402e+01     0.186697    0.1607613  48.30 0.0002793027    1.080    0.074
       106  -9.5180    244.2442     18.6100   2.9753856587e+01   2.4017404243e+01    0.1978426    0.1501548 -58.69 0.0004046769    1.110    0.099
       107  -8.9120    247.0918    209.8206   6.7508968110e+01  -6.3587193046e+00    0.2596076    0.1918439  51.54  0.001360835    2.315    0.568
       108  -8.9016    169.1806    202.0618   8.1355791332e+01   6.6332086894e+00    0.2195935    0.1893271  22.78 0.0002820509    1.101    0.091
       109 -10.1570    235.9329    196.8171   6.7042617104e+01  -2.8238565953e+00    0.4266654     0.251077  42.81  0.002255563    2.121    0.529
       110  -9.3977    192.4933    193.8649   7.4805056135e+01   4.3325304836e+00    0.8150564    0.4256466 -63.87  0.002266772    6.492    0.846
       111  -7.7928    154.6688    199.2976   8.4120849241e+01   9.6575190607e+00     0.141372    0.1142708  67.75 0.0004860298    1.642    0.391
       112  -9.1163     30.4998    197.6357   1.1407926428e+02   2.8421709481e+01     0.212236    0.1899402 -70.73  0.001375157    1.203    0.169
       113  -9.5874     51.3314    192.4950   1.0851493043e+02   2.7301172583e+01    0.3610973    0.1978266  50.84  0.001709994    1.804    0.446
       114  -9.2604    222.0423    186.4571   6.7559857530e+01   9.6725942986e-01    0.2773799    0.2167972  60.05   0.00147944    1.985    0.496
       115  -8.4248    245.3030     14.0049   2.8814738700e+01   2.4341847308e+01    0.1554114     0.114837 -59.41 0.0004737955    1.105    0.095
       116  -8.8157     32.9761    182.0434   1.1196022422e+02   3.1952621362e+01    0.1924434    0.1662885 -86.44            0    1.031    0.030
       117  -8.3771    155.2030    178.6345   8.0042401076e+01   1.3972263959e+01    0.3480385    0.2236872  80.74  0.001145785    3.963    0.748
       118  -7.8551    103.5787    176.7361   9.2652074840e+01   2.3614469369e+01    0.2037037    0.1440661 -74.51 0.0005056476    1.639    0.390
       119  -9.7448    237.5104    175.1784   6.2590894397e+01   5.7850509032e-01    0.2910859    0.2275079  72.69  0.001366969    2.314    0.568
       120 -10.7555      2.4091    166.8547   1.1823708886e+02   3.8401455015e+01     0.742596    0.2539319 -77.12  0.003125227    2.441    0.590
       121  -8.9615    194.2919    171.2538   6.9888118546e+01   8.4003114425e+00     0.223192    0.1737912 -87.96  0.001048516    2.162    0.537
       122  -7.3621    128.7338    170.7138   8.4956766540e+01   2.0646458174e+01    0.1490793    0.1184686 -15.48 0.0001857367    1.495    0.331
       123  -9.4967    230.8025    167.0431   6.2118409264e+01   3.0299312975e+00    0.2028913    0.1718172 -46.35  0.001153475    1.283    0.221
       124  -7.6706    203.5128    160.5632   6.5789221882e+01   8.8478093570e+00    0.1437836    0.1291154 -23.10 0.0001806714    1.008    0.008
