#   1 NUMBER                 Running object number                                     
#   2 MAG_AUTO               Kron-like elliptical aperture magnitude                    [mag]
#   3 X_IMAGE                Object position along x                                    [pixel]
#   4 Y_IMAGE                Object position along y                                    [pixel]
#   5 X_WORLD                Barycenter position along world x axis                     [deg]
#   6 Y_WORLD                Barycenter position along world y axis                     [deg]
#   7 A_WORLD                Profile RMS along major axis (world units)                 [deg]
#   8 B_WORLD                Profile RMS along minor axis (world units)                 [deg]
#   9 THETA_WORLD            Position angle (CCW/world-x)                               [deg]
#  10 FWHM_WORLD             FWHM assuming a gaussian core                              [deg]
#  11 ELONGATION             A_IMAGE/B_IMAGE                                           
#  12 ELLIPTICITY            1 - B_IMAGE/A_IMAGE                                       
         1 -14.6393    168.8824     32.9306   7.9203657946e+01   3.8954099397e+01     1.354103    0.9416975   6.48  0.004105129    1.649    0.394
         2 -13.1702    172.5959     25.5090   7.6073226108e+01   3.8875929609e+01    0.5866409    0.4232194   5.05  0.001456617    1.531    0.347
         3 -12.9849    184.5435      2.2928   6.6821606088e+01   3.8071127831e+01     0.731303    0.3038324  74.01  0.002927131    2.474    0.596
         4 -12.1605     30.8511    207.5055   1.4873040169e+02   2.8364810753e+01    0.3221671    0.1997908   3.76  0.001427873    2.950    0.661
         5 -17.4615     15.7120    108.8648   1.4570499539e+02   5.0174098932e+01     2.891947      1.65998 -71.00   0.01638086    1.454    0.312
         6 -19.9128     57.6487    172.5493   1.4072986288e+02   3.2247239020e+01      16.4806      3.84547 -70.38   0.05950096    4.648    0.785
         7 -11.5825    130.4086    205.8040   1.2884642194e+02   1.7040735443e+01     0.204613    0.1722995  44.96 0.0006983511    1.156    0.135
         8 -13.9464    196.8047    196.9290   1.1488752992e+02   8.6940160376e+00     0.626123    0.3974223  32.72  0.001836195    1.342    0.255
         9 -12.7243    189.7017    187.6558   1.1466049315e+02   1.0957632448e+01    0.5379966     0.309901 -40.43  0.003008627    2.054    0.513
        10 -11.3482    141.1637    197.6674   1.2564393437e+02   1.6773283331e+01    0.1740325    0.1630934  64.93 0.0006157847    1.305    0.234
        11 -12.1969    181.1571    195.1707   1.1748723616e+02   1.1233480099e+01     0.294734    0.2506121  81.80  0.001260831    2.166    0.538
        12 -10.7654    134.9146    195.3613   1.2659181615e+02   1.8034380802e+01    0.2257847    0.1591216 -85.41  0.001248553    2.474    0.596
        13 -17.0748     82.9077    196.9368   1.3753824027e+02   2.4720797562e+01     3.062787     1.339486  63.63   0.01280372    3.833    0.739
        14 -12.6493    207.8754    185.9317   1.1105375542e+02   8.4323104932e+00    0.3539724    0.2289487  14.16  0.001590043    1.393    0.282
        15 -12.5382    212.3763    182.6158   1.0967340333e+02   8.1692670388e+00    0.3268312    0.2025443   9.50  0.001148294    1.575    0.365
        16 -10.8179    158.2527    186.0406   1.2049647109e+02   1.6014549146e+01    0.1795468    0.1478959  85.70  0.001076383    1.984    0.496
        17 -12.2538     39.4443    183.5375   1.4562186219e+02   3.1951264679e+01    0.2321727      0.17325 -76.53   0.00103897    1.361    0.265
        18 -11.0412      1.2058    229.9518   1.5479480608e+02   2.7127862054e+01    0.1115465   0.06206853 -84.14 0.0008579208    1.803    0.445
        19 -11.8118    199.4303    179.1523   1.1138348182e+02   1.0596523283e+01      0.30986    0.2190244 -42.58  0.001033033    1.852    0.460
        20 -10.4445     26.8246    179.9398   1.4809097880e+02   3.3801481107e+01    0.1413956    0.1341947  69.52 0.0005984372    1.249    0.199
        21  -9.7991     17.6357    180.5249   1.5006271420e+02   3.4459955945e+01    0.1035612    0.0849504  76.12 0.0002621885    1.087    0.080
        22 -11.9319    137.1187    170.8343   1.2249029317e+02   2.1789181882e+01    0.1994972    0.1707032  51.56 0.0008816822    1.253    0.202
        23 -11.8229    146.2702    169.8498   1.2034807504e+02   2.0506193881e+01    0.1954434    0.1749322 -84.16  0.001220116    1.492    0.330
        24 -10.2928    123.6507    166.3259   1.2475814744e+02   2.4694125399e+01    0.1325286    0.0962073  64.96 0.0007049004    1.755    0.430
        25 -11.9837    104.2018    162.3447   1.2863880792e+02   2.8364205635e+01    0.2175467    0.2081792  54.50 0.0003048062    1.043    0.041
        26 -12.8978    185.9171    221.5335   1.2051732018e+02   7.2348459874e+00    0.3304684    0.1697625  14.00  0.001725926    2.443    0.591
        27 -13.5726    107.6865    155.0026   1.2668093722e+02   2.9302661413e+01    0.5675087    0.3534058 -38.47  0.002883961    1.903    0.475
        28 -14.2160     24.3056    152.2039   1.4690946250e+02   3.9691927212e+01    0.7730629    0.5909263   4.80   0.00380096    1.778    0.438
        29 -13.1675    134.0093    145.9520   1.1880467641e+02   2.6845538912e+01     0.993425     0.270837 -53.64  0.002769593    5.686    0.824
        30  -9.9743     11.6822    223.6628   1.5285025391e+02   2.7300568750e+01   0.08046407   0.07164682 -46.69 0.0007048827    1.702    0.413
        31 -12.1275    143.2457    144.7417   1.1642166850e+02   2.5479173176e+01    0.2432387    0.1764797 -46.65  0.001290429    1.484    0.326
        32 -12.7546    115.3344    139.8635   1.2217711412e+02   3.1168054804e+01    0.4575284    0.2228598 -40.14  0.001929105    2.369    0.578
        33 -12.7916    105.3317    140.1879   1.2476258869e+02   3.2694639454e+01    0.3331262     0.245467  43.74 0.0004440697    1.322    0.243
        34 -11.6764     34.5083    134.0969   1.4277993303e+02   4.2824373195e+01    0.1994139     0.168158  38.59 0.0003002837    1.271    0.213
        35 -12.5422    106.0422    130.6964   1.2281183421e+02   3.4591230791e+01    0.4583425    0.3543656  73.24  0.002403487    1.616    0.381
        36 -11.5769    108.6402    126.6591   1.2132338350e+02   3.5031161564e+01    0.2747242    0.2334257 -16.63 0.0007841309    1.325    0.245
        37 -12.1608    119.8375    130.4718   1.1919399429e+02   3.2344484729e+01    0.2844879    0.2564983  17.76 0.0008331127    1.115    0.103
        38 -13.2415     93.0732    124.5097   1.2511669870e+02   3.7970714565e+01    0.4717463     0.348138 -78.79  0.001384106    1.596    0.374
        39 -12.1013    135.1436    121.8725   1.1346967228e+02   3.1344818836e+01    0.5319769    0.1384705 -50.50  0.001408362    5.203    0.808
        40 -11.2452    160.5887    127.8020   1.0885466989e+02   2.5397482520e+01    0.2017795    0.1335933 -48.33  0.000955998    1.724    0.420
        41 -10.3707    143.9394    128.4836   1.1283514875e+02   2.8417346049e+01    0.2045325    0.1359756  39.50  0.000317105    1.465    0.317
        42 -12.2933    125.4534    127.1614   1.1707226657e+02   3.2043605391e+01    0.4376506    0.2862059  72.14  0.001792303    2.757    0.637
        43 -11.4426    113.8311    119.1614   1.1834980854e+02   3.5753565542e+01    0.2075646    0.1953718  75.72  0.000402486    1.165    0.142
        44 -18.0192     86.5938    177.6710   1.3470586988e+02   2.7798107512e+01     7.325913     2.766377  55.61   0.02704889    4.054    0.753
        45 -11.0159    205.3921    110.1251   9.5556458553e+01   1.9467158749e+01    0.2430265    0.1810267  26.84  0.000674685    1.324    0.245
        46 -11.7365    166.1757    208.6232   1.2231168824e+02   1.1601209987e+01    0.2667456    0.1725348  38.23  0.001684536    1.348    0.258
        47 -10.0364     14.0222     59.1715   1.3973150059e+02   6.2361094741e+01    0.2209948    0.1088482 -39.16  0.001077077    2.064    0.516
        48 -13.8380    156.8250     48.6564   8.6857249630e+01   3.9870884806e+01    0.5648407    0.5473655 -23.11  0.001054759    1.077    0.071
        49 -11.8974    140.1663    218.2915   1.2847314451e+02   1.3877854676e+01    0.4067142    0.2652768 -89.00  0.002082564    3.721    0.731
        50 -10.9728      1.6890    248.0475   1.5510274324e+02   2.4360648640e+01    0.1107023   0.08078036  72.59  0.001037185    1.238    0.192
