#   1 NUMBER                 Running object number                                     
#   2 MAG_AUTO               Kron-like elliptical aperture magnitude                    [mag]
#   3 X_IMAGE                Object position along x                                    [pixel]
#   4 Y_IMAGE                Object position along y                                    [pixel]
#   5 X_WORLD                Barycenter position along world x axis                     [deg]
#   6 Y_WORLD                Barycenter position along world y axis                     [deg]
#   7 A_WORLD                Profile RMS along major axis (world units)                 [deg]
#   8 B_WORLD                Profile RMS along minor axis (world units)                 [deg]
#   9 THETA_WORLD            Position angle (CCW/world-x)                               [deg]
#  10 FWHM_WORLD             FWHM assuming a gaussian core                              [deg]
#  11 ELONGATION             A_IMAGE/B_IMAGE                                           
#  12 ELLIPTICITY            1 - B_IMAGE/A_IMAGE                                       
         1 -12.4128     60.2244     44.8711   1.0102721228e+02   6.0132731055e+01    0.8963127     0.476541 -37.66  0.004706166    1.792    0.442
         2 -12.2924    119.1219     58.3588   8.7625153301e+01   4.7257853348e+01     2.207491     1.364335 -59.52  0.009576781    2.403    0.584
         3 -12.5781    131.0140     13.8538   7.0725151581e+01   5.0128156393e+01     1.834518    0.8769657  70.00   0.00836588    2.182    0.542
         4 -11.3900    138.0063     21.7540   7.1859853164e+01   4.7740826191e+01     1.330071    0.3759676  49.63  0.004879987    3.023    0.669
         5 -10.3462    147.5271     16.4339   6.8594165279e+01   4.6056173065e+01    0.4580173    0.3645461  64.86   0.00279814    1.084    0.077
         6 -12.4372    124.5848     27.4736   7.6359494315e+01   5.0190002982e+01      1.40024    0.8786928  26.75   0.00400357    1.895    0.472
         7 -11.9088    182.2288     25.4801   6.5837495878e+01   3.6784465882e+01    0.7268075    0.3155054  47.75   0.00203766    2.600    0.615
         8 -11.5588    178.0707     21.6399   6.5422012379e+01   3.8221100149e+01     0.666121    0.4392953  17.70  0.003248125    2.533    0.605
         9 -10.1841    139.7278     31.9701   7.4646913423e+01   4.6204303941e+01    0.5811341    0.3676016  -6.42   0.00279436    2.232    0.552
        10 -12.2884    104.9526     12.9290   7.5855912344e+01   5.5922892178e+01    0.5029986    0.4028592 -32.56  0.003232437    1.454    0.312
        11 -11.9836    105.6388     33.1918   8.2764370278e+01   5.3625582597e+01     1.006601     0.517939  11.26  0.003454606    4.494    0.777
        12 -11.8731    105.9939     20.3545   7.8211166432e+01   5.4986224914e+01    0.3934174    0.2551098 -26.63 0.0005593275    1.692    0.409
        13 -10.0226     60.5883     23.3686   9.2718564914e+01   6.3029953680e+01    0.5490971      0.24109 -26.06  0.002707795    2.355    0.575
        14 -11.8678     26.5064     27.5833   1.0777121771e+02   6.6864029442e+01      0.45833     0.387928   8.54  0.003091235    1.294    0.227
        15 -12.4671     18.8255     22.7716   1.0924701932e+02   6.8298309946e+01    0.4800546    0.3650523  -5.28  0.001773324    1.103    0.093
        16 -12.8777     15.2540     13.2336   1.0696246055e+02   6.9931699682e+01    0.7854743    0.4833495 -21.88  0.002273896    1.295    0.228
        17 -11.5858    154.0199     25.1954   7.0036580062e+01   4.3599915593e+01    0.6491937     0.480042  23.24  0.003232376    1.710    0.415
        18 -11.9154     22.6762     11.0333   1.0261838003e+02   6.9475406700e+01    0.4962352    0.2884792  -0.61   0.00272878    1.673    0.402
        19 -10.1545     86.9253      7.1598   7.8203609829e+01   6.0061507773e+01    0.5539338    0.2681712  50.75  0.002333584    1.741    0.426
        20 -11.4907     90.3416     20.0720   8.2142497803e+01   5.8176529810e+01    0.4938671    0.4259047   2.32  0.002769793    1.147    0.128
        21 -11.2576     86.1893     14.0963   8.1041857849e+01   5.9573793729e+01    0.7636493    0.3902034  17.31  0.003515607    2.721    0.633
        22  -9.9877     31.9069     12.1357   9.9078762385e+01   6.8304354121e+01    0.1754014    0.1534403  35.49 0.0004464335    1.700    0.412
        23 -10.9479     47.1120     18.6450   9.5734528069e+01   6.5573945016e+01    0.3352169    0.2633255  -2.41  0.001668873    1.052    0.050
        24 -10.8768     38.8470     21.5609   1.0020489277e+02   6.6297227338e+01    0.3810048    0.1716558 -31.57  0.001308046    2.046    0.511
        25 -11.7130     35.7292     18.6673   1.0027801696e+02   6.7048051576e+01    0.5935166    0.2377144 -25.32  0.002767454    2.709    0.631
        26 -12.1204     49.1086     12.9808   9.2584932858e+01   6.5938559822e+01    0.6226345    0.2970848  43.66  0.003427556    2.158    0.537
        27 -12.0970     69.1992     18.5690   8.7886624969e+01   6.2180718377e+01    0.6775949    0.4120835  41.45  0.004015002    1.495    0.331
        28 -12.5742    237.3658     15.7918   5.7663960124e+01   2.5182535893e+01    0.6953409    0.4672818  89.26  0.004302676    1.266    0.210
        29 -11.0536    165.3163     17.2681   6.6064784479e+01   4.1748718287e+01     0.411515    0.2396359  41.60  0.001265157    1.966    0.491
        30 -10.4613    199.7367      5.9085   5.9056160774e+01   3.4760301838e+01    0.4719021    0.1730103  74.83  0.001020067    2.452    0.592
        31 -11.3198    205.2818      2.3497   5.7719283105e+01   3.3839173757e+01    0.3998098    0.2098518  85.96 0.0009557408    1.735    0.423
        32 -10.0370    191.7257     16.4946   6.2408677953e+01   3.5527150610e+01    0.2623533    0.2276002  12.87  0.001647892    1.605    0.377
        33 -10.5252    186.6237     14.9042   6.2632236930e+01   3.6908984174e+01    0.2767627    0.2114375  57.83 0.0007882903    1.304    0.233
        34 -11.6623    192.2415      8.0419   6.0337782075e+01   3.6293219296e+01    0.6124393    0.3832842  -3.09   0.00306741    2.848    0.649
        35 -10.0090    185.8389      8.4969   6.1163677540e+01   3.7753969335e+01    0.4420495    0.1844819 -59.69  0.001800618    3.147    0.682
        36 -10.2642     62.8637      6.3993   8.4963663829e+01   6.4459586318e+01    0.2998305    0.1715476   8.42  0.001408115    1.927    0.481
        37  -9.8364    219.8328     12.3733   5.8523933085e+01   2.9463203905e+01    0.2268194    0.1335087  68.00  0.001274754    1.538    0.350
        38 -11.7320    211.6022      9.8568   5.8762476041e+01   3.1611917314e+01    0.3876383    0.3318542  11.35  0.001226751    1.786    0.440
        39  -9.6761      4.4986     10.4317   1.1090984961e+02   7.1214250795e+01    0.3261322    0.1387288 -24.09  0.001842859    2.252    0.556
        40  -9.4941      5.1999      5.9309   1.0861695844e+02   7.1746787571e+01    0.2086861    0.1038751 -37.64 0.0008702847    1.761    0.432
        41  -9.9025    157.2401      9.5368   6.5129270924e+01   4.4426798714e+01    0.3635113    0.1134954 -39.36   0.00145905    3.357    0.702
        42 -10.0799    151.4754      7.2409   6.5337149994e+01   4.5991382784e+01    0.4575499    0.1783014  61.95  0.001571261    2.043    0.511
        43 -10.8237     66.8956     10.3633   8.5307177909e+01   6.3411028005e+01    0.4711623    0.1582957  44.09  0.002178697    2.506    0.601
        44 -12.0056    239.7785      7.5427   5.5837857903e+01   2.5616059814e+01    0.5996243    0.2118634 -63.53  0.002435467    3.337    0.700
        45 -11.8086    246.0381      7.3360   5.5319584258e+01   2.4311113630e+01    0.3768931    0.2841255 -36.73  0.001710705    1.599    0.374
        46 -11.3623    242.1134      3.8828   5.4954214469e+01   2.5527017355e+01    0.3856171    0.1928736  82.74  0.002137515    1.755    0.430
        47 -10.2781    168.9622      9.9541   6.3615285478e+01   4.1610349114e+01    0.3124124    0.1585644  54.58  0.001561026    1.775    0.437
        48  -9.8306    157.8480      2.6657   6.3165170908e+01   4.4895879640e+01    0.3102922    0.2020685  61.13  0.001790976    1.286    0.222
        49  -9.3313    163.0006     10.0039   6.4438147810e+01   4.3020099604e+01    0.1974229    0.1556737  52.17 0.0006972436    1.244    0.196
        50 -10.0625    162.9367      5.6063   6.3269679794e+01   4.3441472483e+01    0.3108026    0.2222705   6.70   0.00160517    1.990    0.498
        51  -9.5726    162.6825      1.2889   6.2157101326e+01   4.3879649258e+01    0.2233117    0.1077537  75.67 0.0005303549    1.882    0.469
        52  -8.7367     82.0021      1.0000   7.7126977952e+01   6.1503464462e+01    0.2620212   0.05720649  55.97 0.0007660047    3.984    0.749
        53 -10.9534     77.3133      5.0322   8.0002115912e+01   6.2052035286e+01    0.4461966    0.2571779 -17.26  0.002633155    1.848    0.459
        54 -10.4049     72.0894      3.0953   8.0732227148e+01   6.3158751538e+01    0.3523117    0.2123985  19.06  0.002108399    1.633    0.388
        55 -10.2153      1.3038      7.2634   1.1114335213e+02   7.1877188415e+01    0.1636708   0.07153554 -38.05 0.0002494116    1.851    0.460
        56 -10.7124     42.3006      3.6179   9.1060561030e+01   6.7873150257e+01     0.445049    0.2181061   2.77  0.002218815    2.819    0.645
        57 -10.8662    218.7468      2.8548   5.6616515504e+01   3.0736232701e+01    0.2862599    0.2336277  89.13  0.001027674    1.092    0.084
        58 -10.4606    228.3156      3.6643   5.5982918558e+01   2.8528758876e+01    0.2631582    0.1906322 -63.23  0.001133964    1.205    0.170
        59 -10.9417    224.2259      1.7394   5.5926851444e+01   2.9633452098e+01    0.4133984    0.2235782  83.87  0.001967799    1.589    0.371
        60 -10.5608    173.8206      4.4359   6.1577838504e+01   4.0979574096e+01    0.5021777    0.1927104  74.86  0.002132051    2.449    0.592
        61 -12.1617    133.8484      2.6008   6.6754101688e+01   5.0455101630e+01    0.3661251    0.2241686  60.58 0.0005316212    1.337    0.252
        62  -9.4381    123.1221      1.1195   6.8150268497e+01   5.2979607341e+01    0.3935407   0.07582651  65.75  0.001136926    5.396    0.815
        63 -10.9033    113.6311      2.2891   7.0329907890e+01   5.4968247555e+01      0.51761    0.2284486  66.17  0.002332005    2.185    0.542
        64 -10.6745    106.2241      1.9408   7.1730786377e+01   5.6575305561e+01    0.8290781    0.2362529  63.61  0.003082403    3.563    0.719
        65  -9.3466     21.5222      3.4626   9.9718768109e+01   7.0484170151e+01    0.1613943    0.0884856 -38.56  0.001014884    2.137    0.532
        66 -10.4283    142.0170      3.7231   6.5771378727e+01   4.8492889780e+01    0.4355258    0.1910404  64.95  0.002070816    1.883    0.469
        67 -11.3522      2.6798      1.8512   1.0804497704e+02   7.2460771839e+01    0.3302272    0.1487903  13.95  0.002028143    2.256    0.557
        68  -9.2926    239.7838    146.6089   8.5595842919e+01   3.5836472534e+00    0.1773852    0.1365542  62.40 0.0006732968    1.575    0.365
        69  -9.4454    108.6943    146.0149   1.1417370889e+02   3.1065736324e+01    0.2126234    0.1863358 -63.34  0.001101663    1.092    0.084
        70 -10.7777     33.1871    144.3524   1.3398624182e+02   4.2289847863e+01    0.2696864    0.2246606 -86.60 0.0007782815    1.107    0.097
        71  -9.6841    133.6489    140.4138   1.0649730960e+02   2.7463004908e+01    0.3525696    0.1914751 -42.32  0.001374715    1.917    0.478
        72 -11.2502     71.9856    134.0001   1.2163687911e+02   4.0071553774e+01    0.7314464    0.3658562 -40.31  0.002953882    2.371    0.578
        73 -12.1554     29.8449    132.8830   1.3316451894e+02   4.5340789041e+01    0.6203489    0.3362451 -81.07  0.000425908    1.958    0.489
        74 -10.0551     26.5291    139.5701   1.3504316878e+02   4.4064984352e+01    0.2062927    0.1555625 -68.79 0.0009865052    1.078    0.072
        75 -11.7932     22.9595    135.4641   1.3540322749e+02   4.5352483504e+01    0.5803354    0.4263944  52.82  0.003259011    1.546    0.353
        76 -10.6855     81.0600    135.6690   1.1944795488e+02   3.8304032084e+01    0.5558291    0.3929897  -9.34  0.002500094    2.243    0.554
        77 -10.7890     47.0849    135.1618   1.2879917643e+02   4.3009434040e+01    0.4120486    0.2003721 -48.32   0.00135603    1.962    0.490
        78  -9.8282     62.5845    131.6625   1.2381926255e+02   4.1939766068e+01    0.4554091    0.1510647 -52.59  0.001678044    2.577    0.612
        79 -11.1375     92.8128    129.3299   1.1480045981e+02   3.7905814315e+01     0.429646     0.313768 -68.02  0.001670265    1.436    0.304
        80 -10.7981     10.7906    127.3378   1.3752918399e+02   4.8209565146e+01    0.4687126    0.1447317 -55.35  0.001599788    2.427    0.588
        81 -10.0193     78.7128    128.2415   1.1853617219e+02   4.0453140982e+01     0.273434    0.2283716 -43.07 0.0005948861    1.189    0.159
        82 -10.0383     81.6889    125.6746   1.1712472851e+02   4.0602357870e+01    0.4380901    0.2543063 -19.17  0.001497422    3.761    0.734
        83 -10.7945    239.7312    123.5400   8.0586008099e+01   7.8283448165e+00    0.5063529    0.1562028 -36.88  0.001648325    3.288    0.696
        84 -10.5830     18.5237    124.6132   1.3502217797e+02   4.8255390872e+01    0.4043733    0.1378859 -58.22  0.001376548    2.166    0.538
        85  -8.8893     22.6841    126.7534   1.3419183160e+02   4.7417650481e+01    0.1200706   0.08262122 -41.34  0.000257298    1.518    0.341
        86  -9.5689      2.0972    125.4385   1.3960738055e+02   4.9229470428e+01    0.2536899    0.1415076 -77.03  0.001453486    1.492    0.330
        87 -11.0030     55.7561    123.1191   1.2409248176e+02   4.4855689863e+01    0.6060503    0.3410652  27.10  0.002536187    2.122    0.529
        88 -10.5905     45.7147    120.3646   1.2649343799e+02   4.6681627326e+01    0.3744422    0.2676109  86.10  0.001369294    1.711    0.415
        89 -11.7364    104.7920    121.2671   1.0956163945e+02   3.7659974790e+01      0.52583    0.5012248  61.72  0.001859327    1.091    0.083
        90  -9.7202      4.4908    121.6978   1.3847394440e+02   4.9927683567e+01      0.23797      0.15597  64.74  0.001434639    1.823    0.451
        91  -9.4424    221.4808    120.4984   8.2915112966e+01   1.2195484973e+01    0.1484333    0.1345815 -57.19 0.0002124841    1.034    0.033
        92  -9.7079    148.9169    119.4665   9.7602659581e+01   2.8882697364e+01    0.3387186    0.2279423  15.38  0.001283323    2.486    0.598
        93  -9.4367     72.8540    119.8258   1.1838071985e+02   4.3326611246e+01    0.2162783    0.1798261 -31.04 0.0005513633    1.284    0.221
        94 -12.5516     34.0661     94.0847   1.2467322804e+02   5.3839923390e+01     1.702275     1.217986 -29.63   0.01016282    1.418    0.295
        95 -12.1984     40.0061     85.6563   1.2070250347e+02   5.5064730122e+01     1.923481    0.4815909  26.63  0.006649792    4.789    0.791
        96 -12.0901      9.8323     97.3982   1.3314382950e+02   5.5019866122e+01    0.9280508      0.61845  87.26  0.005473177    1.868    0.465
        97 -12.3859      7.4350     88.9678   1.3236865348e+02   5.6990342678e+01    0.4710024    0.4127764 -45.15 0.0007801375    1.141    0.123
        98 -12.0852     28.8556    112.9423   1.3010737313e+02   5.0084621468e+01    0.8015596    0.5999342  56.95   0.00405784    1.631    0.387
        99 -11.1409     21.3755    114.3153   1.3256687896e+02   5.0401187079e+01    0.3009314    0.2300836  -2.93  0.001093599    1.671    0.401
       100 -12.5316     25.7692    107.4521   1.3003240407e+02   5.1602558495e+01    0.9954687    0.4957271 -25.20  0.004396349    3.080    0.675
       101 -12.3263     20.3808     95.4617   1.2942054105e+02   5.4703632571e+01    0.5125166    0.3405975   4.00  0.001759926    1.890    0.471
       102 -12.4395     18.4974     90.1390   1.2895975195e+02   5.5999171629e+01    0.4090658    0.2252068 -51.29 0.0003878571    1.417    0.294
       103  -8.9567     81.4962    117.5143   1.1531569972e+02   4.2552782994e+01     0.145096    0.1336107 -50.02 1.628769e-05    1.015    0.015
       104  -9.8687    114.0316    115.9803   1.0569182602e+02   3.7092607488e+01     0.227265    0.2196528 -33.83 0.0003713928    1.048    0.046
       105  -9.7013     88.1360    114.7227   1.1270566154e+02   4.2119856494e+01    0.2962239    0.1891603  49.95 0.0006802932    1.771    0.435
       106 -10.7068     67.1137    111.9132   1.1829532360e+02   4.5986780253e+01    0.5172526    0.2837017 -59.97  0.001944448    1.770    0.435
       107 -12.3096     18.7499    106.2628   1.3195993739e+02   5.2431861218e+01     0.308832    0.2218394 -50.83 0.0002757673    1.167    0.143
       108 -11.6264      2.3631    112.2332   1.3775352866e+02   5.2192771104e+01    0.3845347    0.3249049  68.52 0.0008742778    1.384    0.277
       109 -10.5771      5.7679    108.6239   1.3623341452e+02   5.2793395704e+01    0.2193185    0.1621617 -59.47 0.0005098218    1.061    0.058
       110 -11.7772      3.9594    105.0760   1.3621845368e+02   5.3691211171e+01    0.3923403    0.3084414 -31.81  0.001673479    1.382    0.277
       111  -9.7963    126.9205    114.0023   1.0172861695e+02   3.4895083982e+01    0.2297034    0.2258742 -51.66 0.0003869932    1.016    0.016
       112 -10.4784    108.0039    112.5393   1.0647382921e+02   3.9043393919e+01    0.4599315    0.3125673 -86.42  0.001682355    2.441    0.590
       113 -11.0608    102.5000    109.0845   1.0713126516e+02   4.0857980719e+01    0.5731002    0.4657592   2.03  0.002863086    1.518    0.341
       114 -11.0475    170.4268    110.1530   9.0279478050e+01   2.5890881502e+01    0.5473915    0.4333443  41.28  0.001972855    1.344    0.256
       115  -9.8226     93.8760    111.7823   1.1030504987e+02   4.1809785006e+01    0.2885035    0.2252652 -65.20  0.001450074    1.368    0.269
       116  -9.9244     48.8600    112.0601   1.2388176066e+02   4.8262381902e+01    0.2112037    0.2009907  40.39  0.001355635    1.210    0.174
       117 -11.2805     79.3505    108.6711   1.1382174337e+02   4.4922136625e+01    0.6475478    0.4356086  51.30  0.003005955    1.745    0.427
       118 -11.2415     86.6416    104.7659   1.1064354316e+02   4.4621629215e+01     0.695188    0.3714071  28.28  0.002682249    2.303    0.566
       119  -9.4508     81.9688    102.8312   1.1155158637e+02   4.5815355636e+01    0.2714508    0.1846884 -33.55  0.000717289    1.547    0.354
       120  -9.7626    120.1196    109.1258   1.0225418423e+02   3.7386328225e+01    0.2356302    0.2097976 -13.34 0.0006421047    1.249    0.199
       121  -9.6727    248.3302    108.3370   7.5975202738e+01   8.8298661700e+00    0.1338934    0.1087659  -1.61  0.000705204    1.734    0.423
       122 -10.4820    157.6463    105.9710   9.2040351847e+01   2.9739694748e+01    0.3786744    0.2899862 -19.22  0.001240723    1.638    0.390
       123 -10.2851    143.4502    105.7098   9.5335141639e+01   3.3057913329e+01    0.3269513     0.320987 -73.36  0.001204231    1.004    0.004
       124 -11.1765    145.4881    100.1275   9.3332290993e+01   3.3745954406e+01    0.4998054    0.4761831  55.55  0.002540061    1.049    0.047
       125 -10.5552     51.9920     98.8512   1.1994928447e+02   5.0886567680e+01    0.6022965    0.1416724 -49.70  0.002028675    3.358    0.702
       126 -10.0228     57.5201    102.5394   1.1906652730e+02   4.9388599567e+01    0.3294119    0.1288509 -60.41  0.001133554    2.706    0.630
       127 -10.3587     57.4716     97.8227   1.1794311903e+02   5.0441599742e+01    0.2808942    0.2243925 -61.64 0.0008469452    1.252    0.201
       128 -10.5507     67.0244     99.5670   1.1534156922e+02   4.8784047758e+01    0.4137811    0.2780364  51.41  0.002075823    1.848    0.459
       129 -10.8935     68.4293     95.7628   1.1392121922e+02   4.9417032037e+01    0.3296683    0.2836604   7.28 0.0009229596    1.262    0.208
       130 -10.7611     48.1003    103.0934   1.2216939889e+02   5.0391313079e+01    0.2312536    0.1989508 -33.82 0.0003830627    1.135    0.119
       131  -9.3174     96.0411    100.0269   1.0659418725e+02   4.4029182656e+01    0.2146355    0.1703155  -6.82 0.0003593942    1.528    0.346
       132  -9.5929    210.4884     98.0066   7.9519005729e+01   1.8860495691e+01    0.2338503    0.1386567 -41.98   0.00103533    1.599    0.375
       133 -10.0901     67.6457     71.2547   1.0722465077e+02   5.4516531613e+01    0.7418644    0.2722493 -38.74  0.002877404    2.724    0.633
       134  -9.8090     77.8442     97.1047   1.1131604333e+02   4.7721272457e+01     0.198592    0.1822772 -65.26 0.0003191173    1.173    0.148
       135 -11.4412     81.7599     92.7112   1.0890932003e+02   4.8037912860e+01    0.6738932    0.4686952  49.85  0.002856235    1.676    0.403
       136 -11.1768     89.3154     90.0974   1.0585213466e+02   4.7315816858e+01    0.4672105    0.2990991 -37.17  0.001690477    1.541    0.351
       137  -9.9604     92.8987     85.7678   1.0351691698e+02   4.7565518821e+01     0.245097    0.2231324  29.93 0.0004785446    1.127    0.113
       138 -11.5518     79.5180     82.8901   1.0682562125e+02   5.0422170466e+01    0.8712042    0.5967397 -67.23  0.004149112    2.058    0.514
       139 -11.2232     66.6276     81.8672   1.1071185484e+02   5.2587182679e+01    0.4892372    0.3677569   7.25  0.002700017    1.506    0.336
       140 -11.1323     72.3548     78.7348   1.0791584039e+02   5.2369510579e+01    0.6432885    0.3117995 -34.19  0.002729033    2.244    0.554
       141  -9.5298    140.7733     96.2093   9.3404008079e+01   3.5613121817e+01     0.217388    0.1868921  10.24  0.001075112    1.378    0.274
       142 -10.1508     42.4533     95.0592   1.2214724195e+02   5.2790184740e+01     0.281574    0.2309023 -46.73  0.001102749    1.033    0.032
       143  -9.7359    138.0438     93.4785   9.3317298567e+01   3.6776428670e+01    0.3918129    0.2475971  24.85  0.001288655    2.304    0.566
       144 -10.3641    117.4922     92.9944   9.8533028969e+01   4.1337094745e+01    0.4263555    0.2724699  37.19  0.001310777    1.652    0.395
       145 -11.0024    120.9641     89.9927   9.6735180270e+01   4.1212582134e+01    0.4490991    0.2906775  25.96  0.001691986    1.988    0.497
       146 -10.5204    126.1296     93.1479   9.6264712195e+01   3.9476646551e+01    0.4085186    0.3718366 -83.93  0.001147497    1.218    0.179
       147 -10.5229    122.4847     93.5134   9.7333026680e+01   4.0183707279e+01    0.2996466    0.2392773 -32.56 0.0007729594    1.292    0.226
       148 -11.0341    102.1510     90.2891   1.0208323185e+02   4.4941443002e+01    0.5891045     0.499524  11.74  0.001989372    1.291    0.225
       149  -9.3213    160.5139     93.5164   8.8065111612e+01   3.1547244731e+01    0.2716972    0.1488339  63.86  0.001027993    2.198    0.545
       150 -10.3502    152.7844     91.9591   8.9378530067e+01   3.3674090714e+01      0.41951    0.3315347  40.12  0.001782234    1.328    0.247
       151 -10.2889    183.9547     86.5521   8.1416549812e+01   2.7223679688e+01    0.5137826    0.2273051 -47.81  0.001905986    2.318    0.569
       152 -10.9258    113.3134     84.2461   9.7147798878e+01   4.3935157628e+01    0.6919969    0.3227227 -35.27  0.002630383    2.357    0.576
       153 -10.9778    108.6506     80.9915   9.7485690424e+01   4.5505919728e+01    0.3970037     0.325269 -18.99  0.001674048    1.302    0.232
       154  -9.3575     67.3753     88.3187   1.1227112941e+02   5.1153021799e+01     0.215159    0.1462358 -23.10  0.001078563    1.673    0.402
       155  -9.1226    212.4685     87.4513   7.6666427542e+01   2.0303868704e+01    0.1442523    0.1346701 -70.05 0.0001745674    1.050    0.048
       156  -8.7866    135.2786     86.3520   9.1984863526e+01   3.8789377136e+01     0.152127    0.1198872   2.10 0.0007010377    1.647    0.393
       157 -10.5647    119.8399     85.1735   9.5638890098e+01   4.2395442923e+01    0.4104719    0.2298073  39.14  0.001729268    1.872    0.466
       158 -10.4536    165.4995     83.1584   8.4182164109e+01   3.2295061942e+01    0.4305383    0.3284684 -57.40  0.001679677    1.377    0.274
       159 -11.1779    143.5385     83.3305   8.9114548047e+01   3.7469839370e+01    0.4719034    0.3640684 -23.73    0.0016075    1.482    0.325
       160 -10.3407    127.8206     83.4943   9.3046397351e+01   4.0993829470e+01    0.3740693    0.2391094  34.10  0.001645342    1.759    0.431
       161 -11.5296     52.8971     76.2626   1.1375949993e+02   5.5536816334e+01    0.7334192    0.3527912 -51.59  0.003450957    1.945    0.486
       162 -11.0738     58.5621     78.2553   1.1238408354e+02   5.4418194143e+01    0.4378375    0.2995839 -56.64 0.0007940056    1.559    0.359
       163  -9.6497    239.9981     82.4992   7.1498668432e+01   1.5006321212e+01    0.1825853    0.1124455  37.59 0.0008103066    2.521    0.603
       164 -10.0638    104.2483     77.0413   9.7548595164e+01   4.7123964932e+01    0.4657694    0.2682636 -26.64  0.001978224    2.115    0.527
       165 -10.1865     21.8500     72.2168   1.2372350005e+02   5.9473208339e+01    0.4407491    0.2248719  38.76   0.00122665    2.561    0.610
       166 -11.9630     13.8424     74.4469   1.2714187735e+02   5.9609792991e+01    0.4898218    0.3273053 -51.61  0.002097405    1.181    0.153
       167 -12.0070      2.0136     71.4741   1.3070820126e+02   6.0924231383e+01    0.6660284    0.1425682 -60.46  0.002679854    3.268    0.694
       168 -11.2489     14.1790     66.3963   1.2508326275e+02   6.1192875055e+01    0.2861777    0.2195818 -54.87 0.0009710212    1.212    0.175
       169 -11.9654      6.6010     62.6696   1.2700307808e+02   6.2404758418e+01    0.7521022    0.2039453 -45.26  0.003429416    2.584    0.613
       170 -11.6604     12.4975     62.1896   1.2464593999e+02   6.2123762982e+01    0.2933239     0.194419   3.76 0.0002949353    1.685    0.407
       171 -10.3929     94.0620     76.3983   1.0036046193e+02   4.9177525891e+01    0.5709896    0.3858049  33.09  0.001956757    1.530    0.347
       172 -11.7550     85.5526     73.7808   1.0217545509e+02   5.1181826852e+01    0.6567791    0.5918763 -42.26  0.003902687    1.160    0.138
       173 -11.8723     78.7442     67.3514   1.0232683975e+02   5.3509321174e+01     1.870368    0.8290958 -51.77  0.007399858    2.850    0.649
       174 -11.0830     91.7017     62.4755   9.6668610885e+01   5.2103349346e+01    0.3634596    0.3259946  15.43   0.00128373    1.055    0.052
       175 -10.8771     91.1757     58.0682   9.5374866756e+01   5.2933053533e+01    0.3817833    0.2970915  21.35  0.001155074    1.286    0.223
       176 -11.1112     87.5604     56.7214   9.6035425543e+01   5.3811139975e+01    0.9686207    0.5719116 -47.82  0.004688116    1.969    0.492
       177 -12.1010     74.5041     49.4662   9.7735867551e+01   5.7211985375e+01    0.6236215    0.5145426  36.94  0.001859663    1.277    0.217
       178 -11.0524     72.3674     46.1612   9.7281448663e+01   5.8067935948e+01    0.2792362     0.200249 -35.92  0.001627749    1.408    0.290
       179  -9.1645    134.2458     77.3892   8.9635862055e+01   4.0688133500e+01    0.2042351    0.1400687  61.24 0.0004263832    1.582    0.368
       180  -9.4195    126.9228     76.6735   9.1262600489e+01   4.2454360676e+01    0.2061334    0.1857243  49.58 0.0004132708    1.098    0.089
       181  -9.1697     46.8069     77.0185   1.1608968433e+02   5.6108254539e+01    0.1649832    0.1545427 -73.88  0.001081634    1.323    0.244
       182 -10.2755    241.5086     76.4771   6.9985649699e+01   1.5676398612e+01    0.2393652    0.1269071  77.70  0.001037608    2.400    0.583
       183 -12.0936    186.2678     70.3477   7.6794602150e+01   2.9473895638e+01     0.831269    0.6231491 -48.22  0.003170108    1.321    0.243
       184 -11.2569     33.4056     71.6026   1.1937339860e+02   5.8590619519e+01    0.5382908    0.2777394  21.22   0.00282728    2.223    0.550
       185 -10.4283     38.4780     73.5079   1.1806713875e+02   5.7711326023e+01    0.2424288    0.1852274 -15.19  0.000678669    1.311    0.237
       186 -11.2479     41.8214     71.0111   1.1617264711e+02   5.7852287222e+01    0.4516299    0.2610063 -46.67  0.002082154    1.483    0.326
       187  -9.6299     60.8315     72.9874   1.1006694279e+02   5.5149789644e+01    0.2048181    0.1781201  22.81 0.0003849833    1.226    0.184
       188 -11.6530    122.5265     68.4437   8.9899712028e+01   4.4865360902e+01    0.6171502    0.4352202  49.29  0.002192674    1.383    0.277
       189 -10.3779    129.4565     65.3639   8.7208088416e+01   4.3847611615e+01    0.5715686    0.3112842 -59.72  0.002118764    3.033    0.670
       190 -10.2184    161.8840     70.4009   8.1411829958e+01   3.5396308005e+01    0.3590266    0.2660711  82.51  0.001310574    1.562    0.360
       191 -10.5959    172.0423     67.6422   7.8659458797e+01   3.3384737554e+01    0.4196639    0.3008342 -52.42  0.001685176    1.440    0.306
       192 -11.5166    219.8605     66.3363   7.0585617882e+01   2.2134504690e+01    0.5981923    0.3305578  64.79  0.002224261    1.811    0.448
       193  -9.7570    208.3690     68.0462   7.2642558971e+01   2.4542491805e+01    0.3014006    0.1875587  48.14  0.001415779    1.819    0.450
       194  -9.7681    192.4312     65.7384   7.4569393993e+01   2.8728778446e+01    0.2879188    0.2076292 -76.67 0.0009690085    1.527    0.345
       195  -9.5225     25.8284     65.2390   1.2042625598e+02   6.0518467812e+01    0.1639752      0.13624 -42.00 0.0004170348    1.110    0.099
       196  -9.9685     21.0113     65.0053   1.2216812408e+02   6.0959232097e+01    0.1846256    0.1384284 -34.80 0.0009247744    1.084    0.078
       197  -9.8990    204.5268     63.9257   7.2220263779e+01   2.6111114007e+01    0.2212211    0.1784988  59.43  0.001205213    1.270    0.213
       198 -10.4687     98.2433     62.7504   9.4799322075e+01   5.0826058124e+01    0.3729245    0.2580055   5.65  0.001730178    1.881    0.468
       199 -10.7853     58.3140     61.7481   1.0745610914e+02   5.7584158798e+01    0.4571406     0.321436 -45.49  0.001811409    1.413    0.292
       200 -10.1390    142.9667    249.5033   1.2399446151e+02   2.3861671340e+00    0.2068667      0.10988  41.65  0.001035137    1.596    0.374
       201 -11.0715     60.7043     36.7932   9.7888269603e+01   6.1256186104e+01    0.3028547    0.1950197 -28.62  0.001016189    1.465    0.317
       202  -9.4702    198.2924     62.8608   7.2910434691e+01   2.7770832259e+01     0.238715    0.1607014 -58.04   0.00095827    1.501    0.334
       203 -10.6426    159.1565     61.9295   7.9583351541e+01   3.7433286453e+01    0.4979559    0.2638222  43.10  0.002067472    2.060    0.515
       204 -10.2699    106.0113     62.5305   9.2492683637e+01   4.9331417598e+01    0.3538239    0.2419088 -74.52   0.00150441    2.760    0.638
       205  -9.2569    213.3465    248.3186   1.1016809693e+02  -9.0421647471e+00    0.1297925   0.08500568   7.83  0.000704886    1.728    0.421
       206  -9.7481    175.0102    246.4967   1.1725100032e+02  -2.5352920331e+00    0.2066893    0.1108632  40.01   0.00103613    1.600    0.375
       207  -9.4348    157.3321    246.6705   1.2076251721e+02   4.3573216156e-01    0.1315923   0.09402201  66.88 0.0007051875    1.719    0.418
       208 -10.1357    199.0360    244.5003   1.1226401248e+02  -6.2057348307e+00    0.2008232    0.1099007  38.32  0.001036145    1.601    0.375
       209 -12.6671    117.5463     42.8045   8.2996114060e+01   4.9865416163e+01    0.7446632    0.5841327 -83.37  0.003844861    1.780    0.438
       210 -12.9663    120.5492     39.1310   8.1067473516e+01   4.9690178062e+01    0.7941026    0.5540463 -67.45  0.002392157    2.144    0.533
       211 -12.0338     26.1163     55.5158   1.1751803252e+02   6.2315539258e+01    0.8690471    0.6114478  -2.53  0.004875016    1.456    0.313
       212 -11.2940     34.2076     42.3661   1.1002413109e+02   6.3796461161e+01    0.5851435    0.4119065  -3.84  0.002962741    1.347    0.258
       213 -12.1482     49.1965     59.9762   1.1016815633e+02   5.9078198374e+01    0.7068455    0.5507519  72.78  0.002506079    2.380    0.580
       214 -11.2958     40.0753     55.7656   1.1222012416e+02   6.0888329682e+01     0.459645    0.3543745 -51.55  0.002149113    1.444    0.308
       215 -10.3513     26.0726     48.0853   1.1521821297e+02   6.3638167865e+01    0.2514074    0.1648839  -9.09 0.0003849445    1.531    0.347
       216 -10.7576     21.1705     47.7148   1.1707932908e+02   6.4130503194e+01    0.3550354    0.2196841 -39.19   0.00145667    1.292    0.226
       217 -11.6227     45.9204     49.0586   1.0777894643e+02   6.1367378967e+01    0.4323649    0.3046395  -1.80   0.00139059    1.426    0.299
       218 -12.0978     41.7057     45.4242   1.0813733853e+02   6.2466386239e+01    0.3843339    0.2797427  10.49 0.0003232154    1.336    0.252
       219 -10.1918    235.0585     74.4986   7.0387846585e+01   1.7398391378e+01    0.1960037    0.1313344  68.20 0.0005415918    1.541    0.351
       220  -9.9012    147.5218     60.5675   8.1606974986e+01   4.0435922606e+01    0.3528814    0.1391465  58.01  0.001254248    2.528    0.604
       221  -9.6963    228.7538     59.3929   6.7835995581e+01   2.1188986791e+01    0.1869626    0.1197899  58.87 0.0004681229    1.630    0.387
       222 -11.3974    157.2355     55.5668   7.8156424631e+01   3.8874521928e+01    0.6070544    0.3564615 -38.97   0.00128984    1.776    0.437
       223 -10.7829    155.4479     49.9762   7.6903550210e+01   4.0122010065e+01    0.4341828    0.2921223   0.95  0.001515691    2.364    0.577
       224  -9.6305    139.4791     43.8025   7.8306338682e+01   4.4770280764e+01    0.4552571    0.2186408  62.81  0.001902725    2.132    0.531
       225 -10.8538    136.8228     56.0482   8.2621612530e+01   4.3640249038e+01    0.7731622    0.6079322  22.94  0.004054003    1.461    0.315
       226 -10.2383    145.5075     52.0427   7.9517183787e+01   4.2200144726e+01    0.2816369    0.2717904 -55.38  0.001094268    1.100    0.091
       227 -11.4492    146.0456     46.2624   7.7686192814e+01   4.2890023023e+01    0.6592891    0.3595197 -28.26  0.002799652    2.095    0.523
       228  -9.7853     52.0384     47.8285   1.0505949723e+02   6.0796581422e+01    0.4012397    0.3089932 -53.60  0.002204305    1.701    0.412
       229  -9.3651      1.7520     56.3786   1.2730465104e+02   6.3880691105e+01    0.1365844   0.09060612 -15.41 0.0004836093    1.520    0.342
       230  -9.3937    187.4019     55.2715   7.2708577604e+01   3.1570489858e+01    0.2634633    0.1557974  54.18  0.001228251    1.654    0.396
       231 -10.0006     67.0901     54.8316   1.0209744133e+02   5.7519377311e+01    0.2333651    0.2008349 -47.68 0.0007978205    1.384    0.278
       232  -9.3785     13.8316     54.1429   1.2195126413e+02   6.3544972195e+01    0.1616137    0.1350044 -45.44 0.0003692461    1.205    0.170
       233 -10.0292    249.4040     53.0829   6.4103284496e+01   1.7622736634e+01    0.2763145    0.1752255  88.22  0.000588291    1.612    0.380
       234 -10.8807    240.0190     50.5354   6.4583318537e+01   2.0010603452e+01    0.3262423     0.278466 -53.67  0.001249915    1.185    0.156
       235 -10.2666    244.7062     50.9565   6.4162481426e+01   1.8934702531e+01    0.2818136     0.206907 -71.06  0.001364097    1.192    0.161
       236 -10.8951    127.1760    241.8259   1.2610226038e+02   6.4459846600e+00    0.2350923    0.1881061 -62.91 0.0006182434    1.408    0.290
       237 -11.0854    201.8997     47.7626   6.8667665247e+01   2.9164511634e+01    0.6439601     0.425018 -46.08  0.003354887    1.486    0.327
       238  -9.3014     54.8516     51.1699   1.0518344481e+02   5.9875660412e+01    0.1663049    0.1236473  -4.50 0.0004168461    1.308    0.236
       239  -9.8303     17.7603     41.9780   1.1663806792e+02   6.5394475650e+01    0.2957771    0.1563092  -3.85      0.00163    2.280    0.561
       240 -10.0364     11.1789     49.3799   1.2164690812e+02   6.4594865759e+01    0.3620795      0.13894 -27.34  0.001477994    3.166    0.684
       241  -9.5762     14.4841     45.4919   1.1912131387e+02   6.5046287293e+01    0.1989794    0.1240553 -29.79 0.0009055292    1.314    0.239
       242 -11.1222    173.8922     48.1273   7.3048522981e+01   3.5902919447e+01    0.5057268    0.3450896  75.64  0.001706281    1.471    0.320
       243 -10.0024    176.6441     43.3467   7.1316847538e+01   3.5892082367e+01    0.2824967    0.2177025 -86.06  0.001107771    1.328    0.247
       244  -9.4781      2.6765     48.8250   1.2495091829e+02   6.5226024101e+01    0.2230085    0.1701519  13.08  0.001657518    1.524    0.344
       245  -9.8514      4.4429     44.2041   1.2290897816e+02   6.5947890888e+01    0.3951219    0.1787089 -20.85  0.002083488    2.473    0.596
       246  -9.6793     90.7100     48.1475   9.2147010684e+01   5.4563455060e+01    0.2199998    0.1799027  55.56  0.001277752    1.428    0.300
       247  -9.4297    193.1805     45.7228   6.9402682383e+01   3.1547860407e+01    0.2219877    0.1579811  89.64  0.000799158    1.422    0.297
       248  -9.1090    132.2273     45.5459   8.0421743550e+01   4.6212394129e+01    0.1962621    0.1183559  45.04 0.0005185706    1.568    0.362
       249  -9.9031    161.9251     43.6076   7.3884538060e+01   3.9438159879e+01     0.437791    0.2094971  70.69  0.001751506    2.359    0.576
       250 -11.4528    156.0746     41.8651   7.4453694114e+01   4.1084183794e+01    0.3726318    0.3329645 -44.16 0.0009672667    1.207    0.171
       251 -10.7233    153.2819     36.1029   7.3305884088e+01   4.2493989174e+01    0.2631513    0.2445088 -42.80 0.0003727811    1.182    0.154
       252 -10.3928    100.6655     43.3333   8.7599997481e+01   5.3324307194e+01     0.331127    0.2702059 -78.46  0.001319005    1.820    0.451
       253 -11.1054     93.6825     41.3303   8.8889498334e+01   5.4970294189e+01    0.5077893     0.270861  43.25  0.001705544    1.740    0.425
       254  -9.4974     26.4417     43.4976   1.1355601718e+02   6.4384029027e+01    0.1188691   0.09005813 -23.01 4.336475e-05    1.048    0.045
       255  -9.9066    189.0113     41.5262   6.8953296048e+01   3.3131701708e+01    0.3367392    0.1787698 -35.33  0.001200896    1.997    0.499
       256  -9.3421     86.9672     31.2934   8.7252929489e+01   5.7546370153e+01    0.2643187    0.2238877 -73.84  0.001590509    1.815    0.449
       257 -11.1482     81.4869     39.5411   9.1935944693e+01   5.7472594793e+01    0.5109059    0.3074819  44.48  0.002349489    1.628    0.386
       258 -10.8697     77.8604     34.2885   9.1155508469e+01   5.8814761719e+01    0.4099722    0.2427861  35.75  0.001115364    1.567    0.362
       259 -10.6397     81.9932     31.5082   8.8830291558e+01   5.8434973477e+01    0.3705791     0.259441 -53.37  0.002018208    2.153    0.535
       260 -10.4844    231.4474     39.1226   6.3079448622e+01   2.3515315597e+01    0.3247254    0.1921357 -48.37  0.001229362    1.537    0.349
       261  -9.4833    218.3246     38.9637   6.4514106329e+01   2.6520484737e+01    0.1868375    0.1591905 -64.15 0.0008840701    1.111    0.100
       262 -11.4602    175.2892     35.8973   6.9552856942e+01   3.7198297641e+01    0.7588102    0.5205102 -64.02  0.003212892    1.596    0.373
       263 -10.1594    247.6081    238.5480   1.0225475567e+02  -1.2750011239e+01    0.2609046    0.1051695 -41.02  0.001154672    2.717    0.632
       264 -10.2551    150.5026    237.9872   1.2086225646e+02   3.1390342609e+00    0.1863429       0.1332 -51.58   0.00103644    1.601    0.376
       265 -10.8232     22.6019     36.5704   1.1276108836e+02   6.5868205364e+01    0.3174885    0.2371638  38.50  0.001461697    1.876    0.467
       266 -11.4562      4.3069     35.9468   1.2043316288e+02   6.7372040260e+01    0.3431161    0.2098939 -23.29   0.00047717    1.383    0.277
       267  -5.8468      6.1891     30.8928   1.1792301560e+02   6.8075415461e+01    0.3651428    0.1968714   7.60  0.001885335    1.954    0.488
       268 -10.0078    206.8192     37.2210   6.5502260586e+01   2.9442422683e+01    0.2346404    0.1928493 -81.00 0.0006519928    1.070    0.066
       269  -9.6238     15.2202    233.6896   1.4656568867e+02   2.4003391355e+01    0.2164941    0.1231854 -72.11   0.00137693    1.613    0.380
       270 -10.5954    242.6210    231.4673   1.0189739270e+02  -1.1051118165e+01    0.2379226    0.2054022  66.50  0.001505752    1.934    0.483
       271 -10.4598    197.7848    231.7958   1.1039572425e+02  -3.9907153982e+00     0.224695    0.1347223   3.84 0.0009556933    2.813    0.644
       272  -9.6208    247.4557    231.4718   1.0103628943e+02  -1.1752086645e+01    0.1229034   0.09938283   0.93 0.0001214918    1.017    0.017
       273 -11.7845    115.5632     24.5033   7.7384987955e+01   5.2508025503e+01       0.4993    0.2193766  50.31  0.001531437    1.930    0.482
       274 -11.3967    110.2283     23.3918   7.8249426778e+01   5.3775141693e+01    0.2787527    0.2641673   3.66  0.001212314    1.142    0.124
       275 -11.3695    159.7166     29.8151   7.0391499117e+01   4.1708597294e+01    0.6027725    0.3849149 -49.66  0.002207792    1.728    0.421
       276 -11.2672    164.3123     27.4444   6.8987351989e+01   4.0877714043e+01    0.3710301    0.2739891 -79.63 0.0005615679    1.471    0.320
       277 -11.0491     69.6998     32.6223   9.3196677472e+01   6.0414157977e+01     0.433244    0.2601382  38.19  0.001010093    1.568    0.362
       278 -10.7016    240.7337     31.4334   6.0527351237e+01   2.2498053686e+01    0.3662929    0.2494305 -35.73  0.001736202    1.644    0.392
       279 -10.9144    189.4812     29.2943   6.5820362145e+01   3.4586296366e+01    0.5831211    0.2925841 -36.84  0.002777431    2.077    0.519
       280  -9.5753     23.7221    231.5950   1.4493441319e+02   2.3495153322e+01    0.1578926   0.08366298  53.84 0.0008619049    1.598    0.374
       281 -11.1310     56.5045     31.0029   9.7192978105e+01   6.2673964332e+01    0.3773314     0.238302  31.97  0.002260884    1.501    0.334
       282 -11.8888     48.0597     30.4599   1.0014016299e+02   6.3926659295e+01    0.6759021    0.2745884  31.62  0.003276384    2.480    0.597
       283  -8.9931    216.9594     31.9796   6.3100897703e+01   2.7758302086e+01    0.1572645    0.1311869 -81.96 0.0003269932    1.004    0.004
       284  -9.8356    182.6875     31.9912   6.7436036906e+01   3.5893425207e+01    0.1820844    0.1665222 -78.78 0.0004732958    1.090    0.083
       285 -11.0812    198.4205     28.8888   6.4572157615e+01   3.2498318186e+01    0.4045753    0.3222202  60.25  0.001772963    1.280    0.219
       286  -9.9080    199.6733     24.6941   6.3421234045e+01   3.2708568073e+01    0.2340591     0.174233  56.49 0.0005838676    1.401    0.286
       287  -9.1216    190.1720    229.8238   1.1156466410e+02  -2.3620276333e+00    0.1817403    0.1456963   8.97 0.0007037738    1.308    0.235
       288  -9.8247      9.0711    227.3121   1.4722443637e+02   2.5943606273e+01    0.1556519    0.1129506  70.41  0.000351517    1.117    0.105
       289 -10.0683    234.4530    222.7715   1.0181574910e+02  -8.5406430112e+00    0.1715907    0.1100482 -22.38 0.0004620431    1.570    0.363
       290  -9.1352     99.8221     30.3866   8.3311730103e+01   5.5152655346e+01    0.3595585    0.1576334  41.32  0.001472851    2.122    0.529
       291 -10.2001     98.5014     26.8863   8.2419318564e+01   5.5823720226e+01      0.26556    0.2365057  57.51 0.0009207826    1.250    0.200
       292  -9.9429    230.3768     27.8573   6.0790524715e+01   2.5239378261e+01    0.3098113    0.1337195 -39.77  0.001470434    2.195    0.544
       293  -8.6678    209.3004    223.3362   1.0666962897e+02  -4.5524107684e+00    0.1355764   0.09552842   1.14 0.0005126548    1.659    0.397
       294  -9.2284    158.4809     20.4448   6.7968306726e+01   4.3049562471e+01    0.1903224     0.151687  69.11 0.0005956201    1.091    0.084
       295  -9.8499     10.2531    217.9884   1.4640472158e+02   2.7757658047e+01    0.1687376    0.1161887  87.62 0.0007476783    1.091    0.084
       296  -9.7981    250.5421     25.0150   5.8362337528e+01   2.1233328017e+01    0.1767054     0.104979 -44.45 0.0004629642    1.558    0.358
       297 -11.0180    214.5044     23.6525   6.1510078836e+01   2.9365303174e+01     0.360874    0.3452674 -62.09  0.001696819    1.285    0.222
       298  -9.2656    165.6772    212.3605   1.1358556291e+02   5.2180244441e+00    0.1443989    0.1095194  77.89 0.0007042853    1.777    0.437
       299  -9.5128    152.7922    207.8040   1.1555295828e+02   8.5401014734e+00    0.1987837    0.1646688  70.52 0.0007812171    1.320    0.243
       300 -10.8290      4.2631    204.9537   1.4660945047e+02   3.1109729585e+01    0.3010777    0.1155288 -72.05  0.001161514    2.063    0.515
       301  -9.3793     44.6981     23.7309   9.8763748440e+01   6.5268862278e+01    0.1411446    0.1304788   2.76  0.001044537    1.386    0.278
       302 -10.0871    133.2223     37.1964   7.7595565451e+01   4.7077709437e+01    0.4009948    0.2753739 -70.53  0.001953887    2.077    0.518
       303  -9.5025    238.5578    204.6803   9.7685200791e+01  -6.3531608000e+00    0.2504751    0.1166493 -33.96  0.001137139    2.087    0.521
       304  -9.7233     16.6617    204.6861   1.4422992148e+02   2.9963866306e+01    0.1098804   0.08195526 -54.32 0.0007046935    1.696    0.410
       305 -10.2057    245.4963    200.9991   9.5732412500e+01  -6.8702318853e+00      0.19489     0.116463 -35.87 0.0005043125    1.557    0.358
       306 -10.1099    233.9533    197.5180   9.7139380942e+01  -4.4155529430e+00     0.300636    0.1872401 -37.64  0.001185717    1.534    0.348
       307 -10.0341     17.0912    192.4134   1.4312799578e+02   3.2642756174e+01    0.1934676    0.1327717 -74.53 0.0003695499    1.236    0.191
       308  -9.6377    223.4912     22.4353   6.0319987548e+01   2.7460219016e+01    0.2453386    0.1650704 -78.94 0.0007140223    1.335    0.251
       309  -9.6010    221.1144     19.1647   5.9852740222e+01   2.8390453740e+01    0.1763037    0.1483834  82.97 -0.000430966    1.145    0.127
       310  -9.7381    169.7663    191.3443   1.0883963910e+02   8.6488896807e+00    0.3856073    0.2163406  27.46  0.001166513    2.310    0.567
       311  -9.2090      1.4094     20.7357   1.1649289416e+02   6.9969420102e+01    0.1425687   0.07236725 -35.92 0.0007929985    1.481    0.325
       312 -12.3076      4.9443    184.7627   1.4496010400e+02   3.5482075650e+01    0.6456109    0.4323004  74.59  0.004095843    1.287    0.223
       313  -9.8201    206.7590     18.5522   6.1193784829e+01   3.1762261354e+01    0.3641859    0.1623386 -59.06   0.00160442    2.499    0.600
       314  -8.8027    211.3221     19.2668   6.0869179316e+01   3.0620812407e+01    0.1200072   0.08999266  51.89 0.0003010902    1.562    0.360
       315  -9.1810    239.7060    184.6728   9.3547528155e+01  -3.2056467625e+00    0.1377289   0.09792843  -5.74 0.0004670036    1.625    0.385
       316  -9.6295    225.5136     16.8684   5.8943837744e+01   2.7669710134e+01    0.2622444    0.1391548 -86.49  0.001324593    1.889    0.470
       317  -9.2010    250.0000    180.0145   9.0808858518e+01  -4.1435066879e+00    0.2274047   0.06814855 -39.49 0.0008118963    3.008    0.668
       318 -10.1245     52.2722    174.0736   1.3337272386e+02   3.2987507285e+01    0.4435967    0.2041738 -85.01  0.001708965    2.922    0.658
       319  -9.5179     28.6417    175.6933   1.3902605274e+02   3.5312733424e+01    0.1226213   0.08723318 -45.89 0.0007040812    1.728    0.421
       320  -9.9406     39.5227    173.4722   1.3628443841e+02   3.4656039997e+01    0.2340398   0.09243775 -58.75 0.0008153229    2.208    0.547
       321  -9.4587    247.6648    173.6767   8.9925842840e+01  -2.6699286571e+00    0.1391509   0.09861724  -3.75 0.0004589365    1.711    0.416
       322 -10.6043     35.3979    170.2486   1.3685477138e+02   3.5878470316e+01    0.2990079    0.1682298  83.99  0.001474736    1.922    0.480
       323  -9.2755     27.3802     15.1517   1.0232679501e+02   6.8456422646e+01    0.1417955   0.09138108 -38.13 0.0004589139    1.707    0.414
       324 -11.7163     13.1460    139.7010   1.3852855499e+02   4.5167809908e+01     0.790199    0.3683275  82.05  0.003360366    3.085    0.676
       325 -12.1185     23.2627    148.9896   1.3715026245e+02   4.2133307341e+01    0.5755399    0.3268605 -32.45  0.002006997    2.656    0.623
       326 -10.6205     16.2155    147.9735   1.3877588403e+02   4.2986967235e+01    0.3526232    0.2233298  44.97  0.001553565    1.772    0.436
       327  -9.0229     94.5264     12.4412   7.8214778839e+01   5.8100614246e+01    0.1220941     0.104266  36.78 0.0004098164    1.047    0.045
       328 -11.6545      9.4905    166.4928   1.4236712909e+02   3.9243531077e+01    0.5228435    0.3521676 -74.52   0.00271666    1.168    0.144
       329 -11.7546     13.1777    157.2275   1.4056859230e+02   4.1079565576e+01    0.4896335     0.395584  89.99  0.001295841    1.088    0.081
       330  -9.5795    198.0619    167.7187   9.7984024251e+01   7.7903239758e+00    0.2046266    0.1938399  16.51 0.0006509247    1.066    0.062
       331  -8.8752    149.3203    168.3313   1.0883140315e+02   1.7768428749e+01    0.1555204    0.1244084  -6.36 0.0007048858    1.694    0.410
       332 -10.2222     14.0020    133.2697   1.3747372079e+02   4.6598113828e+01    0.2682894    0.1871227  66.18  0.001274808    1.612    0.379
       333 -10.3320     18.8607    165.4510   1.4013846030e+02   3.8663292377e+01    0.2618599     0.227063 -53.74  0.001220872    1.353    0.261
       334  -9.7659    188.7106    164.5386   9.9237458885e+01   1.0366591149e+01    0.2745465    0.1787443 -34.31 0.0006912192    1.629    0.386
       335 -10.4123     28.2001    163.3530   1.3772142662e+02   3.8262561255e+01    0.3355583    0.1665801 -73.71  0.001514149    1.701    0.412
       336 -10.0153    205.1322    163.2242   9.5586873042e+01   7.2515345018e+00    0.2480418     0.232003 -11.84  0.000644712    1.071    0.066
       337 -10.1230     80.4858    160.0637   1.2425048436e+02   3.2442437431e+01    0.3588301    0.3057274  35.80  0.001991349    1.322    0.244
       338  -9.2113    215.3162    158.3422   9.2539870442e+01   6.1556768433e+00     0.150798    0.1135944  -3.26 0.0007048427    1.711    0.416
       339 -10.7730    105.1137    153.9584   1.1675615501e+02   2.9802858740e+01    0.4972013    0.3888501 -68.35  0.002483591    1.265    0.210
       340 -10.3928     31.6793    154.3279   1.3574602685e+02   4.0058682435e+01    0.3773079    0.2527943  70.34  0.001749347    1.590    0.371
       341 -10.8809     30.6380    149.2233   1.3532399097e+02   4.1380015557e+01    0.3074888    0.2260852  80.41 0.0007223663    1.362    0.266
       342  -9.8651     22.9795    155.1389   1.3798581380e+02   4.0706312396e+01    0.2352652    0.1821677  10.19   0.00136315    1.825    0.452
       343 -10.5550     71.0037    151.4910   1.2520243925e+02   3.5954176976e+01    0.2888158    0.2531287  69.82  0.001440868    1.160    0.138
       344 -10.1212      3.1911    152.7161   1.4243345612e+02   4.2907418707e+01    0.2648825    0.1695055  80.32  0.001620702    1.481    0.325
       345 -11.7213      5.0679    147.2351   1.4141221817e+02   4.4030940963e+01    0.4123059    0.3914679 -24.65  0.002463975    1.404    0.288
       346 -10.6248     42.2251     14.3398   9.5814794497e+01   6.6742813190e+01    0.2676409    0.1432578  39.07 0.0009905293    1.899    0.473
       347 -11.1232      2.9576    141.7655   1.4132517473e+02   4.5439367212e+01     0.343586    0.3376817  80.55  0.002216276    1.314    0.239
       348 -11.5841      3.9152    136.5549   1.4049149169e+02   4.6570029262e+01    0.2568024    0.1818293 -63.38 0.0003607463    1.164    0.141
       349 -11.5725     62.5836    149.7199   1.2711257742e+02   3.7556642765e+01    0.5263014    0.4394942  44.02  0.002276328    1.313    0.238
       350  -9.7766     48.7354    151.4330   1.3100769976e+02   3.8887272465e+01    0.2446595    0.1984194   3.07 0.0006011004    1.707    0.414
       351 -10.3275     43.2498    149.3779   1.3211410585e+02   4.0016525683e+01    0.4648823    0.2355987  70.74  0.001850834    3.116    0.679
       352 -11.2020     47.0750    146.4714   1.3066805073e+02   4.0283092112e+01    0.5445285    0.3677987 -68.75  0.002046915    1.277    0.217
       353  -9.4783    214.6796    151.7052   9.1203856320e+01   7.5785798702e+00     0.146682    0.1150666   1.24 0.0003049761    1.612    0.380
       354  -9.6114     85.4844    149.9917   1.2110477812e+02   3.4118911920e+01    0.2306556    0.1355766 -59.33 0.0007288239    1.585    0.369
       355 -10.3964     56.1508    149.1906   1.2871779363e+02   3.8523626294e+01    0.2501444    0.1842142 -80.01 0.0007234445    1.290    0.225
       356 -10.7623    249.7045    143.0181   8.3202191660e+01   2.3765234651e+00    0.7068954    0.2060438 -40.50  0.002449978    2.998    0.666
