#   1 NUMBER                 Running object number                                     
#   2 MAG_AUTO               Kron-like elliptical aperture magnitude                    [mag]
#   3 X_IMAGE                Object position along x                                    [pixel]
#   4 Y_IMAGE                Object position along y                                    [pixel]
#   5 X_WORLD                Barycenter position along world x axis                     [deg]
#   6 Y_WORLD                Barycenter position along world y axis                     [deg]
#   7 A_WORLD                Profile RMS along major axis (world units)                 [deg]
#   8 B_WORLD                Profile RMS along minor axis (world units)                 [deg]
#   9 THETA_WORLD            Position angle (CCW/world-x)                               [deg]
#  10 FWHM_WORLD             FWHM assuming a gaussian core                              [deg]
#  11 ELONGATION             A_IMAGE/B_IMAGE                                           
#  12 ELLIPTICITY            1 - B_IMAGE/A_IMAGE                                       
         1 -13.8668    217.7447     28.5627   4.1365627857e+01   2.7242061776e+01     1.609958    0.9525134  36.54  0.007387072    2.545    0.607
         2 -13.3526    241.7544      6.0635   3.4083927612e+01   2.4361375799e+01    0.7179537    0.4998336 -64.17  0.002642297    1.213    0.175
         3 -11.4131    229.5793    235.2236   8.5649293148e+01  -7.4525648438e+00    0.5498904    0.2863954   0.86  0.002551415    2.815    0.645
         4 -11.4282    249.4464    246.4766   8.4026030828e+01  -1.1498204220e+01    0.6624435    0.2745097 -29.26  0.003579022    2.433    0.589
         5 -11.0270    241.8790    250.0614   8.5902272006e+01  -1.0908177477e+01    0.4625419    0.1433026  36.94  0.002146088    2.788    0.641
         6 -11.5083    201.2987    249.9212   9.3146364283e+01  -5.1793991190e+00    0.7882799    0.1815888  39.78   0.00293483    3.615    0.723
         7 -12.5972     96.7559    225.8876   1.1050506008e+02   1.5093056431e+01     1.588871    0.6772532  31.45  0.006825006    2.716    0.632
         8 -14.4969    119.4494    245.8433   1.0824645493e+02   8.0814408195e+00     1.890112    0.8113369  41.17   0.00840378    1.864    0.464
         9 -14.1597    138.3618    243.3101   1.0426495333e+02   5.5637120170e+00     1.487386     0.924868  42.49  0.006561226    1.308    0.236
        10 -14.2347    131.2105    227.8171   1.0369188279e+02   9.3368982727e+00     1.826397    0.9017079  39.15  0.007468835    1.727    0.421
        11 -13.0339     83.7627    240.6675   1.1457971349e+02   1.4225742551e+01     0.685187    0.5158486 -49.40  0.003027663    1.786    0.440
        12 -14.3797      2.1844     86.8787   1.1681917206e+02   5.7408848326e+01     7.838894    0.9990833 -72.30   0.01497431   13.057    0.923
        13 -13.2505     67.8843    236.4691   1.1722725704e+02   1.7159115291e+01    0.9562221    0.6155121 -60.74  0.006001746    1.805    0.446
        14 -12.9385     68.3342    221.6249   1.1581425297e+02   1.9961850617e+01     1.441722    0.7274774  69.58  0.007062369    2.285    0.562
        15  -9.8628     78.9953    229.0091   1.1439740680e+02   1.7063143912e+01    0.2453981    0.1485277  48.91 0.0008017838    1.372    0.271
        16 -13.0067     23.8202    212.3977   1.2381362324e+02   2.7114274595e+01    0.4261902    0.3855132 -44.28  0.002888234    1.653    0.395
        17 -13.2420     92.4280    240.3414   1.1288561832e+02   1.3054165245e+01    0.7897389    0.6269244 -49.46  0.003708136    1.653    0.395
        18 -10.3255     54.9891    222.9828   1.1857483565e+02   2.1418599563e+01    0.2508692    0.1386172  54.89   0.00107274    1.525    0.344
        19 -10.1563    146.1812    217.8082   9.9169624882e+01   8.6360235182e+00    0.2851742    0.2734847  25.77  0.001334688    1.112    0.101
        20 -11.1004    150.7983    214.7851   9.7738120928e+01   8.3892853487e+00    0.5489448     0.396095 -26.58  0.002976675    1.745    0.427
        21 -14.2236     10.5955    207.2139   1.2600546265e+02   2.9469658953e+01     1.112245    0.8623624  71.86  0.004013587    1.085    0.078
        22 -15.9633      7.0961    238.8140   1.2821478929e+02   2.3666586654e+01     9.605486     1.474224 -75.61   0.03762724    5.212    0.808
        23 -10.2918    184.4292    229.3104   9.3185310557e+01   3.2752242721e-01    0.2209686      0.12086 -34.67  0.001130146    2.110    0.526
        24 -11.1728    233.0966    207.8927   8.0201236348e+01  -4.3253832097e+00    0.4469039    0.1944078 -29.12  0.002055967    2.353    0.575
        25 -10.1124    157.1810    209.1963   9.5498089695e+01   8.2874600499e+00    0.3199962    0.2300712  30.21  0.001584048    1.301    0.231
        26 -11.1723    143.3648    200.1715   9.6996304517e+01   1.2422501397e+01    0.7664839     0.289398  38.63  0.002942149    2.429    0.588
        27 -11.7390    147.2142    194.8027   9.5240821840e+01   1.2781011673e+01    0.4824273    0.4112146   6.47  0.002127185    1.317    0.241
        28 -10.6261    228.6611    195.4089   7.8649415943e+01  -1.7978904924e+00    0.3892401    0.2269812   6.40  0.001805257    2.235    0.553
        29  -9.6050    192.6642    193.3520   8.5253334225e+01   4.7453152126e+00     0.133244    0.1128192  80.49 0.0007045306    1.790    0.441
        30 -12.1302    143.4891    183.5746   9.4092573773e+01   1.5725440094e+01    0.7087564    0.6021782 -20.30  0.003851657    1.352    0.261
        31 -11.3571     54.1343    183.3229   1.1495553513e+02   2.9984954091e+01    0.3473698    0.2473216 -38.62  0.001456083    1.969    0.492
        32 -11.4736     60.4872    176.9855   1.1274109923e+02   3.0637751467e+01    0.2674276    0.2424891 -45.16 0.0004932014    1.355    0.262
        33 -10.8877     71.5280    166.6130   1.0867373880e+02   3.1588914332e+01    0.2425749    0.2231215 -71.66 0.0004666172    1.120    0.107
        34 -13.0401     57.8480    163.2536   1.1163072010e+02   3.4198890809e+01    0.5072294    0.2844586 -45.80  0.001683317    2.117    0.528
        35 -11.8729     79.0604    159.3422   1.0565262431e+02   3.2241789866e+01    0.5961657    0.4828631  58.67  0.001777507    1.223    0.182
        36 -11.3728     33.9376    157.5998   1.1689934309e+02   3.8244438566e+01    0.3377793    0.1735034  51.55   0.00169736    2.001    0.500
        37 -12.7594     67.7867    144.0878   1.0614316574e+02   3.7539559786e+01    0.8148232     0.552793  77.55  0.003100978    1.754    0.430
        38 -12.4502     56.5105    128.6428   1.0666511374e+02   4.2788266915e+01     2.293551    0.7073546 -72.81  0.004731819    9.232    0.892
        39 -12.5187     22.4450    146.9650   1.1861324858e+02   4.1844195886e+01    0.4882823    0.2671943  89.75  0.002523337    1.773    0.436
        40  -9.4668     97.4994    141.9927   9.7598600339e+01   3.3497764940e+01    0.3216674    0.1948033 -28.22  0.001252697    2.562    0.610
        41 -11.9183     82.3369    143.5927   1.0206214947e+02   3.5559507346e+01    0.3167387    0.2546356 -54.46 0.0003103779    1.203    0.169
        42  -9.8825     94.2513    145.0191   9.9082881037e+01   3.3314092807e+01    0.2860751    0.2559079  39.98 0.0009700345    1.169    0.144
        43 -10.5412     34.9894    139.2943   1.1438985228e+02   4.2535822356e+01    0.1795742    0.1612678 -89.17 0.0006756524    1.088    0.081
        44 -10.5610    106.6043    132.2021   9.3001554112e+01   3.4238044222e+01    0.4011919    0.3370383 -50.37  0.001281141    1.159    0.137
        45 -10.3399     93.8851    129.2455   9.5924999618e+01   3.7188015578e+01    0.2750135    0.2432562 -21.60 0.0004030205    1.272    0.214
        46  -9.3617    104.9966    120.7087   9.0772532022e+01   3.7261130205e+01    0.1991308    0.1968624  27.30 0.0002790439    1.050    0.048
        47  -9.1892    168.0103    113.0535   7.2458616840e+01   2.5490463718e+01    0.2564093    0.1983089 -80.81  0.001124585    1.769    0.435
        48  -9.4119    204.2009    110.9073   6.4439161703e+01   1.7593677513e+01    0.2988011    0.1940259  24.47  0.001245901    2.110    0.526
        49 -14.8743     32.5344    203.7826   1.2149476230e+02   2.7984272523e+01     1.845183     1.501331 -87.31  0.008542758    1.159    0.137
        50  -8.5713    123.6673    102.2841   8.0646782566e+01   3.7749261579e+01    0.1557002    0.1263317  86.14 0.0006045469    1.617    0.381
        51 -10.4415     52.6418     89.8779   9.9765774490e+01   5.2589278472e+01    0.2459046    0.2053594  35.28 0.0008354168    1.364    0.267
        52  -8.6211     63.2871     83.6524   9.4384508337e+01   5.2650902999e+01    0.1356845    0.1103303 -89.38 0.0007022361    1.656    0.396
        53  -9.7144     59.7003     76.6826   9.3683251802e+01   5.4677948054e+01    0.2257509   0.09925331 -34.81 0.0002442964    2.684    0.627
        54 -10.1621     13.2356     60.2127   1.0739376219e+02   6.2761731489e+01    0.1510118    0.1338575 -75.20 0.0004666959    1.318    0.241
        55 -13.3738    116.8523    210.6209   1.0437615956e+02   1.4909193330e+01     1.542782     1.149925 -76.95  0.008370592    1.556    0.357
        56 -12.5608    197.2126    238.7555   9.2206296430e+01  -3.0704198955e+00    0.8126503    0.3840128  24.91  0.003814141    2.262    0.558
        57  -9.0280    189.5240     15.4587   4.1137043961e+01   3.5594342531e+01    0.1345344    0.1196495  87.51 0.0002207937    1.010    0.010
