#   1 NUMBER                 Running object number                                     
#   2 MAG_AUTO               Kron-like elliptical aperture magnitude                    [mag]
#   3 X_IMAGE                Object position along x                                    [pixel]
#   4 Y_IMAGE                Object position along y                                    [pixel]
#   5 X_WORLD                Barycenter position along world x axis                     [deg]
#   6 Y_WORLD                Barycenter position along world y axis                     [deg]
#   7 A_WORLD                Profile RMS along major axis (world units)                 [deg]
#   8 B_WORLD                Profile RMS along minor axis (world units)                 [deg]
#   9 THETA_WORLD            Position angle (CCW/world-x)                               [deg]
#  10 FWHM_WORLD             FWHM assuming a gaussian core                              [deg]
#  11 ELONGATION             A_IMAGE/B_IMAGE                                           
#  12 ELLIPTICITY            1 - B_IMAGE/A_IMAGE                                       
         1 -12.4098    166.5865     83.9726   5.1880586932e+01   3.1305677670e+01    0.8833135    0.6736274  34.81  0.003630401    1.420    0.296
         2 -13.2011      5.2049     63.9339   9.7433925136e+01   6.2990569285e+01    0.8412426    0.5290545 -75.81  0.005032727    1.274    0.215
         3 -12.5325     12.5292     51.0208   9.1644244480e+01   6.5585319834e+01     2.365091    0.7018439 -76.97  0.006424902    6.516    0.847
         4  -9.9146     15.0988     13.8336   7.7015976311e+01   7.3461531642e+01    0.4950101    0.2203925 -59.89  0.002192615    2.517    0.603
         5 -11.4157     22.8618     24.2016   7.7409852899e+01   7.0662290739e+01    0.7468834    0.2461746 -46.98  0.003200333    2.341    0.573
         6 -10.4121     22.5271     13.0598   7.2054856147e+01   7.2865036893e+01    0.2700301    0.1264759 -43.70  0.001105622    1.719    0.418
         7 -11.0902     14.0601     23.2229   8.1986036816e+01   7.1656690074e+01    0.4585291    0.1777274 -38.42 0.0005382146    2.494    0.599
         8 -11.4660    128.8411     18.9280   3.6467036368e+01   5.0882372513e+01    0.3378421     0.257075 -14.49  0.000401046    1.330    0.248
         9 -11.0527    160.4047     22.0532   3.2276503897e+01   4.2148849514e+01    0.5221184    0.3170087  11.56  0.002130644    2.212    0.548
        10 -11.0078     99.3248     23.1244   4.5271336467e+01   5.7665023494e+01    0.4466312    0.3099815  44.05  0.001615087    1.448    0.309
        11 -10.3570      9.6063     15.8715   8.1467711751e+01   7.3518518786e+01    0.2987747    0.1433683 -39.63  0.001223343    1.758    0.431
        12 -11.9009      3.5084     16.6336   8.5690261535e+01   7.3786894069e+01    0.3326698    0.2808116  51.31   0.00207184    1.620    0.383
        13 -12.0372    237.9686     17.7396   2.2627940922e+01   2.2901135375e+01    0.3285877    0.2436865 -65.66 0.0003366504    1.351    0.260
        14 -11.5417     48.4304     15.2414   5.9531223666e+01   6.8978106038e+01     0.727279    0.4249504  32.81  0.003742368    1.895    0.472
        15 -10.4650     43.6594      8.3709   5.7709389919e+01   7.0811871194e+01    0.2470505    0.2181285 -36.06  0.001077658    1.283    0.221
        16 -12.0059     40.5757     16.3781   6.3980269173e+01   6.9985138942e+01    0.5262809    0.3348948 -54.49  0.001690744    1.976    0.494
        17 -10.8757     39.8302     11.1000   6.1296731087e+01   7.0974716980e+01    0.3112513    0.2210154  47.41 0.0005787431    1.808    0.447
        18  -9.9996     34.1553     15.6435   6.6904948211e+01   7.0997824986e+01    0.3715267    0.2137688 -23.13  0.001419634    1.910    0.476
        19 -10.3511     73.4568      6.4508   4.4429407486e+01   6.5519286070e+01    0.3208421    0.2013388 -42.67  0.001588068    1.815    0.449
        20 -10.9703     73.8500     16.8029   5.0055468302e+01   6.4103247805e+01    0.5630836    0.2949696  37.57  0.002520123    2.065    0.516
        21 -10.4660     70.5722     13.6946   4.9531190508e+01   6.5195595127e+01    0.3779848    0.2292704 -20.68  0.001531319    1.590    0.371
        22 -11.0551     78.0253     10.9073   4.5438346389e+01   6.4015137280e+01    0.7297759    0.3101901  46.09  0.003042525    2.312    0.568
        23 -11.4990     61.1920     14.3782   5.3497438131e+01   6.6905531076e+01    0.5106779    0.3782551  62.16  0.002767117    1.839    0.456
        24 -10.2899    116.6479     14.5318   3.7049648386e+01   5.4509458594e+01    0.5062441    0.2515998  29.77  0.001889615    2.629    0.620
        25 -12.3073    128.4659     11.0549   3.3185522351e+01   5.1832660503e+01    0.4971836    0.3287778 -53.69 0.0004169563    1.746    0.427
        26 -11.6190    233.3906     11.2621   2.1234671787e+01   2.4607589422e+01    0.2449077    0.2267584 -81.69  0.001420886    1.142    0.124
        27 -12.1622    235.0110      4.7352   1.9384701076e+01   2.4855323086e+01    0.5835735    0.3420185  26.95  0.002486509    2.509    0.602
        28 -10.1333    156.8390     11.9894   2.9076305993e+01   4.4175165249e+01    0.2617991    0.1416513 -47.53  0.001086327    1.959    0.490
        29  -9.7509     27.6845     10.2798   6.7422008014e+01   7.2764763454e+01    0.2246121    0.1613687  56.98 0.0008649255    2.350    0.574
        30 -10.4746     24.1823      8.1250   6.8195833542e+01   7.3562169058e+01    0.3201033     0.179868  41.44  0.001643575    2.303    0.566
        31 -11.1124      8.7445      9.2105   7.8744329888e+01   7.4904255695e+01    0.4141784    0.2869202   4.20  0.002347265    1.655    0.396
        32 -12.6619    213.9082      6.0222   2.1217137445e+01   2.9793520347e+01      0.81839    0.5191051 -58.91  0.004134112    1.546    0.353
        33 -10.3699    164.4002      9.2064   2.7071225685e+01   4.2407739459e+01    0.3388516    0.1686787 -33.81 0.0008034497    1.894    0.472
        34 -10.2917    164.5093      5.0623   2.5567406184e+01   4.2757542746e+01    0.3483248    0.2023408 -37.56    0.0011528    1.668    0.401
        35 -10.6169    240.9967      9.4916   2.0245276317e+01   2.3032559594e+01    0.1816684    0.1271571  84.44 0.0005037392    1.540    0.350
        36 -10.5349    155.5350      7.0775   2.7411918796e+01   4.4993487755e+01    0.4793229    0.2336658  29.40  0.001229862    2.765    0.638
        37  -9.9792    118.1077      8.3280   3.3936702685e+01   5.4787152987e+01    0.2386727    0.1898137   0.91 0.0006348246    1.282    0.220
        38 -10.6664    191.0670      7.5291   2.3619831485e+01   3.5472500740e+01    0.4378791     0.360666 -27.46   0.00163259    1.185    0.156
        39  -9.9633    187.3092      5.6761   2.3381882826e+01   3.6627285371e+01    0.2405411     0.212423  82.78 0.0008338345    1.128    0.113
        40 -11.4270    149.0474      1.9414   2.6292359395e+01   4.7188932132e+01    0.3672808     0.219949  71.03  0.000458937    1.626    0.385
        41 -11.1526    146.2654      6.8605   2.8592008690e+01   4.7507198828e+01     0.456906    0.2596504  35.24  0.001122936    1.974    0.493
        42 -10.8992    194.7844      1.8787   2.1508484681e+01   3.5015286193e+01    0.5458058    0.2253455  68.37   0.00221795    2.316    0.568
        43 -10.2579     90.2412      6.9115   3.9661139974e+01   6.1752725077e+01    0.4161927    0.1933937  56.03  0.000853808    2.084    0.520
        44 -10.7469     68.2182      4.3035   4.4951384405e+01   6.6855706148e+01    0.3617093    0.1662549 -26.84  0.001436545    1.997    0.499
        45 -11.2286     27.3553      2.9757   6.2988232524e+01   7.4017048235e+01    0.2627006    0.2502693 -77.82  0.001460374    1.604    0.377
        46  -9.9363     32.4551      1.4115   5.8984233173e+01   7.3547754553e+01     0.299834    0.1189013  41.40  0.001371613    2.825    0.646
        47 -11.4778     19.8186      3.0513   6.7705989157e+01   7.4935792221e+01    0.6762356    0.3539263   7.24  0.003085839    3.177    0.685
        48 -11.1076     12.0076      2.5130   7.2603610297e+01   7.5855954727e+01    0.3418421    0.2069116 -20.30  0.001997069    1.695    0.410
        49  -9.1266     61.3965      5.2372   4.8021648868e+01   6.8103563959e+01     0.137843   0.08888519  22.88 0.0006916285    1.663    0.399
        50 -11.0297    223.5236      3.6508   1.9850795386e+01   2.7666199710e+01    0.2315614    0.2120664  78.79 0.0007955189    1.176    0.150
        51 -10.8379    202.5976      3.4592   2.1350142234e+01   3.2869080666e+01    0.3990913    0.2669646  41.29  0.001992696    1.732    0.423
        52 -10.4947    178.9889      4.0474   2.3656266376e+01   3.8972059371e+01    0.2158889    0.2011566 -63.80 0.0003305486    1.032    0.031
        53 -11.2648    119.4922      3.9317   3.1675900438e+01   5.4843059012e+01    0.3875601    0.2103234  75.94  0.001648346    2.065    0.516
        54 -10.2516     98.4566      3.5586   3.5851431795e+01   6.0144926675e+01    0.2768229    0.2043724  13.36 0.0007808792    1.372    0.271
        55 -10.9193    242.9589      2.7283   1.8376751706e+01   2.3228541840e+01    0.2592194     0.162383 -34.56 0.0007773435    1.340    0.254
        56 -10.2010     74.6046      2.4631   4.1739294244e+01   6.5717256085e+01    0.2648405    0.2018579 -63.84 0.0009052957    1.870    0.465
        57  -9.9551    126.3460      2.7384   2.9947892742e+01   5.3164622434e+01    0.2362711    0.1737171   2.36 0.0003878847    1.436    0.304
        58  -9.6712    166.9484      1.4561   2.4008211671e+01   4.2412547798e+01    0.2149772    0.1066277 -71.17 0.0008089365    2.577    0.612
        59 -10.2045      4.8042    168.6402   1.0707782660e+02   3.9084843661e+01    0.1483157   0.07797078  47.10 0.0007010795    1.629    0.386
        60 -10.6585    247.4944    249.9864   7.1128399805e+01  -5.4931276089e+00    0.1641952   0.09638989  28.42 0.0009620982    1.234    0.190
        61 -11.3048    237.9960    246.0154   7.1974002883e+01  -3.9918317586e+00     0.150767      0.11291  23.82 0.0006387467    1.205    0.170
        62 -12.3130    232.2752    245.5099   7.2755652127e+01  -3.2205925595e+00    0.4040548    0.2067799 -14.40   0.00263996    2.278    0.561
        63 -11.6844     88.9098    249.4666   9.6435205283e+01   1.5607957510e+01     0.277354    0.1699135  43.79  0.000875232    1.228    0.186
        64 -10.1548     72.4828    250.2574   9.9202626864e+01   1.7501884226e+01    0.1705718    0.1153464  28.88 0.0008306348    1.796    0.443
        65 -13.0323     18.9903    237.1301   1.0731252745e+02   2.5321327310e+01     1.273372    0.2022369  54.69  0.005869254    3.722    0.731
        66 -11.6622      5.0911    235.7883   1.0950813336e+02   2.6839358405e+01     0.334278    0.2282976  50.69  0.002683143    1.243    0.195
        67 -13.1894      6.8069    244.9391   1.0949463108e+02   2.5252393698e+01    0.6458179    0.4320497  51.04  0.003802713    1.220    0.180
        68 -12.7330     22.0507    248.8087   1.0724190572e+02   2.3215475986e+01    0.7482078    0.1634544  38.01  0.003956472    3.103    0.678
        69 -12.0616     16.0143    246.5733   1.0811051783e+02   2.4140096107e+01    0.4379695    0.1432304  54.98  0.002061328    1.984    0.496
        70 -12.0221     36.7434    166.4798   9.9991392363e+01   3.6531418686e+01    0.4386054    0.3110635  73.60  0.001620373    1.157    0.136
        71  -9.3431    111.5322    164.4930   8.2834816710e+01   2.6713351104e+01    0.1305878    0.1181705  61.22 0.0002536667    1.010    0.010
        72  -9.0662    200.5152    162.4738   6.4378266513e+01   1.1104338456e+01    0.1299021    0.1155397  15.10 0.0007933093    1.047    0.045
        73 -12.7372     20.9357    157.4926   1.0287143891e+02   4.0018485144e+01    0.5348387    0.3552606  26.85 0.0009795191    1.870    0.465
        74  -9.7086    216.2721    155.0204   6.0118675531e+01   9.3093937401e+00    0.1771541    0.1514708  -5.82 0.0003005802    1.075    0.069
        75 -10.8091     10.4170    152.8634   1.0497530947e+02   4.1937861759e+01    0.2555639    0.1564175  52.19 0.0005922337    1.450    0.310
        76 -10.1280    177.3115    150.5681   6.6326448161e+01   1.7283862016e+01    0.2748671    0.2163118  79.31  0.001290929    1.880    0.468
        77 -10.4504    207.0450    146.6824   5.9966945098e+01   1.2193698878e+01    0.1910958    0.1600172  26.26 0.0005793286    1.118    0.106
        78  -9.3597    222.7148    152.3113   5.8475820948e+01   8.5215889914e+00    0.1155101    0.1032363 -55.50 0.0003391326    1.575    0.365
        79  -9.1525     41.0120    146.2140   9.7098620546e+01   4.0475953863e+01    0.1425311    0.0946326  38.64 0.0008357703    1.575    0.365
        80  -9.6265     19.3629    146.1877   1.0239788773e+02   4.2628193962e+01    0.1732652   0.08888961  87.98 0.0004993891    1.705    0.413
        81 -10.0796    220.2813    143.9934   5.7117723202e+01   1.0100362661e+01    0.1886325    0.1574004 -12.13 0.0006916706    1.094    0.086
        82 -10.3009     56.4515    138.2900   9.2242206778e+01   4.0465393405e+01    0.3848776     0.182528  42.62  0.001858473    2.034    0.508
        83  -9.7635     13.6725    139.7375   1.0329649891e+02   4.4554394838e+01    0.1055158   0.08204628 -53.96  0.000201488    1.565    0.361
        84  -9.4469     44.0000    137.9007   9.5415038677e+01   4.2028735208e+01    0.2093698   0.06331011 -70.04  0.000804705    2.958    0.662
        85 -11.3197      9.1576    136.5814   1.0418918274e+02   4.5624710843e+01    0.2209864    0.1495461 -85.76  0.000303255    1.176    0.150
        86 -10.4799      2.4950    136.8008   1.0586048998e+02   4.6074871099e+01    0.2834961   0.08653336 -77.19  0.001293322    2.556    0.609
        87  -9.3205    143.5626    137.4487   7.0638489652e+01   2.6248428063e+01    0.1393317    0.1349145  56.08 0.0002182678    1.028    0.027
        88 -10.3836     17.4527    137.0786   1.0213912971e+02   4.4834723112e+01    0.1668245    0.1532323  63.46 0.0003282567    1.274    0.215
        89  -9.8793     20.9822    134.9933   1.0105871859e+02   4.5000891751e+01     0.192686    0.1309523  78.51 0.0007117102    1.240    0.194
        90 -10.0173    249.2674    134.0252   5.0420462908e+01   6.1853417558e+00    0.1836381    0.1450422 -10.85   0.00052458    1.061    0.057
        91 -10.1062     79.9583    132.7125   8.5259099912e+01   3.8507584962e+01    0.1871594    0.1661619  63.55   0.00046555    1.099    0.090
        92 -11.4573     54.0827    132.5590   9.2081973817e+01   4.2077085704e+01    0.3859551    0.2041617  43.36  0.001281652    1.864    0.463
        93 -11.3466     36.5144    130.3687   9.6498914801e+01   4.4575028592e+01    0.4191468    0.2569373 -49.24  0.001918981    1.908    0.476
        94 -11.2020     74.0817    129.1874   8.6213946337e+01   4.0181770898e+01    0.3060247    0.2632509  72.02   0.00104669    1.099    0.090
        95 -11.3759     24.0945    126.0172   9.9370659268e+01   4.6792065517e+01    0.2519378    0.1894277  45.13 0.0008554282    1.411    0.291
        96 -11.1176     20.1530    121.8790   1.0002609055e+02   4.8103656417e+01    0.2482827    0.1209375 -53.91  0.001006508    2.149    0.535
        97 -10.9946     10.8148    122.8055   1.0267472651e+02   4.8639312039e+01    0.2459886    0.1748396  64.81  0.000883897    1.285    0.222
        98  -9.7393    220.0104    124.2596   5.2724105973e+01   1.2948268464e+01    0.1908917    0.1699141   2.12 0.0004909692    1.031    0.030
        99  -9.4358    243.7169    122.6749   4.8692509940e+01   8.6275013968e+00    0.1356817   0.09097755   5.91 0.0003226291    1.599    0.375
       100 -10.2475     17.5033    125.5290   1.0110794472e+02   4.7476549039e+01     0.210192    0.1677827  88.58  0.000902107    1.023    0.023
       101 -10.3874     73.0102    117.8285   8.4476536686e+01   4.2979406033e+01    0.3352122    0.1797189 -80.24  0.001167266    2.474    0.596
       102  -9.7927      1.4159    118.9459   1.0492548495e+02   5.0194597405e+01    0.1777291   0.09060235 -81.60 0.0003461331    1.529    0.346
       103 -10.9279     13.7547    125.6362   1.0212704288e+02   4.7756622002e+01    0.3200195     0.171515  43.77  0.001727909    1.850    0.460
       104  -9.4635    179.3055    116.3111   5.8126565121e+01   2.2707552638e+01    0.1501046    0.1121553   9.31 0.0007021453    1.615    0.381
       105  -9.8537     85.8449    116.1426   8.0545475108e+01   4.1392781840e+01    0.1923424    0.1614127 -41.73 0.0006369782    1.322    0.243
       106 -11.1713     16.4870    115.2228   1.0037423367e+02   4.9969711102e+01    0.3102743    0.2185661 -31.94  0.001342867    2.011    0.503
       107  -9.6732    214.0544    115.2966   5.1567236703e+01   1.5467369217e+01    0.1915775    0.1734518  21.61 0.0004512274    1.107    0.097
       108 -11.7177     36.8339    110.5870   9.3818652594e+01   4.9222415925e+01    0.4593722    0.3016489 -85.75    0.0025601    1.388    0.280
       109 -10.9209    249.3781    112.3323   4.5504444356e+01   8.9157225643e+00    0.2409338    0.2024019 -27.56 0.0006051966    1.170    0.145
       110 -10.4821     94.7196    112.4566   7.7290638905e+01   4.0751031757e+01    0.2807135    0.2564591 -72.61   0.00109285    1.027    0.026
       111 -11.6091     55.1973    109.3600   8.8101811678e+01   4.7419404503e+01    0.4097175    0.2396707 -59.56  0.001461122    1.522    0.343
       112  -8.8118    207.6549    110.7002   5.1509486438e+01   1.7505465565e+01    0.1500743     0.105207  14.49 0.0007036963    1.679    0.404
       113 -11.9536     14.3248    108.9170   1.0033896816e+02   5.1629847018e+01    0.4055101    0.3097889  -0.89  0.002580588    1.901    0.474
       114 -10.3715      1.2305    108.7334   1.0417428761e+02   5.2576028848e+01    0.3446314    0.1313709 -85.39  0.001197945    2.195    0.544
       115  -9.8664      2.4962    105.4468   1.0351803417e+02   5.3267626914e+01    0.2152282   0.09489679 -83.69 4.296362e-05    1.832    0.454
       116 -11.2606     23.7777    106.1942   9.7165619084e+01   5.1512162454e+01    0.3936585    0.2292141  74.61  0.002003324    1.779    0.438
       117  -9.2877     99.4914    107.3826   7.4795391084e+01   4.1057428706e+01    0.1430604    0.1354077 -88.25 -0.0002073068    1.033    0.032
       118 -10.9330    120.2603    101.2133   6.7636291788e+01   3.8397337526e+01    0.7204282    0.2770364 -34.42  0.002052987    4.213    0.763
       119 -10.5352     52.0415    103.9083   8.8069832986e+01   4.9121615898e+01    0.2136099    0.1485468 -40.04 0.0008826306    1.705    0.414
       120 -10.2707     37.9324    103.7203   9.2429622631e+01   5.0762835313e+01    0.2382261    0.1527804 -61.77 0.0007628095    1.359    0.264
       121 -10.0443     77.6665    102.3395   7.9910193121e+01   4.5917559648e+01    0.1495718     0.105824  80.97 0.0007051575    1.749    0.428
       122  -9.3057     25.9698    102.0528   9.5926970561e+01   5.2316103809e+01    0.1509218     0.124855 -83.36   0.00035322    1.025    0.024
       123 -11.0160     19.4739    100.8734   9.7811332355e+01   5.3148742781e+01    0.2836066    0.2021415 -42.43  0.001252052    1.654    0.396
       124  -9.3250     24.0323     99.0035   9.6110119382e+01   5.3220382748e+01    0.2061431    0.1598662  50.15 0.0009184132    1.401    0.286
       125 -11.4001    143.3009     98.6781   6.1234739049e+01   3.3970328958e+01    0.5293638    0.3943277  72.29  0.002436399    1.689    0.408
       126 -11.7232     63.1311     98.5660   8.3535089698e+01   4.8960215467e+01    0.4928274    0.3252321  21.12  0.002422255    2.045    0.511
       127 -10.9304     65.6965     93.8846   8.1676111609e+01   4.9716769448e+01    0.5150721    0.1911765  38.85  0.001989805    2.860    0.650
       128 -10.4605     50.1939     99.4083   8.7800821502e+01   5.0431443008e+01    0.3642386    0.2398481   4.09  0.001052665    2.515    0.602
       129 -10.5386     54.9316     98.7989   8.6174515376e+01   4.9992356578e+01     0.198458    0.1692114 -52.34 0.0004735583    1.194    0.163
       130 -10.8661     10.0129     98.5091   1.0050976838e+02   5.4420176894e+01     0.313513     0.135001  86.68  0.001412276    2.409    0.585
       131 -11.5356     14.4533     96.8391   9.8894342459e+01   5.4504304094e+01    0.3748877    0.1905636 -67.66  0.002001591    1.559    0.358
       132 -11.9233     10.7779     90.8777   9.9344085396e+01   5.6195346603e+01    0.3956273    0.2500489  44.58 0.0009239017    1.746    0.427
       133 -10.5330      4.9075     97.9848   1.0206265653e+02   5.4880372027e+01    0.1888027    0.1731595  53.80 0.0008340984    1.309    0.236
       134  -9.4785    205.5175     97.4965   4.8481299276e+01   2.0004348209e+01    0.1464634    0.1347406 -21.57 0.0001961425    1.040    0.038
       135  -9.1531    250.4664     95.5158   4.1365571565e+01   1.0872157052e+01    0.1358901    0.1139574 -17.42  0.000238767    1.005    0.005
       136 -10.4963     37.3639     94.7310   9.1091073630e+01   5.2998181790e+01    0.3860091    0.2378431 -86.90  0.001599773    1.663    0.398
       137  -9.3065     38.5194     89.4937   8.9733315201e+01   5.4147987690e+01    0.2122085    0.1012323 -56.91 0.0009896368    1.767    0.434
       138 -12.5214    158.1279     89.8610   5.5382692729e+01   3.2255905460e+01    0.5795707    0.3511816 -27.33  0.002417756    1.787    0.440
       139 -11.6920    156.7658     83.0067   5.3648797505e+01   3.3831319392e+01    0.7943768    0.5512607  30.97  0.003514488    1.698    0.411
       140 -12.1277     37.0088    243.5383   1.0464389690e+02   2.2494360580e+01    0.5281539    0.2272475  84.29  0.002632864    2.469    0.595
       141  -9.5119     31.2284     93.0035   9.2825689778e+01   5.4023844220e+01    0.1771473   0.09115173 -69.13 0.0004088227    1.610    0.379
       142  -9.9105    127.4744     92.5048   6.3365433910e+01   3.8703615968e+01    0.1521123     0.146753 -52.12 0.0001322558    1.010    0.010
       143  -9.4956     46.5247     92.4808   8.7630642749e+01   5.2540034890e+01     0.136241    0.1155873 -77.50 0.0002110916    1.045    0.043
       144 -10.6311     25.3864     91.0215   9.4458849704e+01   5.5033995470e+01    0.2589721    0.1900832 -75.16   0.00156681    1.114    0.102
       145 -11.8675     22.1443     87.2290   9.4955913375e+01   5.6225645513e+01    0.5140997    0.2315543 -63.43  0.001835488    1.746    0.427
       146  -9.3004    113.4419     93.4730   6.7338166269e+01   4.1453459229e+01     0.150022    0.1430058 -40.40 0.0001328518    1.054    0.051
       147 -10.2187     97.0077     89.2718   7.0816131610e+01   4.5596339642e+01    0.2086074    0.1973595  56.50 0.0007733025    1.117    0.105
       148 -10.0106     83.1119     88.7632   7.4887656848e+01   4.8195044875e+01    0.2097337    0.1887759 -80.72 0.0005450182    1.120    0.107
       149 -11.9133      4.4208     84.0323   1.0064651024e+02   5.8236927927e+01    0.6857447    0.1892841 -65.90  0.002892497    2.498    0.600
       150  -9.8541      7.6734     82.6995   9.9337888083e+01   5.8359960523e+01    0.3350312    0.1215867 -61.47  0.001486337    2.083    0.520
       151 -10.4394     78.5353     87.4867   7.5984971924e+01   4.9252881747e+01    0.3014534    0.2448972 -86.37  0.001221921    1.366    0.268
       152 -10.6351     46.1178     86.8427   8.6593558663e+01   5.3949743202e+01    0.3362475    0.1980594  88.33  0.001513449    2.250    0.556
       153  -9.6421    120.9285     86.7027   6.3369772044e+01   4.1319762431e+01    0.2057566    0.1984386  61.65 0.0006487115    1.078    0.073
       154 -10.4416    115.2734     83.9300   6.4058052090e+01   4.3105554914e+01    0.2771916    0.2199513  39.87 0.0005880149    1.344    0.256
       155 -10.6999     14.7034     83.9022   9.7033725338e+01   5.7600598955e+01    0.2751705    0.1676075  83.68  0.001511358    1.642    0.391
       156 -11.8441     30.6970    234.8116   1.0529355349e+02   2.4519645636e+01    0.4228723    0.1404923  80.06  0.002045762    3.871    0.742
       157 -11.8815      6.8904     52.0419   9.4434691898e+01   6.5699754750e+01    0.4073793    0.2785515 -42.05  0.001562736    1.429    0.300
       158 -12.4827    226.2141    245.5303   7.3669812282e+01  -2.4396847257e+00    0.5924185    0.2780541  16.59  0.003340391    2.537    0.606
       159 -10.8050      6.8773     41.4821   9.1941631801e+01   6.8141546418e+01     0.810714    0.1233623 -52.38  0.002924322    3.538    0.717
       160 -14.1703     16.6107     67.5349   9.3503093612e+01   6.1398736476e+01    0.6631814    0.4587264 -81.65  0.001161416    1.315    0.239
       161 -11.7101     13.2847     77.1686   9.6497627661e+01   5.9322037886e+01    0.3340396    0.2779908  67.09  0.001102056    1.299    0.230
       162 -12.1227      8.1753     73.6523   9.7848766806e+01   6.0498197488e+01    0.6619734    0.3893309 -22.79  0.003592828    2.384    0.580
       163 -10.8294     67.6036     83.4575   7.8478730764e+01   5.1905975451e+01    0.2825112    0.1439655  34.59  0.001223659    2.251    0.556
       164 -10.1152     62.5873     82.8265   8.0004900326e+01   5.2785575986e+01    0.2041656    0.1906911  12.40 0.0004178215    1.267    0.211
       165 -10.5146     65.3102     87.5442   8.0283799497e+01   5.1278909103e+01    0.2502227    0.2083381 -73.43 0.0008378595    1.141    0.124
       166  -9.8020     42.0490     82.3103   8.7028480923e+01   5.5504863977e+01    0.1789327    0.1601509 -83.17 0.0003982909    1.098    0.089
       167 -11.4010     31.0130     81.0264   9.0710438712e+01   5.6946610441e+01    0.3811493    0.2658414 -46.05  0.001741451    1.446    0.309
       168  -9.8583    112.1882     79.7899   6.3637328224e+01   4.4624851286e+01    0.1966744     0.175168  -4.81 0.0002454743    1.272    0.214
       169 -10.8908     60.4925     78.1586   7.9501582145e+01   5.4181729198e+01    0.3211367    0.2527775 -64.75  0.001006447    1.162    0.139
       170 -12.7946     44.6689     75.0433   8.4387147336e+01   5.6950620445e+01    0.3157695    0.2627106  71.41  0.000441693    1.348    0.258
       171 -10.8850     42.9971     68.3569   8.3301816831e+01   5.8729312930e+01    0.2878535    0.2292834 -25.47  0.001665918    1.464    0.317
       172 -10.8719     35.8520     68.2106   8.6039614803e+01   5.9544662091e+01    0.5224053     0.259858  58.11  0.001118969    3.194    0.687
       173  -9.9587     74.3141     75.5398   7.4006758719e+01   5.2691950535e+01    0.2505734    0.1584445 -36.07 0.0008054238    1.741    0.426
       174  -9.7700    145.6669     74.4764   5.3459992747e+01   3.8051518832e+01    0.2826641    0.1418073 -35.53  0.001074226    1.931    0.482
       175 -10.7534     92.8255     74.0286   6.7526819153e+01   4.9750385974e+01    0.4925663    0.3520249  18.39  0.002021517    1.922    0.480
       176 -11.5402     94.3649     66.2564   6.4471059787e+01   5.1106652443e+01    0.5212368     0.371068 -12.54 0.0009124168    1.954    0.488
       177 -10.0992     98.0165     60.2377   6.1210658944e+01   5.1599455499e+01    0.2314329    0.2104686 -38.11            0    1.027    0.026
       178 -11.4983     51.5593     62.0190   7.8151655373e+01   5.9145180029e+01    0.5835935    0.4359185  62.69  0.003140847    1.708    0.415
       179 -10.7625     54.2118     74.3525   8.0715221196e+01   5.5931756567e+01    0.3559391    0.2413883  55.04   0.00108118    1.773    0.436
       180 -11.9661     50.2919     68.4290   8.0534453733e+01   5.7828168351e+01    0.4117303    0.2453621 -55.85  0.000938658    1.431    0.301
       181 -10.4326    207.4424     73.3407   4.1575994769e+01   2.3197337479e+01    0.2366372    0.2177361  24.92  0.000412355    1.142    0.124
       182 -10.0411    101.3145     72.2400   6.4357391984e+01   4.8460661920e+01    0.3838859      0.24095  83.13  0.001317785    3.507    0.715
       183  -9.5318    152.1686     71.8449   5.1171567447e+01   3.6945770785e+01    0.2116053    0.1810815  16.64 0.0005161612    1.300    0.231
       184 -11.0796     77.2675     69.7995   7.1237577056e+01   5.3492029257e+01    0.4118304    0.3368382  47.79  0.001099164    1.354    0.261
       185 -10.2277    194.9318     69.9519   4.2553711563e+01   2.6696706947e+01    0.2222117    0.2089984 -18.52 0.0003710764    1.021    0.021
       186 -10.6778    167.8116     69.8593   4.7329405208e+01   3.3415739189e+01    0.2325695    0.2185171  42.98 0.0003269447    1.102    0.093
       187 -12.6106    122.5798     63.8806   5.5543480810e+01   4.5492237106e+01    0.5132695    0.3579621 -54.11 0.0004847948    1.570    0.363
       188  -9.2860    230.3145     68.6899   3.7126341533e+01   1.8597247854e+01    0.1456453   0.09957045 -53.84 0.0003159081    1.632    0.387
       189  -9.6682    103.7983     67.5858   6.2058179414e+01   4.8913324434e+01    0.1972488    0.1473399  61.07 0.0003771117    1.554    0.357
       190 -12.3239     30.6399     64.0383   8.7072226736e+01   6.1051927843e+01    0.6936477     0.507826 -58.83  0.004111249    1.120    0.107
       191 -13.1787     37.6085     49.7310   7.9978205529e+01   6.3634574039e+01    0.7743793    0.6683775 -40.14   0.00303974    1.097    0.088
       192 -11.1278     26.6754     55.9655   8.6630418838e+01   6.3316127984e+01    0.3128154    0.2094027 -49.93 0.0003655093    1.270    0.212
       193 -11.9846     26.7512     49.2500   8.4678016496e+01   6.4858060384e+01    0.5810983    0.3489194 -68.87  0.001965613    1.595    0.373
       194  -9.9451    124.4964     58.0871   5.2987541396e+01   4.6109349742e+01    0.2176587    0.1814966 -31.68 0.0002993073    1.155    0.134
       195 -10.5890    151.9503     63.9996   4.8652936696e+01   3.8359937158e+01    0.4638949    0.1567269  45.22  0.001404668    3.331    0.700
       196  -9.6309    143.9497     64.3158   5.0507956359e+01   4.0290469101e+01    0.2114733      0.19968  40.61 0.0004265079    1.093    0.085
       197 -10.3812     76.6178     63.2646   6.9301057351e+01   5.5038021536e+01    0.2821022    0.2380638 -31.78  0.001538725    1.179    0.152
       198  -9.6689    202.5184     61.5128   3.8905382496e+01   2.6077752893e+01    0.2557644    0.1423235 -14.63  0.001017261    2.099    0.524
       199  -9.5295    113.3765     61.1493   5.7051628447e+01   4.8108850934e+01    0.2214644    0.1341914 -48.13 0.0009306869    1.678    0.404
       200 -10.3591     69.6295     59.1692   7.0371737273e+01   5.7103780713e+01    0.3739513    0.1590209 -38.05  0.001299405    2.605    0.616
       201 -11.8693     60.0769     56.3667   7.2978555326e+01   5.9213171651e+01    0.7813135    0.4591457 -22.53   0.00322932    2.667    0.625
       202 -11.3380     57.4186     90.4284   8.3576779144e+01   5.1682895689e+01    0.5461974    0.3791434 -12.48  0.002612975    2.323    0.570
       203 -10.8995    147.4321     57.1638   4.7293164580e+01   4.0639338593e+01    0.3950624    0.2599132 -54.89  0.001133989    1.758    0.431
       204 -10.7223     75.1415     55.9563   6.7228440801e+01   5.6853102064e+01    0.2962231    0.1992704 -52.38 0.0004413641    1.435    0.303
       205  -9.8522     73.0003     51.5083   6.6328293819e+01   5.8150287998e+01    0.2011864    0.1394507  27.26 0.0009786956    1.721    0.419
       206  -9.4575    230.6519     55.2970   3.3474413748e+01   2.0260496147e+01    0.1479191    0.0974823 -56.11 0.0006947507    1.679    0.404
       207 -12.9734    105.5850     52.6188   5.6093728274e+01   5.1448084034e+01    0.4791063    0.3529679  52.94 0.0006671821    1.459    0.315
       208 -10.0682    104.4926     47.0265   5.4216112932e+01   5.2703947980e+01    0.2368426    0.1831983 -16.24  0.000411948    1.381    0.276
       209 -11.5980     35.3566     42.4584   7.8461240724e+01   6.5495616173e+01    0.5707877    0.3445463  -1.52  0.002594806    2.603    0.616
       210  -9.5123    213.7715     54.4348   3.5299269781e+01   2.4320202612e+01    0.1851939    0.1349611  47.61 0.0003245945    1.493    0.330
       211 -10.3645    133.5213     54.0918   4.9325133115e+01   4.4624457918e+01    0.2382852    0.1481316 -33.98 0.0006736845    1.543    0.352
       212  -9.8368     55.9104     53.2521   7.3517959943e+01   6.0505583514e+01     0.252647    0.1899129   2.76  0.001175783    1.729    0.422
       213  -9.5149    172.5552     52.5354   4.0882605396e+01   3.4927992645e+01    0.1530115    0.1461319 -29.00 0.0002141735    1.005    0.005
       214  -9.9392    120.1891     52.3672   5.1983356612e+01   4.8146020875e+01    0.2935774    0.1767595  35.87 0.0009809163    1.952    0.488
       215 -10.4624     87.7800     51.3813   6.1137709446e+01   5.5419822241e+01    0.3269627    0.1837878 -34.07  0.001400598    1.763    0.433
       216  -9.8645    237.3891     51.2023   3.1621236395e+01   1.9252653797e+01    0.2117249    0.1068269 -35.66 0.0009293621    1.674    0.403
       217 -12.4122    129.1651     49.7354   4.8751197504e+01   4.6427857727e+01    0.5207739     0.400659  30.75 0.0009038319    1.439    0.305
       218 -10.3640    131.3212     41.9067   4.5260970127e+01   4.7143019826e+01     0.318487    0.2359523 -53.47 0.0006870565    1.492    0.330
       219 -12.0347     78.4968     47.3192   6.2698123365e+01   5.7998297650e+01    0.4165135    0.2376346 -41.00  0.001884621    1.597    0.374
       220 -10.9250     45.1296     49.7273   7.6721166198e+01   6.2736734474e+01    0.4528647    0.1804568 -54.15  0.001876725    2.162    0.537
       221 -10.3218    200.1364     49.5103   3.5667842330e+01   2.8319083490e+01    0.2495738     0.192957 -29.08 0.0002885677    1.201    0.167
       222 -10.3034     52.3239     49.7555   7.3712156043e+01   6.1773676542e+01    0.2403504    0.2180443 -23.74 0.0008131841    1.130    0.115
       223 -10.1405     59.2155     47.8442   7.0189068741e+01   6.1171994439e+01     0.200967    0.1744313 -59.38 0.0004506154    1.202    0.168
       224 -10.2791    151.5457     46.2098   4.2585645109e+01   4.1313310943e+01    0.2473305    0.2303567 -35.04  0.000548569    1.045    0.043
       225 -10.2594    143.2862     45.7076   4.4080962168e+01   4.3518802568e+01    0.2813147    0.2231323 -58.29 0.0005658718    1.394    0.283
       226  -9.9633    139.3031     43.0565   4.3939181839e+01   4.4942009711e+01    0.2474728    0.2122049 -69.06 0.0005413297    1.310    0.237
       227 -10.9534     91.1992     42.2230   5.6295092693e+01   5.6436987938e+01    0.6679304    0.2371796 -46.26  0.002193027    3.127    0.680
       228 -10.1384     72.9561     43.1733   6.2995065217e+01   5.9820993456e+01     0.391087    0.2513039 -63.39  0.001722552    2.219    0.549
       229 -11.3621     52.6551     40.9487   7.0152475236e+01   6.3582728255e+01    0.4948163    0.3664826 -26.94  0.002075312    1.357    0.263
       230 -12.9181     57.6200     34.4311   6.5224519008e+01   6.4113634203e+01    0.3273153    0.2738133 -21.85 0.0004912298    1.124    0.110
       231 -10.0417    107.8128     42.3130   5.1357287156e+01   5.2763937156e+01    0.4165534    0.2074875  37.54  0.001569549    2.435    0.589
       232 -10.7948     96.2846     39.6702   5.3616159237e+01   5.5796544338e+01    0.3962166    0.2313233  32.84  0.001667192    2.081    0.520
       233  -9.8622     18.3453     42.3039   8.6520775322e+01   6.7160122236e+01    0.3699834    0.1287387 -53.45  0.001245443    2.109    0.526
       234 -11.0940     23.7958     41.6717   8.3669265040e+01   6.6838698718e+01    0.5425227    0.3273967  72.33  0.002448523    3.132    0.681
       235 -12.9416     27.6373     37.9768   8.0504129747e+01   6.7288053183e+01    0.5112655    0.3379908 -24.11  0.001526934    1.718    0.418
       236 -11.6649     24.2055     34.8271   8.1053474341e+01   6.8303411680e+01    0.4660929    0.2673956  -6.32 0.0007552508    2.650    0.623
       237 -11.2863     81.2423     35.6999   5.6764075663e+01   5.9623124197e+01    0.4823734    0.2359766 -39.87  0.002034166    1.896    0.472
       238  -9.3211     84.8019     34.8138   5.5152614625e+01   5.9055655579e+01    0.1941832    0.1719506 -19.14 0.0003202565    1.043    0.042
       239 -11.3517     69.1574     38.2085   6.2288244489e+01   6.1448047259e+01    0.6164599    0.3361658 -18.68  0.002081108    3.011    0.668
       240 -10.7686    112.5042     45.8052   5.1479808240e+01   5.1086445900e+01    0.3906961    0.2437362  38.46  0.001220666    1.768    0.435
       241 -11.8607     75.3763     35.0789   5.8563193071e+01   6.0875779883e+01     0.739859    0.4362927  -2.72  0.002706913    3.334    0.700
       242 -11.8592     45.1475     38.7121   7.2524686363e+01   6.5091785696e+01    0.4361341    0.2876717  48.86  0.001537847    1.965    0.491
       243 -11.1909    225.1389     38.1341   2.9346849401e+01   2.3646590484e+01    0.2809969    0.2340734  88.07 0.0003732225    1.325    0.245
       244  -9.7757    152.3544     39.0142   3.9831988721e+01   4.2143975611e+01    0.2200642     0.187378 -29.50 0.0004788087    1.140    0.123
       245  -9.6616     86.0115     38.7209   5.6486061849e+01   5.8131077812e+01    0.1866251    0.1771668  16.53 0.0001948598    1.097    0.089
       246  -8.9239    160.2894     38.2544   3.8131714507e+01   4.0160018624e+01    0.1497956    0.1135243  29.46 0.0006869141    1.483    0.326
       247  -9.9471      1.3586     37.5891   9.3736933611e+01   6.9327796621e+01    0.2013934   0.08817504 -65.86 0.0004736247    1.717    0.418
       248 -10.3434    100.7772     36.0902   5.0731789990e+01   5.5393590492e+01    0.3012902    0.2134066 -59.48   0.00138612    1.807    0.447
       249 -10.1745    171.9979     36.0071   3.5433502243e+01   3.7363787485e+01    0.2289364    0.2102312  36.11 0.0004563927    1.140    0.122
       250  -9.8518    134.4828     35.9659   4.2247395023e+01   4.7219267328e+01     0.243226    0.1481332 -26.32  0.001040194    1.617    0.382
       251  -9.9895     12.4317     33.2018   8.6624613381e+01   6.9638445395e+01    0.2311216    0.1839754  73.61 0.0007522178    1.647    0.393
       252 -11.3165     17.6727     31.2230   8.3120376172e+01   6.9662599061e+01    0.3960587    0.2339909  36.50  0.002222204    2.106    0.525
       253  -9.7109      8.8613     35.1708   8.9147415225e+01   6.9444962334e+01    0.2916936    0.1611726 -53.66 0.0008531286    1.374    0.272
       254 -10.9056      8.0448     31.4751   8.8426332453e+01   7.0317477406e+01    0.2570196     0.173856 -38.59 0.0008275221    1.350    0.259
       255 -10.1133    148.1533     41.0603   4.1384404440e+01   4.2951618536e+01    0.3564655    0.2178695 -14.13  0.001417986    1.892    0.472
       256 -11.3886    221.7728     32.3760   2.8070079765e+01   2.5119789329e+01    0.3123052    0.2115563 -32.75  0.000303317    1.304    0.233
       257  -9.6559    192.6586     34.3055   3.1963706856e+01   3.2169798365e+01    0.1593559    0.1040474 -58.60 0.0007041525    1.683    0.406
       258 -10.1067    108.7777     34.2280   4.7691983284e+01   5.3835886354e+01     0.288432    0.2090726  70.64  0.001264901    1.674    0.403
       259  -9.3789    209.2963     32.2927   2.9363117782e+01   2.8184563370e+01    0.1889702    0.1356952  87.07 0.0001907678    1.558    0.358
       260 -10.8297    205.9107     32.2836   2.9739705047e+01   2.9033026538e+01    0.2381343    0.1801766 -36.61 0.0002686254    1.208    0.172
       261  -9.5016    201.6978     33.6821   3.0653011141e+01   2.9931178860e+01    0.1478024    0.1090855  25.43 0.0003052929    1.623    0.384
       262  -9.8783    247.6622     32.7305   2.5781501232e+01   1.9130482113e+01    0.1272042   0.09797142  26.12 0.0003325428    1.599    0.375
       263 -11.4360    237.1303     29.3431   2.5792627974e+01   2.1859384668e+01    0.3968934    0.2331947  30.11  0.001793495    2.411    0.585
       264 -10.1260    166.5876     32.2575   3.4977552667e+01   3.9275754030e+01    0.2135121    0.1452958  -8.86 0.0008550325    1.649    0.393
       265 -10.7241     97.8559     31.1438   4.9393058679e+01   5.6833627032e+01     0.275964    0.2441171  14.62 0.0007913002    1.137    0.120
       266 -11.3824    102.4309     28.6319   4.6953188949e+01   5.6162108943e+01    0.4775493    0.3428121  79.32 0.0007235001    1.897    0.473
       267  -9.8562     48.4906     31.5068   6.7872026353e+01   6.6070380599e+01    0.2159531    0.1317665  28.04 0.0005687065    1.928    0.481
       268 -10.2671     50.2452     27.9814   6.5410477823e+01   6.6478210496e+01    0.3362729    0.2098076 -17.76  0.001067453    1.982    0.495
       269  -9.0309     44.0000     30.9809   6.9700777407e+01   6.6806841052e+01    0.2149675   0.06606964 -47.25 0.0004725023    2.798    0.643
       270 -10.7256    111.6243     27.8047   4.4156004161e+01   5.4093225624e+01    0.4369364    0.2462247 -15.25  0.001111488    2.034    0.508
       271 -10.5297     69.2651     27.2046   5.7107104418e+01   6.3388749877e+01    0.5270756     0.346026   0.16  0.002433411    2.078    0.519
       272 -11.1501     60.0333     27.0472   6.0707084268e+01   6.5067147902e+01    0.2299951    0.1778902 -39.00 0.0003738024    1.202    0.168
       273 -10.9266    174.9795     26.7778   3.1847160961e+01   3.7709509911e+01    0.2604795    0.2009788 -33.83 0.0002322571    1.240    0.193
       274 -11.5678    128.4464     25.4177   3.9266191613e+01   5.0196373742e+01    0.5131655    0.2897722 -24.28  0.001890997    1.751    0.429
       275 -13.3341     74.2728    238.2231   9.8104648775e+01   1.9062869601e+01    0.6574376    0.5090855  84.14  0.005341178    1.333    0.250
       276 -10.0894    195.5413    238.6685   7.7553510626e+01   2.3694722189e+00    0.1887921    0.1301053  11.29  0.001351994    1.454    0.312
       277 -10.7839     20.2514     16.3787   7.5171447594e+01   7.2474615569e+01    0.2904284    0.2437042  -3.17  0.001370438    1.273    0.214
       278 -10.9639    244.0309    237.2111   6.9849082887e+01  -4.0138546109e+00    0.1733375    0.1263676  -1.71  0.001068369    1.262    0.208
       279 -11.1683      8.0126     25.0196   8.6213603779e+01   7.1723967407e+01    0.3667688    0.1770418  16.44   0.00193948    2.587    0.613
       280  -9.7938    134.7750    238.2392   8.7666008899e+01   1.1034577195e+01    0.1403075   0.08353288 -38.34   0.00088364    2.442    0.591
       281 -10.1546    203.9696     25.8771   2.8018425867e+01   3.0257665488e+01    0.3045498     0.142555 -46.43  0.001227928    2.089    0.521
       282  -9.9176      1.4563     25.8982   9.0339966229e+01   7.1927812192e+01    0.1811672   0.09174038 -61.90 0.0003791622    1.505    0.336
       283 -11.1510    192.5620     23.6058   2.8583030374e+01   3.3441265113e+01    0.4205134    0.1686949 -37.58  0.001207986    2.213    0.548
       284 -11.1323    185.4845     23.0892   2.9253067579e+01   3.5350222655e+01    0.4122139    0.2653236 -10.13  0.001872399    1.722    0.419
       285 -10.2654    160.1119    235.8586   8.3071511441e+01   7.7323771810e+00    0.1488764    0.1079561  24.11 0.0004263969    1.318    0.241
       286 -11.9966    165.1648     22.8748   3.1872631528e+01   4.0779820603e+01    0.3040699     0.271504  70.87  0.001634057    1.134    0.119
       287  -9.6623    109.2714    242.4481   9.2441658464e+01   1.3957762758e+01    0.1549138   0.07262944  48.16 0.0009352019    1.641    0.390
       288 -10.1165     38.2392    232.7928   1.0393235871e+02   2.4053223197e+01    0.1494368   0.09743452  62.72 0.0006185998    1.113    0.101
       289 -10.7779     59.3743     20.6772   5.7706181486e+01   6.6258017453e+01    0.3875235    0.1997924 -26.14  0.001342353    2.003    0.501
       290  -9.4213    120.4009     20.8554   3.9044821816e+01   5.2820947119e+01    0.1969196    0.1383804  -4.99 0.0004192366    1.550    0.355
       291 -10.2178     67.1589     21.0509   5.4782032938e+01   6.4781219126e+01    0.2298636     0.195447  30.61 0.0005972261    1.227    0.185
       292 -10.0681     24.0539    232.3647   1.0629638641e+02   2.5586641687e+01    0.1462939    0.1138165  83.98 0.0006577913    1.309    0.236
       293 -11.0290      6.0255     20.5179   8.5681703590e+01   7.2812627175e+01    0.2394782    0.1888688 -17.17 0.0006826778    1.362    0.266
       294  -9.6637    177.3091    235.3304   8.0114872294e+01   5.3228684017e+00    0.1092236   0.07165132  15.84 0.0007040971    1.666    0.400
       295  -9.5776    169.8395    228.8418   8.0554018372e+01   7.1805683738e+00    0.1473469    0.1141799  49.26  0.000557042    1.329    0.248
       296 -10.0154    173.7832     20.5839   2.9885136724e+01   3.8729535470e+01     0.214215    0.1403608  89.99 0.0009566316    1.741    0.425
       297  -9.7545    226.1869     22.1022   2.4768770709e+01   2.5198388446e+01     0.198021     0.182014  16.42 0.0007257918    1.236    0.191
       298 -10.0844    221.0810    234.7812   7.2982041299e+01  -7.6687598474e-01    0.1829919   0.09154674  21.15  0.001078794    1.960    0.490
       299 -10.9530     88.5733    241.2795   9.5880794312e+01   1.6822304874e+01    0.1665429    0.1533139  -4.83  0.001381444    1.675    0.403
       300 -11.1642      4.5419    226.6113   1.0932940438e+02   2.8378679097e+01    0.2582017    0.1237077  57.40  0.001868635    1.418    0.295
       301  -9.1611    190.3589    226.3093   7.6752727714e+01   4.4668514102e+00    0.1165009   0.07156971  17.13 0.0007041759    1.736    0.424
       302  -9.9014    106.3212     22.9974   4.3345055040e+01   5.6028522973e+01    0.2575074    0.2029202 -71.48 0.0007260779    1.638    0.390
       303  -8.8960    139.6822     19.7090   3.4760541766e+01   4.7948232488e+01     0.156287    0.1074046  31.79 0.0002737192    1.599    0.375
       304 -10.7407    107.5072     18.1352   4.0798513592e+01   5.6361874841e+01    0.3420428    0.2303589  17.48  0.001581239    1.719    0.418
       305 -10.4896     94.1882     22.3873   4.6378122396e+01   5.8946279319e+01    0.2729023    0.2378872 -45.61 0.0007595058    1.252    0.201
       306 -10.0574     54.6353     18.7952   5.8715306838e+01   6.7379924073e+01    0.2167369     0.177253  89.96  0.001160895    2.034    0.508
       307 -10.0766     30.4266     17.7835   7.0087776885e+01   7.1080099594e+01    0.3000072    0.2329584 -13.60  0.001876489    1.276    0.217
       308 -11.0826    120.9469    226.0013   8.8815328793e+01   1.4698586152e+01    0.1759025    0.1388954  45.25 0.0007510056    1.033    0.032
       309  -9.7413     66.0394    226.4625   9.8721482075e+01   2.1913004395e+01    0.1574544   0.08427315  41.21 0.0007060624    1.534    0.348
       310  -9.6415     13.3058    221.3051   1.0768040591e+02   2.8462005421e+01   0.08073582   0.07361846 -77.20 0.0002359761    1.603    0.376
       311  -9.3452    176.3453    219.3011   7.8171571600e+01   7.3949610451e+00    0.1168123    0.0763786  17.08 0.0007038257    1.682    0.406
       312 -11.5060     10.1816    217.1587   1.0806626294e+02   2.9461182824e+01    0.2834417     0.150149  45.71  0.001816047    1.482    0.325
       313 -10.1808    194.9892     16.9489   2.6211531702e+01   3.3524441550e+01    0.2073778    0.1960456 -47.49 0.0002960428    1.013    0.012
       314  -9.5459     82.4916     17.5115   4.7518495225e+01   6.2199840396e+01    0.1415697    0.1276142  -3.23  0.000810526    1.001    0.001
       315  -9.8805     38.1139    217.4950   1.0315590306e+02   2.6615353560e+01    0.1528408    0.0829909  42.15 0.0008163455    1.542    0.352
       316 -10.8582    247.6608     15.6388   2.1383749105e+01   2.0935466873e+01    0.1962099    0.1491762  25.91  0.001113803    1.674    0.402
       317 -11.3050     29.3422    215.9320   1.0464539969e+02   2.7807851702e+01    0.2318767     0.202542  34.52  0.001123462    1.565    0.361
       318 -11.4789    235.9258    214.5289   6.7660528218e+01  -8.4301425681e-01    0.2251958     0.139531 -15.92 0.0009552466    1.606    0.377
       319  -9.5031     83.8487     13.6261   4.5060203857e+01   6.2414586378e+01    0.1753227    0.1361781  68.15 0.0002887318    1.567    0.362
       320 -10.6152    243.4721     12.5396   2.0871417147e+01   2.2176493753e+01    0.1328617     0.112076 -43.76 0.0001040127    1.010    0.010
       321  -9.5152    136.4935    215.5597   8.4808286729e+01   1.3958311129e+01    0.1163209   0.09383137  38.93 0.0001543861    1.065    0.061
       322 -10.4054     59.9761    241.4743   1.0073968602e+02   2.0270704534e+01    0.2082117   0.06779861  42.39  0.001125614    2.146    0.534
       323  -9.9059    169.6722     12.6993   2.7664071956e+01   4.0652697202e+01    0.1537543    0.1046409  35.88 0.0007030765    1.641    0.391
       324  -9.5713    169.5333    213.4778   7.8559467686e+01   9.1892603438e+00    0.1177094   0.09397417  30.14 6.468571e-05    1.046    0.044
       325  -9.4989     30.9714     12.4822   6.6848310138e+01   7.1967646236e+01    0.1585372    0.1217907  25.45  0.000568852    1.457    0.314
       326 -10.6592     20.8666    212.3699   1.0599349977e+02   2.9280865419e+01    0.2672831   0.08071745  51.42  0.001371559    2.288    0.563
       327  -9.4788    208.5336    211.9579   7.1639509875e+01   3.4069209314e+00    0.1510284    0.1053918 -21.06  0.001011128    1.547    0.354
       328 -10.5496      1.4997    211.0523   1.0936688295e+02   3.1300157210e+01    0.2108012    0.1144345  87.48 0.0009332816    1.536    0.349
       329 -11.7908      5.6254    208.6004   1.0855989162e+02   3.1370978857e+01    0.3235082    0.1941562  88.80  0.002421448    1.422    0.297
       330 -10.9897      2.4148    205.7664   1.0903369049e+02   3.2158673605e+01     0.230269     0.116999 -74.37  0.001565998    1.962    0.490
       331 -11.5562    238.3082    210.2398   6.6608688525e+01  -7.5146606096e-01    0.2216193    0.2156027   0.88  0.001767225    1.685    0.407
       332  -9.3280    107.5229     10.5617   3.7219142315e+01   5.7224338148e+01     0.142877    0.1337321  17.99 9.699509e-05    1.007    0.007
       333 -10.3288     10.8066    208.3922   1.0762883426e+02   3.0940066807e+01    0.1710977    0.1487523 -50.50 0.0005941775    1.845    0.458
       334 -10.7190    245.8989    203.3355   6.4313017282e+01  -1.1339667131e+00    0.3121731    0.2487398  64.00  0.001996329    2.615    0.618
       335 -11.3274     16.2505    193.1269   1.0595512644e+02   3.3243341680e+01    0.3911275    0.1974354  44.49  0.002276434    1.639    0.390
       336 -10.6903     20.1852    199.9503   1.0553763429e+02   3.1590011242e+01    0.2438817     0.102501 -67.81  0.001418938    2.442    0.591
       337 -10.5328    175.4072    202.5219   7.5916624203e+01   9.7396751602e+00    0.2067519    0.1665944  32.95 0.0004861181    1.034    0.032
       338  -9.4666    117.4781    201.5421   8.6699926944e+01   1.9035506861e+01    0.1203021    0.0992218  50.98 0.0002655298    1.011    0.010
       339  -9.0895    188.2899    205.2993   7.4055112953e+01   7.3241771265e+00    0.1170569    0.0796821  13.84 0.0002941527    1.560    0.359
       340  -9.2593    223.3091    200.7008   6.7415684264e+01   2.4482496227e+00   0.09814826   0.09083942  48.63 0.0003474673    1.598    0.374
       341  -9.3494    222.3020    192.3791   6.6168283295e+01   3.5518840759e+00    0.1266775   0.07726984   8.93 0.0007025167    1.770    0.435
       342 -10.1021    244.7961    188.2222   6.1870409352e+01   5.8622795023e-01    0.1650996    0.1088959  11.02 0.0005147319    1.327    0.247
       343  -9.6664    212.0398    188.2238   6.7153259584e+01   5.6806299329e+00    0.1618884   0.08630229  38.78 0.0006856978    1.651    0.394
       344  -9.7462     61.6355    184.8174   9.6217870121e+01   2.9906967026e+01    0.1644648   0.09732928 -88.84 0.0009473229    1.719    0.418
       345 -11.3557     16.0100    182.5226   1.0546780845e+02   3.5316350149e+01    0.3970874    0.1802015  73.81  0.002273889    1.919    0.479
       346 -10.4230    167.9306    183.7677   7.4325634326e+01   1.3691804106e+01    0.2024291    0.1386838  62.02  0.001029496    1.927    0.481
       347  -9.6451     58.8159    182.1471   9.6564685156e+01   3.0782388402e+01     0.146127    0.1380828 -74.86  0.001071561    1.352    0.261
       348  -9.1180      1.5571    180.4980   1.0826521987e+02   3.6975555692e+01    0.1081332   0.07749854  73.22  0.000128077    1.014    0.013
       349  -9.8940    244.4772    178.4705   6.0143771471e+01   1.6984843644e+00    0.2052976    0.0990839 -15.35  0.001024326    2.262    0.558
       350 -10.7822     46.5027    177.7647   9.8798125360e+01   3.3123117507e+01    0.2661382    0.1975575  86.36  0.001105568    1.171    0.146
       351 -10.6954     34.0555    174.0186   1.0117059576e+02   3.5250291384e+01    0.1704072    0.1314371  74.09            0    1.008    0.008
       352 -10.9279     18.0717    173.1947   1.0452220452e+02   3.6995830807e+01    0.3043083    0.1398485  61.74  0.001238698    1.830    0.454
       353 -12.7879     49.8060    161.8226   9.6601477389e+01   3.6057590265e+01    0.8136145    0.3664131  40.66  0.002308134    2.033    0.508
       354 -11.2579     35.6369    161.8906   9.9857503937e+01   3.7621301526e+01    0.2453593    0.2276406  51.69  0.001236014    1.330    0.248
       355  -9.4265    177.2727    168.6744   6.9882888233e+01   1.4380784827e+01    0.1195437    0.1044374  87.00 0.0002144863    1.580    0.367
