#   1 NUMBER                 Running object number                                     
#   2 MAG_AUTO               Kron-like elliptical aperture magnitude                    [mag]
#   3 X_IMAGE                Object position along x                                    [pixel]
#   4 Y_IMAGE                Object position along y                                    [pixel]
#   5 X_WORLD                Barycenter position along world x axis                     [deg]
#   6 Y_WORLD                Barycenter position along world y axis                     [deg]
#   7 A_WORLD                Profile RMS along major axis (world units)                 [deg]
#   8 B_WORLD                Profile RMS along minor axis (world units)                 [deg]
#   9 THETA_WORLD            Position angle (CCW/world-x)                               [deg]
#  10 FWHM_WORLD             FWHM assuming a gaussian core                              [deg]
#  11 ELONGATION             A_IMAGE/B_IMAGE                                           
#  12 ELLIPTICITY            1 - B_IMAGE/A_IMAGE                                       
         1 -14.8775    162.1914     49.3790   7.5375173271e+01   3.8361356166e+01     1.130623     1.075334 -10.48  0.003742529    1.205    0.170
         2 -15.0769    176.0021     19.8183   6.5211083276e+01   3.8744890083e+01    0.9679936    0.8156399  81.54  0.003514615    1.031    0.030
         3 -14.3927    190.2354     15.4770   6.2299535622e+01   3.5838363032e+01    0.6193366    0.4040573 -81.47  0.002486533    1.537    0.349
         4 -11.5554    128.6487    244.1994   1.2583792596e+02   5.4545370553e+00    0.1733227    0.1497426 -82.85 0.0004723901    1.269    0.212
         5 -20.3278     75.2217    176.8384   1.2804497208e+02   2.8852389782e+01     17.07827     7.197811 -64.13   0.06910648    2.259    0.557
         6 -11.8400    109.6308    244.4616   1.2965312207e+02   8.5545386158e+00    0.1987775    0.1521741 -61.72 0.0005486232    1.473    0.321
         7 -13.8249    187.8335    175.3980   1.0139412150e+02   8.0781902409e+00    0.8656431    0.4976383 -55.61  0.002428491    2.056    0.514
         8 -12.0288    187.0674    166.1768   9.9601400998e+01   1.0139321119e+01    0.4897669    0.3350015 -64.20  0.001754268    1.864    0.464
         9 -13.0165    176.8168    169.3782   1.0250255627e+02   1.1587502535e+01    0.4924635    0.2289351 -51.66  0.001820165    2.345    0.573
        10 -12.3110    194.4338    171.9019   9.9272625261e+01   7.4590862026e+00    0.4161887    0.2814259 -55.06  0.001215819    1.651    0.394
        11 -10.9204    240.3077    169.3350   8.9909813154e+01  -8.0015293439e-01    0.1411256    0.1018308  -6.41 0.0002644045    1.673    0.402
        12  -9.9899    162.2293    244.6108   1.1916876701e+02  -3.3888812697e-01    0.1214308   0.09743121  81.04 0.0006894152    1.634    0.388
        13 -13.1546    161.0409    165.3721   1.0518906986e+02   1.5742096471e+01    0.6620713    0.3859846 -69.62  0.002367421    2.796    0.642
        14 -10.1963    177.9702    156.2347   9.9391163287e+01   1.4157475643e+01    0.2063213    0.1965998  49.71 0.0002745372    1.061    0.057
        15 -11.5651     24.4452    215.0677   1.4333302169e+02   2.6556817995e+01    0.1883768    0.1437382  60.78 0.0003463388    1.227    0.185
        16 -11.5935     17.7747    154.1671   1.3888970288e+02   4.1058659054e+01    0.2509765    0.1615061 -61.31 0.0003362611    1.336    0.252
        17 -11.2643     18.3047    148.9434   1.3813787012e+02   4.2237784945e+01    0.2528015    0.2097017 -30.80  0.001478595    1.535    0.349
        18 -12.9855    164.3296    152.8103   1.0168374943e+02   1.7832862750e+01    0.4148101    0.3882591  30.38   0.00120911    1.115    0.104
        19 -12.3996    188.2265    153.9872   9.6679499673e+01   1.2445744296e+01    0.7485784    0.4431622  39.92  0.003174865    1.780    0.438
        20 -11.8904    174.3791    148.8603   9.8522330243e+01   1.6524306962e+01    0.3796954    0.2837729 -70.51  0.001293623    1.640    0.390
        21 -12.5821     27.3198    145.6569   1.3544962472e+02   4.2205864545e+01    0.3750012    0.3449259 -58.87  0.001274004    1.200    0.167
        22 -10.4363     20.3727    211.8307   1.4385022714e+02   2.7693480199e+01    0.1496015   0.08909029 -69.46 0.0003973704    1.519    0.342
        23 -13.6170     11.9383    205.8361   1.4499335384e+02   2.9851993469e+01    0.4746923    0.3716334  20.39  0.003157364    1.944    0.486
        24 -11.3726    121.0229    197.2937   1.2054481221e+02   1.6415701961e+01    0.3349868    0.2788692 -87.87  0.001174283    1.244    0.196
        25 -11.2481    134.1109    196.9640   1.1751231527e+02   1.4074084670e+01    0.3153614     0.211222 -52.91 0.0006672305    1.558    0.358
        26 -12.3837    166.6406    240.9953   1.1774007969e+02  -4.7580213077e-01    0.5312097    0.3223567  32.79  0.001814522    1.549    0.355
        27 -13.0031    160.2970    127.7984   9.6739570606e+01   2.4249167690e+01     0.521566    0.3736845 -60.32  0.001440392    1.528    0.346
        28 -11.3789    139.5971    193.4969   1.1565475528e+02   1.3797525830e+01     0.362468    0.1451417 -58.00  0.001250159    2.993    0.666
        29 -11.4823    141.7606    188.5048   1.1425066569e+02   1.4482242830e+01    0.2706721    0.2076732 -55.52 0.0007157148    1.348    0.258
        30 -11.1942    231.2968    113.6887   7.9421320743e+01   1.1223659101e+01    0.2501348     0.240394 -37.82 0.0007327636    1.120    0.107
        31 -10.9054    167.7359    112.7307   9.1281547267e+01   2.5756841532e+01    0.3237767    0.2254751 -82.29  0.001316173    2.086    0.521
        32 -12.0723    164.9712    186.9891   1.0871732617e+02   1.0248293287e+01    0.2316136    0.2235571  68.99 0.0007711802    1.059    0.056
        33 -11.0011    205.3426    110.2581   8.3079926076e+01   1.7550581612e+01    0.3096023    0.2091449  49.04 0.0009457825    1.563    0.360
        34 -10.7788     22.4389    107.4859   1.3084412886e+02   5.1513146238e+01    0.2065603    0.1655327 -16.27 0.0009263954    1.453    0.312
        35 -10.9550      3.4510    244.9775   1.4897181091e+02   2.2675544602e+01    0.1656165       0.1201  21.51  0.001022769    2.454    0.593
        36 -12.3352    135.7993    237.1900   1.2343862020e+02   5.5431902072e+00    0.3565515    0.3108981 -74.55  0.001004169    1.275    0.216
        37 -12.2136     27.2062     98.1046   1.2756670186e+02   5.3215455505e+01    0.4249952    0.3336888 -10.56  0.002166691    1.461    0.315
        38 -11.0093      6.4097    227.1752   1.4745305445e+02   2.5908264410e+01   0.08487369   0.08166815  47.27 0.0006650031    1.622    0.383
        39 -11.6157      4.2208     89.8129   1.3335505994e+02   5.6629871431e+01    0.2970758     0.154335  -8.44  0.001596563    2.640    0.621
        40 -12.5285    162.6271    181.1820   1.0809318411e+02   1.1956437291e+01    0.3819034    0.2613719 -69.45  0.001675322    1.912    0.477
        41 -10.6627    144.5135     82.5101   8.8497124218e+01   3.7141413337e+01    0.1491969    0.1455971  66.32 6.434726e-05    1.007    0.007
        42 -10.4173    100.9117     81.3032   9.9696105616e+01   4.6659257710e+01    0.1965121    0.1771448  29.94 0.0004429808    1.109    0.098
        43 -14.3375    150.8192     64.0820   8.1815750421e+01   3.8855643919e+01     1.235534    0.9088478  32.16  0.003313729    1.565    0.361
        44 -10.8512    115.6276    248.3578   1.2894278370e+02   6.8447345983e+00    0.1474303    0.1193618 -52.52 0.0009094361    1.501    0.334
        45 -13.3880    166.8184     40.8687   7.2204517322e+01   3.8412620326e+01    0.4384183    0.4013545  70.68  0.000849722    1.035    0.034
        46 -10.8615     13.4311     59.8942   1.2356966478e+02   6.2127728753e+01    0.1638977    0.1491312 -11.85 0.0004054634    1.246    0.197
        47 -11.2769     29.9489    245.9006   1.4462443416e+02   1.9579927081e+01     0.210784    0.1241834 -88.06   0.00114879    1.441    0.306
