#   1 NUMBER                 Running object number                                     
#   2 MAG_AUTO               Kron-like elliptical aperture magnitude                    [mag]
#   3 X_IMAGE                Object position along x                                    [pixel]
#   4 Y_IMAGE                Object position along y                                    [pixel]
#   5 X_WORLD                Barycenter position along world x axis                     [deg]
#   6 Y_WORLD                Barycenter position along world y axis                     [deg]
#   7 A_WORLD                Profile RMS along major axis (world units)                 [deg]
#   8 B_WORLD                Profile RMS along minor axis (world units)                 [deg]
#   9 THETA_WORLD            Position angle (CCW/world-x)                               [deg]
#  10 FWHM_WORLD             FWHM assuming a gaussian core                              [deg]
#  11 ELONGATION             A_IMAGE/B_IMAGE                                           
#  12 ELLIPTICITY            1 - B_IMAGE/A_IMAGE                                       
         1 -14.2824    103.6960    229.8993   1.1259231848e+02   1.3753456608e+01     1.802694     1.380491  32.54   0.01139187    1.467    0.319
         2 -12.5955    210.4837     29.9968   4.5983736363e+01   2.8592178496e+01    0.8774287     0.553315 -77.06  0.003760055    1.761    0.432
         3 -13.4606    217.6993     22.8046   4.3309778837e+01   2.7689066264e+01    0.9149066    0.6387737  57.76  0.001464311    1.492    0.330
         4 -13.6264    232.5658      7.4559   3.8188335098e+01   2.5877453319e+01    0.8053588    0.6533273 -70.46  0.002621964    1.044    0.042
         5 -13.4136     86.9915    223.7044   1.1517147086e+02   1.7396175091e+01    0.9844639    0.6359809  54.03  0.004071947    1.271    0.213
         6 -10.9052    249.2315    247.1826   8.8146264452e+01  -1.1500449084e+01    0.3920468    0.2437893 -15.32  0.002626378    1.574    0.365
         7 -11.3507    232.6952    248.6452   9.1170085478e+01  -9.3641960305e+00    0.7124507    0.2543736  27.32  0.003082839    3.113    0.679
         8  -9.9751    212.6136    250.6253   9.4956827611e+01  -6.6622677457e+00    0.2875058   0.08903838  42.80  0.001246086    2.855    0.650
         9 -11.0562    198.7483    249.5899   9.7266395698e+01  -4.4373044141e+00    0.4528144    0.2260136  29.54   0.00245187    1.779    0.438
        10 -11.7187    199.3783    243.7150   9.6297185390e+01  -3.7958831704e+00    0.4593658    0.2974461   3.90   0.00266755    1.908    0.476
        11 -12.4660    198.0859    238.0345   9.5682119236e+01  -2.8540200686e+00    0.5556065    0.3813907  -8.48  0.003096688    1.755    0.430
        12 -14.2116    175.7344    241.2473   1.0028238367e+02   3.0514655206e-01     1.709198     1.252955  31.41  0.009804094    1.137    0.121
        13 -10.7671     75.9627    249.9225   1.1954536550e+02   1.4270224424e+01    0.2858803    0.1326456  47.28   0.00165547    1.639    0.390
        14 -14.9270      3.9426    136.5184   1.2477399697e+02   4.5760834915e+01     4.342009     1.105443 -80.03   0.01528159    3.673    0.728
        15 -14.8628     39.7324    200.3026   1.2231753242e+02   2.8289606625e+01     4.141223     1.690543  63.17   0.01960059    2.506    0.601
        16 -11.4052     71.1433    225.2639   1.1835642098e+02   1.9342005683e+01    0.6879377     0.346624  33.58  0.003041168    2.251    0.556
        17 -11.0481    225.7491    241.9509   9.1330132302e+01  -7.5988114613e+00     0.351448    0.2423945   0.81  0.002296086    1.423    0.297
        18 -12.2420    232.6153    235.9600   8.9173350618e+01  -7.9106076567e+00    0.6581977    0.4335329 -17.07  0.004220394    1.550    0.355
        19 -12.5956    225.4078    227.3615   8.9025607430e+01  -5.7742105125e+00    0.9099782    0.5255685 -17.68  0.005054743    1.963    0.490
        20 -11.9195    219.2072    225.6893   8.9860277224e+01  -4.5903340479e+00    0.7082577    0.3301636 -28.53   0.00351339    2.461    0.594
        21 -11.3393    214.6146    223.3578   9.0306149547e+01  -3.5493590619e+00      0.44319    0.3470784 -20.95  0.002301882    1.352    0.260
        22 -14.0967     30.3773    237.7943   1.2654482214e+02   2.2063518421e+01      1.19653    0.5170652  55.48  0.004810266    1.744    0.427
        23 -10.5141     78.6403    241.5579   1.1838790406e+02   1.5341569257e+01    0.2970439    0.1513293  56.64   0.00135205    1.625    0.384
        24 -10.8051    140.8418    233.2896   1.0582472072e+02   7.2387440225e+00    0.4483195    0.3123572  54.75  0.002704454    1.327    0.247
        25 -11.8147    205.0190    226.3099   9.2561614646e+01  -2.3939280078e+00    0.5936698     0.298362  36.76  0.003078431    1.673    0.402
        26 -11.0341    248.9801    222.9774   8.4166552695e+01  -8.7723240832e+00    0.3396673    0.2258866 -12.88  0.002165205    1.399    0.285
        27 -13.0808    177.0191    220.9013   9.7018946426e+01   3.1005940858e+00     1.333788    0.7899521  19.41  0.006450625    2.180    0.541
        28 -16.0189      8.9583    238.0220   1.3006569109e+02   2.4278055750e+01     2.728883     1.224721 -88.44   0.01751372    1.883    0.469
        29  -9.9175     63.8003    208.7309   1.1826843962e+02   2.3573438608e+01    0.2584313    0.1313896  69.03  0.001296219    2.076    0.518
        30 -10.6890     76.1852    206.8227   1.1557941908e+02   2.2260663206e+01    0.5667588    0.1957278  47.12  0.002469142    2.457    0.593
        31  -9.6837    250.3133    203.4376   8.0420809497e+01  -6.5511517351e+00    0.2134753    0.1020798 -31.31  0.001084167    2.030    0.507
        32 -11.7879    196.5101    195.5397   8.8844386499e+01   3.6818210749e+00    0.6528767    0.5377374  75.21  0.003619269    1.793    0.442
        33 -11.0600    191.0835    191.2285   8.9119596922e+01   5.3958260592e+00    0.4742915    0.3164021 -62.87  0.002213183    2.407    0.585
        34 -11.1590    249.0053    193.7148   7.8803532228e+01  -5.0620599260e+00    0.3126299    0.2434965 -21.87  0.001982052    1.237    0.191
        35 -11.3108     58.8328    183.9172   1.1679810851e+02   2.9480769940e+01    0.3401684    0.2506864 -37.25  0.001928917    2.056    0.514
        36 -11.4613     64.6654    177.7811   1.1480120259e+02   3.0079797352e+01    0.2751067    0.2280528 -60.07 0.0009419871    1.343    0.256
        37 -10.9938    201.7176    171.1433   8.3017489606e+01   6.8124415869e+00    0.4596918    0.2488597 -37.90  0.002058493    1.889    0.471
        38 -10.0991    195.0363    169.3095   8.3979355561e+01   8.4519928130e+00     0.212828    0.1855055  32.41  0.001180388    1.092    0.085
        39 -10.9374     74.6868    167.3712   1.1112651365e+02   3.1059889673e+01    0.2417333    0.2152635 -84.24 0.0002788838    1.083    0.076
        40 -13.1112     61.6018    163.9479   1.1379043734e+02   3.3644757392e+01    0.4826643    0.2791215 -47.16  0.001282722    2.097    0.523
        41 -12.2526     81.3414    160.0018   1.0842962778e+02   3.1792193370e+01    0.8623811    0.5205145  54.67  0.001024541    1.681    0.405
        42 -13.5950     67.8694    144.2034   1.0936295183e+02   3.7475897769e+01     1.091142    0.6535421  78.80  0.002669375    2.152    0.535
        43 -12.1097    236.0259    144.1717   7.0729282093e+01   4.6795400387e+00     0.834067    0.4834246  -7.60  0.003369528    2.637    0.621
        44 -10.9363     96.6771    145.0431   1.0197137323e+02   3.2871062695e+01    0.3042152    0.2731538 -48.39  0.001013796    1.191    0.160
        45 -11.8965     84.7247    143.9999   1.0490355580e+02   3.5059235353e+01    0.2914184    0.2473385 -61.31 0.0004302725    1.140    0.122
        46 -10.4176     44.5068    144.5137   1.1546861439e+02   4.0287275673e+01    0.2449239    0.1121319 -81.55  0.001035489    2.402    0.584
        47 -10.6243     48.0329    244.6438   1.2397554421e+02   1.8782350692e+01    0.3134994    0.1737496  35.30  0.001565167    2.017    0.504
        48 -14.1817     10.7091    206.6886   1.2824480405e+02   3.0023556519e+01    0.9345018    0.6636389  38.08  0.003416471    1.653    0.395
        49 -13.2606     58.1841    133.1430   1.1015959285e+02   4.1409105395e+01     1.844786    0.6132694 -74.60   0.00486831    5.883    0.830
        50 -11.0241    107.4113    132.2854   9.6540488996e+01   3.3997567698e+01    0.4536701    0.3663145  68.98  0.001931793    1.351    0.260
        51 -10.7735     95.5607    129.4090   9.9136615500e+01   3.6781140012e+01    0.3067597    0.2455483 -29.73  0.001214835    1.497    0.332
        52 -11.7366     68.4738    128.7565   1.0654336515e+02   4.1120872087e+01    0.2894553    0.2434532 -11.59  0.001610913    1.566    0.361
        53 -10.3700    115.2831    126.1870   9.3056421638e+01   3.3939803710e+01    0.2481091    0.1898921 -34.95  0.001078527    1.445    0.308
        54  -9.6680    105.8938    120.8639   9.4369344854e+01   3.6965409610e+01    0.2164668     0.200166 -22.49 0.0002706242    1.194    0.162
        55 -12.3468    237.3908    155.3679   7.2963528927e+01   2.6081724306e+00    0.6622825    0.2971699 -27.61  0.002694898    2.354    0.575
        56  -9.5711    168.0518    113.0827   7.6577190244e+01   2.5321039729e+01    0.2592525    0.1981162 -79.86  0.001126072    1.769    0.435
        57  -9.2076    204.7816    110.7894   6.8389258371e+01   1.7155755911e+01    0.2615857    0.1652183  11.77   0.00095405    2.785    0.641
        58 -12.4769     91.4200    242.1956   1.1612682274e+02   1.3421764830e+01    0.9407243    0.4460097  53.77  0.005047097    1.757    0.431
        59 -13.4954     30.1386    213.4628   1.2510872166e+02   2.6693619978e+01    0.6582695    0.5110286 -69.20 0.0007350642    1.500    0.333
        60  -8.6626     63.4519     83.4861   9.7991614676e+01   5.2526093322e+01    0.1391225    0.1234627 -48.53 8.380159e-05    1.031    0.030
        61 -10.2754     52.5248     89.7847   1.0329526733e+02   5.2463660731e+01    0.2276372    0.1955664  22.90 0.0009536719    1.341    0.255
        62 -10.0762     59.1812     77.9485   9.7954689308e+01   5.4330191145e+01    0.2455644    0.1338673 -34.09  0.001093993    2.026    0.506
        63 -11.2180     34.7164     67.4282   1.0405788241e+02   5.9366910129e+01    0.2203181    0.1192767  30.60  0.001143879    2.144    0.534
        64 -10.4874     60.2446     66.0109   9.4046233941e+01   5.6766267546e+01    0.1905199    0.1035216 -48.50 0.0008950392    1.633    0.388
        65 -10.6168     67.9976     52.7983   8.6717640655e+01   5.8286788148e+01    0.2118478    0.1362094 -24.73  0.001050292    1.615    0.381
        66 -12.8475    203.7591     34.3499   4.7985862387e+01   2.9725964980e+01    0.6781473    0.5803727  49.89  0.002769622    1.270    0.213
        67 -11.5585     99.5525    214.7165   1.1170392684e+02   1.7216344751e+01     1.160151     0.623704  47.08  0.005993851    1.576    0.366
        68 -11.6725    116.1244    236.4406   1.1093614437e+02   1.0685727763e+01    0.9462106    0.6067171 -28.75  0.004749808    3.166    0.684
