#   1 NUMBER                 Running object number                                     
#   2 MAG_AUTO               Kron-like elliptical aperture magnitude                    [mag]
#   3 X_IMAGE                Object position along x                                    [pixel]
#   4 Y_IMAGE                Object position along y                                    [pixel]
#   5 X_WORLD                Barycenter position along world x axis                     [deg]
#   6 Y_WORLD                Barycenter position along world y axis                     [deg]
#   7 A_WORLD                Profile RMS along major axis (world units)                 [deg]
#   8 B_WORLD                Profile RMS along minor axis (world units)                 [deg]
#   9 THETA_WORLD            Position angle (CCW/world-x)                               [deg]
#  10 FWHM_WORLD             FWHM assuming a gaussian core                              [deg]
#  11 ELONGATION             A_IMAGE/B_IMAGE                                           
#  12 ELLIPTICITY            1 - B_IMAGE/A_IMAGE                                       
         1 -13.9599    135.5300    123.9263   1.0952058187e+02   3.0899740962e+01      3.12832    0.3559543 -48.96  0.005211344   11.224    0.911
         2 -14.4505    151.3248     57.5585   8.6683965649e+01   4.0336226583e+01     1.329485     1.153903  15.45 0.0009734479    1.288    0.224
         3 -14.8914    162.7759     42.7904   7.9563301328e+01   3.9679111092e+01     1.340922     1.098493 -13.37  0.003500408    1.356    0.263
         4 -14.7319    176.3511      9.9316   6.6955589246e+01   4.0097243846e+01     1.210649     1.061664  62.69  0.004177544    1.101    0.091
         5 -11.9465    189.9460     14.7895   6.6737534938e+01   3.6071246744e+01    0.2386431    0.2075136 -34.62 0.0008083803    1.211    0.174
         6 -13.6478    196.6906      6.9702   6.3737310699e+01   3.5146682918e+01    0.6000921    0.4933598  76.00  0.003492506    1.129    0.114
         7 -10.1733    150.8940    243.0898   1.2678113398e+02   5.5266625807e+00    0.1585683    0.1280869  16.65 0.0005255525    1.536    0.349
         8 -20.0495     75.1416    175.2165   1.3330481351e+02   3.0039091962e+01     16.84379     6.367084 -67.18   0.07116692    2.622    0.619
         9 -11.5336    139.0068    250.2670   1.2969338567e+02   6.3626276283e+00    0.2366639     0.159514  39.77  0.001558605    1.269    0.212
        10 -13.5273    210.1114    187.2634   1.0720714774e+02   3.6588739917e+00    0.8009904    0.3715512 -54.39   0.00283809    4.394    0.772
        11 -11.8105    201.1002    163.6625   1.0422834942e+02   9.2073856278e+00    0.5750057    0.3827056 -44.13  0.002869394    1.606    0.377
        12 -13.2949    206.4815    178.0113   1.0610345500e+02   5.7827593030e+00     0.608418    0.3816776  33.47  0.003074086    1.555    0.357
        13 -13.1242    203.3652    172.1774   1.0553452900e+02   7.3300867839e+00    0.8867798    0.5121462 -46.40  0.004183409    1.960    0.490
        14 -10.8492    146.0755    189.2011   1.2011665649e+02   1.5311588195e+01    0.2038618    0.1779609  20.07 0.0007226453    1.328    0.247
        15 -10.9857     21.6489    239.6720   1.4866379803e+02   2.3945354366e+01    0.1352484   0.07690375 -82.94 0.0005651773    1.578    0.366
        16 -11.2739    131.1915    236.8627   1.2957173517e+02   9.6151567212e+00    0.2198961     0.151341 -56.43 0.0005992808    1.777    0.437
        17 -11.2360    120.8100    183.5767   1.2453167320e+02   2.0959462468e+01    0.3750387     0.208075  59.20 0.0009596508    1.934    0.483
        18 -11.4995    117.0652    180.5108   1.2486469278e+02   2.2237881453e+01    0.2928622    0.2173238  69.46  0.001005473    1.354    0.262
        19  -9.7566    114.6885    238.8114   1.3275048301e+02   1.1880755945e+01    0.1048831   0.07590264  36.15            0    1.459    0.315
        20 -10.0662     25.5373    181.5439   1.4443958406e+02   3.4709466146e+01     0.144755    0.1227021 -63.87 0.0001869734    1.491    0.330
        21 -10.6084     28.3383    179.3217   1.4369872912e+02   3.4892051324e+01    0.1702699    0.1555283  58.03  0.001125205    1.388    0.279
        22 -12.3244    199.5096    179.0593   1.0762227253e+02   6.9415536286e+00    0.4713278    0.2936227 -62.91  0.002004563    2.790    0.642
        23 -13.3924    195.6818    169.5697   1.0648295100e+02   9.2757072108e+00    0.5145565    0.4554536 -44.90 0.0008727983    1.238    0.192
        24 -12.4656    193.7996    164.9278   1.0590445128e+02   1.0454156472e+01    0.3842599    0.3632594  37.27  0.001375644    1.063    0.059
        25 -13.5686    177.7920    171.0800   1.1033296818e+02   1.2565803909e+01    0.7145816    0.4874195 -35.43  0.003593528    1.605    0.377
        26 -12.7881    163.3513    202.6288   1.1881923697e+02   9.7632096448e+00    0.4781105    0.3059689  53.59  0.001383128    1.525    0.344
        27 -14.6463    138.3020    171.3615   1.1871787982e+02   2.0246289145e+01     1.103185    0.8090115  48.46  0.005828077    1.270    0.213
        28 -12.5540    149.4986    173.9643   1.1677193403e+02   1.7586625229e+01    0.3182929    0.2407866 -43.18 0.0009723217    1.458    0.314
        29 -13.8051    144.1929    168.8287   1.1697490044e+02   1.9630229303e+01    0.7187048    0.4809898 -86.76  0.002422391    2.271    0.560
        30 -12.3580    170.1411    176.8467   1.1299537561e+02   1.3025937548e+01    0.3020397    0.2419674  61.29 0.0007924624    1.329    0.248
        31 -12.1521    122.4877    165.7441   1.2123515686e+02   2.4361040262e+01    0.5260226    0.2398689  57.80  0.001395879    2.787    0.641
        32 -10.2735      7.6065    237.4626   1.5076497868e+02   2.5766744565e+01    0.1045661    0.0639834  70.26 0.0001916063    1.098    0.090
        33 -10.6920     25.9776    173.9191   1.4374657659e+02   3.6284977913e+01    0.1712726    0.1316719  83.93            0    1.029    0.028
        34 -10.8108     11.9484    173.8832   1.4661766496e+02   3.7621647550e+01    0.1501222    0.1189481 -79.38            0    1.261    0.207
        35 -12.0395    165.3310    171.8367   1.1303917771e+02   1.4900194530e+01    0.2994182    0.2153328  69.41  0.001462316    1.742    0.426
        36 -10.7113    138.2178    243.8670   1.2911613746e+02   7.4266901200e+00     0.248689     0.195598 -84.44  0.001155845    1.556    0.357
        37 -12.1269    230.1505    167.1265   9.9628300139e+01   3.0244264456e+00    0.3742368    0.1772439 -44.23  0.001617111    2.420    0.587
        38 -12.4578    126.1538    172.0464   1.2150368017e+02   2.2367253307e+01    0.3731019    0.3084217 -50.01  0.001429674    1.330    0.248
        39 -10.8054     30.3825    232.6573   1.4688869724e+02   2.4229387637e+01    0.1755495    0.1183538  56.83 0.0008384048    1.213    0.176
        40  -8.8209     13.5505    233.5342   1.4966271450e+02   2.5859990210e+01    0.0989633   0.07412754  76.48 0.0008018565    1.177    0.151
        41 -10.8322    192.6546    157.9683   1.0467542672e+02   1.1916567797e+01    0.2718132    0.1958368  20.69  0.001320083    1.630    0.387
        42 -10.8723     16.3943    249.9758   1.4994021010e+02   2.2750495845e+01    0.1306625   0.07313439  88.25 0.0009695523    1.476    0.322
        43 -10.4482     26.1165    228.3975   1.4736134059e+02   2.5462046649e+01    0.0922887   0.05333018 -74.57  0.000232562    1.691    0.409
        44 -13.2811    163.3671    155.4265   1.1018121615e+02   1.8464819499e+01    0.4900738    0.3712822 -57.51  0.002236164    1.447    0.309
        45 -12.5238    160.3104    152.3339   1.1019401077e+02   1.9713803226e+01    0.3513795     0.254155 -35.04  0.001140744    1.533    0.348
        46 -14.5636    143.5791    143.4625   1.1204914938e+02   2.5012861669e+01     1.161191    0.6096179 -63.63  0.004288973    2.700    0.630
        47 -14.5928    134.3279    146.4806   1.1483411496e+02   2.6238675695e+01      1.52891    0.5731645 -58.43  0.004800372    3.644    0.726
        48 -10.5217     22.9373    156.1140   1.4286063168e+02   4.0470346310e+01    0.1769582    0.1377797  88.10 0.0004353675    1.024    0.023
        49 -10.0317      6.5037    155.5795   1.4644293907e+02   4.2010173705e+01    0.1134701   0.08588662 -88.57 8.310941e-05    1.061    0.057
        50 -10.3108    192.6299    153.3132   1.0368187783e+02   1.2757391202e+01    0.1465687    0.1162534  89.14 0.0007035421    1.777    0.437
        51 -11.8031     22.5001    221.0156   1.4756485639e+02   2.7200833494e+01    0.1759773    0.1159619 -73.60 0.0009885629    1.572    0.364
        52 -12.2516    174.0929    148.7449   1.0647062630e+02   1.7521580945e+01    0.3493654    0.3080769  80.54  0.001248039    1.286    0.222
        53 -11.4203     23.5464    215.4060   1.4706812376e+02   2.8141747359e+01    0.1419353    0.1060625 -81.17 0.0007501551    1.359    0.264
        54 -10.8360    130.4056    212.7210   1.2673890404e+02   1.3780192890e+01    0.2469238    0.1677314 -89.58 0.0008393455    1.922    0.480
        55 -11.4702    172.8965    139.1346   1.0457104048e+02   1.9655234496e+01    0.2329682    0.2069387  89.07 0.0007352633    1.274    0.215
        56 -11.1656      8.5985    137.6868   1.4449331399e+02   4.5800526765e+01    0.2397967    0.2056933 -26.04  0.001193536    1.693    0.409
        57 -13.1045     11.3260    206.0461   1.4868468519e+02   3.1164873275e+01    0.3592175    0.2368935  36.92  0.002213258    1.806    0.446
        58 -12.7093    161.1570    198.1974   1.1853757302e+02   1.0920110427e+01    0.3448459    0.3029507  77.84  0.001465995    1.271    0.213
        59 -12.8620    160.6094    128.1129   1.0466376294e+02   2.4576968564e+01    0.4845522    0.3734387 -62.56  0.002005937    1.444    0.308
        60 -12.5675    156.5701    199.6659   1.1968236479e+02   1.1499180885e+01    0.4594896    0.3341326  69.19  0.002447102    1.636    0.389
        61 -11.7646    140.4389    120.6790   1.0754179620e+02   3.0559245507e+01    0.3638449    0.2581612  79.02  0.001042428    1.922    0.480
        62 -11.6213    153.7913    194.9856   1.1948678857e+02   1.2833956847e+01    0.3262615    0.2424519  76.51  0.001048287    1.685    0.406
        63 -10.9979    167.3559    112.5226   9.9265750836e+01   2.6202271457e+01    0.3443382    0.2497484 -85.76   0.00144695    1.973    0.493
        64  99.0000     13.1012    242.7026   1.5013467502e+02   2.4314673073e+01    0.2672641   0.08641882 -61.02  0.001336135    4.373    0.771
        65 -11.4571    139.6474    200.4363   1.2318091452e+02   1.4393238899e+01    0.3140008     0.217999  44.12 0.0007520687    1.277    0.217
        66 -10.8460    205.3420    110.2325   9.1058069609e+01   1.7755881825e+01    0.3102483    0.2098964  46.13 0.0009378492    1.530    0.346
        67 -14.3836    154.2123    186.0720   1.1791773495e+02   1.4382158686e+01      1.09996    0.5488586 -57.51  0.004737427    2.513    0.602
        68 -12.0926    169.7059    195.3115   1.1637093242e+02   9.8449563464e+00    0.2850399    0.2452801  65.06 0.0007322708    1.254    0.203
        69 -11.0160     12.5362    100.8852   1.3930553587e+02   5.3871784663e+01     0.244629    0.1494518  42.19  0.001488967    1.913    0.477
        70 -12.8210    180.6561    193.6014   1.1393561170e+02   8.1021859464e+00    0.4247403    0.4090929 -69.88  0.001806183    1.209    0.173
        71 -13.8023    164.9878    188.6392   1.1616775560e+02   1.1888508980e+01    0.7673306    0.4326684  43.46   0.00265344    1.598    0.374
        72 -14.4008    174.7157    187.6665   1.1405289679e+02   1.0221851851e+01     1.295547    0.4642295 -44.11  0.004998933    3.083    0.676
        73 -10.7344    143.8793     80.8127   9.5735974710e+01   3.8002094817e+01    0.2343138    0.2143405   9.46 0.0004939263    1.202    0.168
        74 -12.2058    170.6501    185.3452   1.1444919305e+02   1.1400320993e+01    0.3816195    0.3102722 -71.52  0.001126708    1.534    0.348
        75  -9.8835    133.3138    249.2686   1.3057391953e+02   7.3907101033e+00    0.1057375   0.08051084  27.51 0.0006956431    1.550    0.355
        76  -9.7890    159.6719    247.7113   1.2579885762e+02   3.4759981151e+00    0.1124013   0.08006624  22.83 0.0003458417    1.616    0.381
        77 -13.0978    166.4633     34.6279   7.6259792505e+01   3.9836724841e+01    0.4395114    0.3898348  36.19 0.0009092446    1.192    0.161
        78 -11.1547     13.5249     59.9704   1.3160611086e+02   6.2892909009e+01    0.1804957    0.1580945  62.20 0.0005442353    1.450    0.310
        79 -10.4863    144.5455     33.9728   8.0118106463e+01   4.5536176647e+01    0.2616268    0.1980388  81.34 0.0006011081    1.501    0.334
        80 -10.9866    133.9025    245.4139   1.3005079952e+02   7.8724649654e+00    0.1462281    0.1327593  66.76  0.000496358    1.198    0.165
        81 -12.5512    125.0966    243.1293   1.3135602991e+02   9.5917171120e+00    0.3548508    0.1576848 -55.02  0.001484865    2.767    0.639
