#   1 NUMBER                 Running object number                                     
#   2 MAG_AUTO               Kron-like elliptical aperture magnitude                    [mag]
#   3 X_IMAGE                Object position along x                                    [pixel]
#   4 Y_IMAGE                Object position along y                                    [pixel]
#   5 X_WORLD                Barycenter position along world x axis                     [deg]
#   6 Y_WORLD                Barycenter position along world y axis                     [deg]
#   7 A_WORLD                Profile RMS along major axis (world units)                 [deg]
#   8 B_WORLD                Profile RMS along minor axis (world units)                 [deg]
#   9 THETA_WORLD            Position angle (CCW/world-x)                               [deg]
#  10 FWHM_WORLD             FWHM assuming a gaussian core                              [deg]
#  11 ELONGATION             A_IMAGE/B_IMAGE                                           
#  12 ELLIPTICITY            1 - B_IMAGE/A_IMAGE                                       
         1 -12.9712     94.2918     22.4533   4.3702888083e+00   5.8381517884e+01    0.4107826    0.3126544 -47.71  0.002278088    1.371    0.270
         2 -11.1621     76.4344     14.7245   5.4946151660e+00   6.3624898556e+01    0.2513796    0.1242122 -34.69  0.001153331    2.150    0.535
         3 -12.5063     82.9834     23.3973   7.6635336233e+00   6.1007933684e+01    0.3953269    0.2449106  55.16  0.001974626    1.470    0.320
         4  -9.7784      3.6574    250.3157   7.5850345162e+01   1.8988941160e+01      0.13091   0.05661448  49.56 0.0007048167    1.711    0.415
         5 -13.5099    164.9651    191.9691   3.2664209593e+01   1.1685257534e+01     0.818139    0.5203533   2.93  0.004224403    1.939    0.484
         6 -11.8251    142.1033    190.2711   3.7233619429e+01   1.5190336931e+01    0.3162306    0.1742213 -34.92  0.001486218    1.984    0.496
         7 -11.0501     96.8114    188.9925   4.8002554713e+01   2.1950208990e+01    0.2313803    0.1583855  73.60  0.001086948    1.987    0.497
         8 -13.5082    124.5321    185.3190   4.0496145787e+01   1.8745715102e+01    0.5326811    0.3971336 -42.31  0.002892175    1.372    0.271
         9  -9.9601     75.4896    184.4918   5.3135895832e+01   2.5930134743e+01    0.1434143    0.1306641  47.71  0.000133314    1.023    0.023
        10 -11.6830    178.5854    182.6222   2.8416012245e+01   1.1484462580e+01    0.2826221    0.2008466  -6.70  0.001622458    1.527    0.345
        11 -12.3371    141.6934    179.4696   3.5524327630e+01   1.7397609622e+01    0.3955765    0.1954217 -35.13  0.001668417    2.356    0.576
        12 -10.1343     67.4788    194.5237   5.6533366662e+01   2.4580690117e+01    0.1403996    0.1251907  46.05 0.0007153412    1.017    0.017
        13 -11.6118    165.7064    175.4152   2.9674310739e+01   1.4613114639e+01    0.4575367    0.1734376 -52.84  0.001727512    3.201    0.688
        14 -11.3803    186.6050    176.1913   2.5799913487e+01   1.1499879718e+01    0.2448994    0.1549208   1.20  0.001219058    2.101    0.524
        15 -13.1362    153.6344    169.0747   3.1045273907e+01   1.7653334886e+01    0.5062206    0.3148729  19.69  0.002436704    1.919    0.479
        16 -10.2650     35.4746    172.9973   6.3536523852e+01   3.3653331257e+01    0.2967238    0.1687519  43.95  0.001375394    1.588    0.370
        17 -14.0705    144.7500    163.6662   3.1998412120e+01   2.0150770191e+01    0.6899927    0.4957097 -23.30  0.003526103    1.577    0.366
        18 -11.7077    181.0130    169.9097   2.5704333296e+01   1.3388010455e+01     0.290063    0.1627254 -33.39  0.001468841    1.715    0.417
        19 -12.8356    124.9990    170.0036   3.7807565332e+01   2.1962491450e+01    0.3592307    0.2897926  10.55  0.001924998    1.338    0.253
        20 -10.0672    202.3284    169.3273   2.1835606320e+01   1.0515787700e+01    0.1271999   0.08441819 -12.23 0.0004063649    1.704    0.413
        21 -12.0718    172.2549    167.7900   2.6989466545e+01   1.5059499675e+01    0.3056431     0.198444 -33.79  0.001635555    1.461    0.316
        22 -10.5240    196.0000    164.9861   2.2119945288e+01   1.2109338028e+01    0.2102394   0.06253102 -42.84 0.0008044591    2.956    0.662
        23 -12.8175    155.8418    159.7035   2.8816425692e+01   1.9164769907e+01    0.3606699    0.2839316 -18.04  0.001989677    1.360    0.265
        24 -12.8087    182.3724    158.8025   2.3387651165e+01   1.5177507916e+01    0.4538768    0.2818871 -15.69  0.002195542    2.166    0.538
        25 -14.4080    124.1579    152.8364   3.4833021534e+01   2.5914145702e+01     1.041484    0.6852033 -24.52  0.004591268    2.028    0.507
        26 -13.0108    139.1268    151.2855   3.0894196558e+01   2.3688961929e+01    0.4020942    0.3494315  -4.87  0.002227324    1.253    0.202
        27 -13.5946    111.4529    157.6806   3.9045713768e+01   2.6939410078e+01    0.6276059    0.5415769 -33.79  0.003371887    1.218    0.179
        28 -11.5313    193.9124    148.4310   1.9354297874e+01   1.5262462749e+01    0.3360038    0.1588258 -56.65  0.001327891    3.259    0.693
        29 -14.4164    158.6076    143.2128   2.4947671684e+01   2.1997454447e+01    0.7827145    0.6355453 -19.35  0.004331457    1.332    0.249
        30 -11.4756    105.1220    130.6680   3.5366126974e+01   3.4478564426e+01    0.3192177    0.1277914  44.99  0.001097699    2.566    0.610
        31 -12.6473    114.1055    146.5597   3.6202024412e+01   2.9090453584e+01    0.5076692     0.362317  -7.14  0.002237411    2.043    0.511
        32 -11.2579     85.8052    123.5976   3.9679045932e+01   3.9707097476e+01    0.2344311    0.1375657  47.09 0.0009591112    1.739    0.425
        33 -11.5628     42.4291    120.2628   5.4481184828e+01   4.7176362921e+01    0.5173212    0.1512737 -69.50  0.001525664    3.559    0.719
        34 -12.8882    172.7046    156.1830   2.4710097889e+01   1.7152759026e+01    0.4588227    0.2621034 -43.43  0.002284241    1.606    0.377
        35 -11.2213     72.4974    115.8307   4.2434028401e+01   4.3988951317e+01    0.2899024    0.1954355   3.30  0.001155123    2.276    0.561
        36 -10.5132     68.3267    111.6613   4.2986318198e+01   4.5766857570e+01    0.1661251    0.1168888  70.52 0.0007051593    1.729    0.422
        37 -10.2456    169.8152    100.9750   1.3336752204e+01   2.8073057531e+01     0.194704    0.1613837  20.25  0.001064248    1.593    0.372
        38 -13.0813     84.0534     97.7556   3.3959648103e+01   4.6462682793e+01    0.5718998    0.4029254   7.28  0.002348643    2.243    0.554
        39 -13.0304     43.6237     95.7515   4.9172585333e+01   5.3677906856e+01    0.6441398     0.271755 -54.21  0.002410714    2.217    0.549
        40 -11.2305    133.8511     98.3070   1.9961668261e+01   3.6024675639e+01    0.4248971    0.2100866  45.01  0.001700432    2.168    0.539
        41 -12.1660     20.2342     94.5038   5.9505184344e+01   5.6617387538e+01    0.5910195    0.1569451 -56.69   0.00194183    3.049    0.672
        42 -13.7825     65.0252     89.4079   3.8655710265e+01   5.2002838188e+01    0.6371645    0.5061248  24.19  0.003121648    1.384    0.277
        43 -12.5398     35.6743     83.5221   4.9913867215e+01   5.7914419625e+01    0.4737395    0.2856016 -46.47  0.002124633    1.667    0.400
        44 -10.7417      5.1264     90.2553   6.6070770761e+01   5.8872027173e+01     0.270846    0.1755372  18.69   0.00134791    1.640    0.390
        45 -12.2712    128.9883     85.3753   1.7589730283e+01   3.9695077039e+01    0.5122524    0.2572153  49.43  0.002086829    2.053    0.513
        46 -13.5096     87.9937     81.2486   2.7864064814e+01   4.9507741957e+01    0.4850844    0.4266003  55.59  0.001856127    1.122    0.108
        47 -13.4195    111.2921     80.1418   2.0517325106e+01   4.4694913264e+01    0.5674541    0.3985906 -37.35  0.002650424    1.545    0.353
        48 -12.0528     47.0898     79.2384   4.3433823125e+01   5.7442482907e+01      0.48289    0.1489596 -51.04  0.001563257    3.048    0.672
        49 -12.3765     28.1819     73.2231   5.1074906474e+01   6.1444649183e+01     0.419576    0.2641333  12.86  0.001943044    1.786    0.440
        50 -14.3054     84.4323     66.7431   2.4353203969e+01   5.3363946586e+01    0.7602838    0.6111882 -24.80  0.003786578    1.509    0.338
        51 -11.6501     43.4979     69.4731   4.2235925641e+01   6.0366269421e+01    0.3503087    0.2142509 -22.07  0.001408187    2.457    0.593
        52 -13.1864     51.3978     63.8951   3.6623582011e+01   6.0409882294e+01    0.4817579     0.410254 -56.82  0.002595962    1.197    0.164
        53 -10.9435     17.9885     64.6561   5.4478179292e+01   6.4646980639e+01    0.4265608   0.05269932 -55.20  0.001194936    4.476    0.777
        54 -12.5576    124.3404     60.6713   1.1296319196e+01   4.5364041219e+01    0.6803022    0.1648337 -39.94  0.002020853    3.923    0.745
        55 -13.8040     63.0056     69.3000   3.3338937311e+01   5.7129177227e+01    0.6137459    0.4757462 -45.09  0.003086521    1.320    0.242
        56 -12.2320    115.9291     60.7111   1.3244595846e+01   4.7342054288e+01    0.3371649    0.2184573 -45.40  0.001584393    1.528    0.345
        57 -13.0559     76.1027     51.8100   2.1827017508e+01   5.8095514960e+01    0.4286439    0.3568284  66.53  0.002281538    1.230    0.187
        58 -10.8645    134.4941     54.5055   7.2929962405e+00   4.3986455169e+01    0.1442998     0.128845 -77.66 0.0008106276    1.009    0.008
        59 -12.2179     63.1580     49.1849   2.5821657306e+01   6.1307523545e+01    0.4402581    0.2597031 -30.98  0.001898521    2.138    0.532
        60 -10.7108     46.4051     50.2327   3.3974938575e+01   6.4231989156e+01    0.3581208     0.254511  -2.23  0.001675247    1.975    0.494
        61 -13.6905     95.3769     44.1184   1.2720748525e+01   5.5033644839e+01    0.5677337    0.5535509 -77.81  0.003356901    1.086    0.079
        62 -11.3722     28.7065     44.8484   4.1675523868e+01   6.8089778992e+01    0.6456169    0.3183748  32.79  0.002886101    1.970    0.492
        63 -12.2743    116.4854     42.1765   6.8916196542e+00   5.0241018177e+01    0.3400743    0.2023921  69.76  0.001573904    1.668    0.401
        64 -10.3766    136.6662     41.3307   2.8083509920e+00   4.5466703046e+01    0.1518444   0.09516997 -68.82 0.0004997876    1.726    0.421
        65 -13.0379     70.9460     36.9900   1.7581425767e+01   6.1819753445e+01    0.5754725    0.3388423  39.01  0.002618218    1.840    0.457
        66 -12.0950     59.7115     38.1020   2.2530465102e+01   6.4037718408e+01    0.4559602    0.2193777  37.38  0.001840092    2.323    0.569
        67 -13.0362    107.9737     37.4205   7.0586551116e+00   5.3019300064e+01    0.4042616    0.3282777  86.56  0.002221522    1.194    0.162
        68 -12.7373     98.2971     34.4401   8.2245490092e+00   5.5807156306e+01    0.3879854    0.2669333  62.50  0.001975975    1.350    0.259
        69 -11.9119     82.8327     33.0779   1.1918764003e+01   5.9706928662e+01    0.3342201    0.1891904  53.38  0.001545815    1.632    0.387
        70 -12.2903    114.3551     31.6585   3.6159416099e+00   5.2255127233e+01    0.2737662    0.2478123  55.93  0.001618376    1.196    0.164
        71 -11.8508     73.1039     27.7892   1.2679676482e+01   6.2735979302e+01    0.2684542    0.2414408  19.94  0.001578164    1.244    0.196
        72 -12.9580    103.8307     26.5034   3.8580197477e+00   5.5526311642e+01    0.4889216    0.2470546  68.18  0.002168565    1.871    0.466
        73 -10.5208     52.6616     26.6687   2.0150409693e+01   6.7367131221e+01    0.1413026    0.1022461  17.20 0.0007051909    1.740    0.425
        74 -10.5028    102.2503    207.4285   4.9106111231e+01   1.7210678184e+01     0.272396    0.1244107  24.03  0.001151164    2.186    0.542
        75 -10.3581     52.3369     16.3260   1.4754675379e+01   6.8920833325e+01    0.1392321   0.09546692  25.48 0.0007051553    1.723    0.419
        76 -10.2730    169.5004    202.4989   3.3458845132e+01   9.2441242621e+00    0.2255857   0.09904754 -35.75  0.001035569    2.333    0.571
