#   1 NUMBER                 Running object number                                     
#   2 MAG_AUTO               Kron-like elliptical aperture magnitude                    [mag]
#   3 X_IMAGE                Object position along x                                    [pixel]
#   4 Y_IMAGE                Object position along y                                    [pixel]
#   5 X_WORLD                Barycenter position along world x axis                     [deg]
#   6 Y_WORLD                Barycenter position along world y axis                     [deg]
#   7 A_WORLD                Profile RMS along major axis (world units)                 [deg]
#   8 B_WORLD                Profile RMS along minor axis (world units)                 [deg]
#   9 THETA_WORLD            Position angle (CCW/world-x)                               [deg]
#  10 FWHM_WORLD             FWHM assuming a gaussian core                              [deg]
#  11 ELONGATION             A_IMAGE/B_IMAGE                                           
#  12 ELLIPTICITY            1 - B_IMAGE/A_IMAGE                                       
         1 -14.9003    212.2381      7.4944   4.1418290826e+01   3.0493175356e+01       3.5575     2.053992  34.56   0.01596051    2.411    0.585
         2 -13.6072    194.9910     30.8809   5.0107195931e+01   3.2268185407e+01    0.7365702    0.6492043 -36.14   0.00150236    1.102    0.092
         3 -13.9642    175.5934     50.7068   5.9267483488e+01   3.4607640394e+01     1.930064     1.215623  32.08  0.005672301    2.012    0.503
         4 -12.0241     58.9678      3.6363   6.9011832774e+01   6.8086669210e+01     0.356312    0.1906553  32.60  0.001795083    1.895    0.472
         5 -11.2399     71.5777    230.5617   1.1899052526e+02   1.9241122553e+01    0.3192038    0.1833655  80.63  0.001365438    1.817    0.450
         6 -16.5777     71.8048    146.5000   1.0989263865e+02   3.6212719302e+01     7.609715     3.857299  72.37   0.01843506    3.029    0.670
         7 -10.5232     87.4481    203.0028   1.1350914403e+02   2.2029973087e+01    0.2217166    0.2039926 -82.56 0.0009006511    1.259    0.205
         8 -13.1046    129.9705    198.1238   1.0437935691e+02   1.6350782369e+01    0.4345635    0.3256609 -53.44  0.002635271    1.521    0.342
         9 -10.2583    161.3267    200.0730   9.8478342893e+01   1.0726659297e+01     0.161069    0.1599049  58.59 0.0004701554    1.165    0.142
        10 -12.0424    152.1365    196.9506   9.9789827384e+01   1.2814668536e+01    0.3242879    0.2810959 -59.30  0.002077837    1.344    0.256
        11 -11.3062     80.8743    194.7929   1.1395706882e+02   2.4543778086e+01    0.5431765     0.237967  54.46  0.001775471    2.162    0.538
        12 -11.3663     96.9606    192.5616   1.1039092586e+02   2.2635237499e+01    0.3825155     0.269304 -29.88  0.001086328    2.437    0.590
        13 -18.7831     32.6970    241.5879   1.2626882155e+02   2.1989631450e+01     6.091069     3.254089  39.02   0.03695205    1.784    0.439
        14 -19.1977     14.1507    103.2237   1.1960935173e+02   5.2710325025e+01      16.7069     0.718291 -72.14   0.02671541   17.389    0.942
        15  -8.8840     53.6623    185.6754   1.1865823295e+02   2.9964137850e+01     0.175137   0.08603258 -51.00 0.0008461179    2.759    0.638
        16  -9.7881      1.2034    187.4327   1.2920422772e+02   3.4985266181e+01    0.1032206   0.06532916 -89.66 0.0001232312    1.243    0.195
        17 -11.0395    153.7762    185.1552   9.7571230723e+01   1.4555156850e+01    0.2856161    0.2092714 -78.56  0.001248282    1.965    0.491
        18 -12.6791    146.4284    182.9650   9.8711283390e+01   1.6254789230e+01    0.5652704    0.3801058 -82.83  0.001996175    2.420    0.587
        19  -8.9646     53.4733    188.4753   1.1895038252e+02   2.9411719141e+01    0.1583308    0.1003556 -64.73 0.0002975045    1.638    0.390
        20 -11.3916     99.3163    180.8475   1.0838786596e+02   2.4604703746e+01    0.2575588    0.2167393  46.82 0.0005847943    1.173    0.148
        21 -10.2511    197.1094    176.6908   8.7543573659e+01   8.0849125397e+00    0.2827888    0.2146107  36.11  0.001040457    1.213    0.175
        22 -10.0611    188.5202    175.4692   8.8942712885e+01   9.8528536688e+00    0.2162827    0.1269692 -49.89 0.0006974911    2.122    0.529
        23 -11.0832     66.8055    174.8206   1.1474262178e+02   3.0576063370e+01    0.3839324    0.2137937 -50.04  0.001489961    2.240    0.554
        24 -11.0365    204.6224    176.1464   8.6042547431e+01   6.8067071534e+00    0.3667516    0.2933523 -47.17  0.001247809    1.537    0.349
        25 -10.2465    162.0639    166.8466   9.2593777259e+01   1.6313925803e+01    0.2041394    0.1820213  68.17 0.0004451922    1.245    0.197
        26 -10.2722    152.1818    210.2413   1.0174460514e+02   1.0640837772e+01    0.1624435    0.1352051  66.87 0.0007987216    1.344    0.256
        27 -10.2733    143.1971    209.2308   1.0332236843e+02   1.2278794633e+01    0.1662359    0.1319917  62.92 0.0005260026    1.311    0.237
        28 -12.2546    193.9165    196.2657   9.1691349721e+01   5.7106543523e+00     1.221017    0.6694091 -58.40  0.005095028    3.822    0.738
        29 -12.5995     96.5808    152.7285   1.0479946030e+02   3.1044449273e+01    0.6046087    0.4581451 -28.83   0.00313188    1.882    0.469
        30 -12.8528    203.2092    198.6646   9.0414969046e+01   3.7979550838e+00    0.6169842    0.3025562  28.25  0.002910443    2.177    0.541
        31 -10.4527    113.4592    151.4524   1.0053929503e+02   2.8464277548e+01    0.3165495    0.1994614  77.91  0.001103746    2.336    0.572
        32 -10.5764    174.4709    148.9559   8.6369945275e+01   1.7160486492e+01    0.2789426    0.2423376  61.52 0.0007747285    1.282    0.220
        33 -11.2914    144.0685    146.5692   9.2458575748e+01   2.3747073664e+01    0.5417014    0.2367936 -58.09  0.001863591    3.201    0.688
        34  -9.7154     93.7885    205.3935   1.1251111709e+02   2.0668017421e+01    0.2228195   0.09972555  40.16  0.000970352    1.985    0.496
        35 -11.7422    133.9617    145.8594   9.4632574611e+01   2.5869475134e+01     1.200826    0.3130566 -54.71  0.003080961    5.564    0.820
        36 -12.0740    108.0575    138.9640   9.9494798850e+01   3.2188364468e+01     0.534252     0.396641 -41.12  0.002716105    1.512    0.338
        37 -12.5148     96.1489    138.4709   1.0239957551e+02   3.4345234800e+01    0.2935869    0.2678136  73.09 0.0004184518    1.056    0.053
        38 -11.4532    105.9836    130.8041   9.8374389260e+01   3.4410616204e+01    0.4119436    0.3155303 -68.74  0.001243794    1.316    0.240
        39 -11.1916    102.7255    125.4266   9.8089592784e+01   3.6226435207e+01    0.2967637    0.2534263 -13.31 0.0008976811    1.522    0.343
        40 -11.1608    135.7472    127.7751   9.0270810022e+01   2.9367524863e+01    0.6189368    0.1808391 -50.64  0.001813555    3.734    0.732
        41 -11.0961    115.0188    129.5974   9.5811049422e+01   3.3032137468e+01    0.3425524     0.296955 -24.59 0.0008750779    1.373    0.272
        42 -10.2485    161.5365    128.4621   8.4475333062e+01   2.3797336847e+01    0.4208363    0.3006659  79.58  0.001815311    2.100    0.524
        43 -11.1134    120.3314    123.4761   9.3092832917e+01   3.3391135057e+01     0.482379    0.2816781 -26.28   0.00175755    2.950    0.661
        44  -9.4718    152.5298    119.7044   8.4362301191e+01   2.7517544897e+01    0.2124197    0.1440681 -54.91  0.000934265    1.605    0.377
        45 -10.2423    110.2513    118.7307   9.4608544086e+01   3.6393604193e+01    0.2364969    0.2083861 -88.83 0.0003324954    1.176    0.150
        46 -10.2140    167.7692    112.7477   7.9177077070e+01   2.5517951844e+01    0.3837888    0.2756827 -78.75  0.001454458    2.119    0.528
        47 -11.6797    118.9157    110.1695   9.0238597508e+01   3.6651196348e+01    0.6001837    0.4436349  66.24  0.002811578    1.597    0.374
        48 -10.2361    205.4862    110.1862   7.1048093727e+01   1.7445327729e+01    0.3114765    0.2104945  40.95 0.0009646348    1.556    0.357
        49 -10.1541    134.6255    105.5354   8.4985708271e+01   3.4390608858e+01    0.4397036    0.1446555 -44.33  0.001372624    2.952    0.661
        50 -11.8634     97.0713    200.4431   1.1130294659e+02   2.1108968147e+01    0.3645787    0.3130624 -29.54  0.001163389    1.694    0.410
        51 -10.0738    185.7837     85.6099   6.8030145268e+01   2.6308497943e+01    0.3047749    0.2476118 -48.65 0.0009648317    1.242    0.195
        52  -8.8994    154.2718     81.3046   7.3263576332e+01   3.4787514374e+01    0.1550419    0.1238795   5.97 0.0002396466    1.538    0.350
        53 -10.4550     70.3065     72.2089   9.4300199742e+01   5.3978841006e+01    0.2269165    0.2109738  80.52 0.0003660915    1.233    0.189
        54 -12.6689    163.6565     63.5590   6.5657047162e+01   3.5634993267e+01    0.9934678    0.8517985 -11.73  0.002971547    1.241    0.194
        55 -10.6913    249.1326    248.7561   9.0745519821e+01  -8.5823327120e+00    0.2078615    0.1080649   3.55   0.00125781    2.171    0.539
        56 -14.0550    189.8617     37.1515   5.2729079296e+01   3.2797527743e+01     1.011401    0.8298614  -6.69   0.00392777    1.360    0.265
        57 -11.1189    158.6832    235.5597   1.0391662211e+02   5.8871299766e+00    0.2717058    0.1653977  28.99  0.001174972    1.603    0.376
        58  -9.6208    168.9277    234.7182   1.0200493205e+02   4.4293052694e+00     0.158598    0.1197709  38.59 0.0002954198    1.056    0.053
