#   1 NUMBER                 Running object number                                     
#   2 MAG_AUTO               Kron-like elliptical aperture magnitude                    [mag]
#   3 X_IMAGE                Object position along x                                    [pixel]
#   4 Y_IMAGE                Object position along y                                    [pixel]
#   5 X_WORLD                Barycenter position along world x axis                     [deg]
#   6 Y_WORLD                Barycenter position along world y axis                     [deg]
#   7 A_WORLD                Profile RMS along major axis (world units)                 [deg]
#   8 B_WORLD                Profile RMS along minor axis (world units)                 [deg]
#   9 THETA_WORLD            Position angle (CCW/world-x)                               [deg]
#  10 FWHM_WORLD             FWHM assuming a gaussian core                              [deg]
#  11 ELONGATION             A_IMAGE/B_IMAGE                                           
#  12 ELLIPTICITY            1 - B_IMAGE/A_IMAGE                                       
         1 -12.5685    198.8547     38.4314   4.5854103962e+01   3.1217280964e+01     1.079582    0.9961765  44.67  0.004019188    1.213    0.176
         2 -12.6185    209.6720     27.6125   4.1716099579e+01   2.9984518941e+01    0.9077399    0.7570863  11.13  0.002709706    1.598    0.374
         3 -10.5052     33.0000     12.2437   8.0191534952e+01   6.9835839822e+01    0.5517992     0.126562 -42.38  0.001870627    5.111    0.804
         4 -11.1878    234.1166      3.4465   3.3794136295e+01   2.7110719665e+01    0.7763069    0.3623361  74.67  0.004013597    2.008    0.502
         5  -9.4576     44.8086    220.2865   1.2001764209e+02   2.2943650412e+01    0.3252541     0.232578  66.02  0.002088156    1.142    0.125
         6 -10.1948    116.5190    248.1039   1.0866450197e+02   8.1061933412e+00    0.3844708    0.2660036 -59.37  0.001392086    1.728    0.421
         7  -8.2455     86.6197    249.2581   1.1445814102e+02   1.2144482749e+01     0.187532    0.1076232 -75.95 0.0008264168    2.029    0.507
         8 -11.3033     15.3972    190.6142   1.2374026039e+02   3.2245711131e+01    0.2840011    0.2171418  78.83  0.001255681    1.031    0.031
         9 -11.9516     44.4694    202.0189   1.1859134088e+02   2.6800292528e+01      0.74606    0.5395456 -82.32  0.001353956    1.240    0.193
        10 -12.3674     55.0391    190.1869   1.1516931720e+02   2.8165469003e+01      2.41196     1.525272 -86.51   0.01336185    1.523    0.343
        11  -9.0661     63.6617    201.4624   1.1445226993e+02   2.4598478655e+01    0.3108926     0.174767 -56.88  0.001244951    1.891    0.471
        12  -8.2209     66.8463    195.2908   1.1308814250e+02   2.5537894839e+01    0.2108307    0.1339561  56.62  0.000824241    1.478    0.323
        13 -11.7565     57.9482    241.3565   1.1913104833e+02   1.7290264245e+01    0.4880828    0.2625717  64.08 0.0004877133    1.695    0.410
        14  -8.9694    191.5063    191.7776   8.4765513445e+01   5.6543784096e+00    0.4185795    0.2564129 -71.58  0.001308165    5.658    0.823
        15 -14.4466     37.7882    249.1979   1.2325188919e+02   1.8223682011e+01     8.424738      2.69783  26.36   0.02113288   13.133    0.924
        16  -7.8622    145.3028    181.3278   9.2860178793e+01   1.6075863510e+01    0.1456421    0.1128565  -6.52 0.0007033217    1.646    0.392
        17  -8.4992     99.4514    180.8870   1.0361441693e+02   2.4069906544e+01    0.2133632    0.1753672  44.72 0.0005875553    1.183    0.155
        18  -7.7467    149.8120    178.0305   9.1203769366e+01   1.5932516094e+01    0.1882561    0.1128991 -48.57 0.0004257415    1.742    0.426
        19 -10.4102     69.3560    175.5199   1.1010293637e+02   2.9713197187e+01    0.4618232    0.2758879 -40.21  0.002165463    2.261    0.558
        20 -10.3895     73.7296    170.4421   1.0833770660e+02   3.0316127064e+01    0.3398677    0.2584308 -42.51  0.001851737    1.542    0.351
        21 -15.5365      6.4843    204.2918   1.2634431111e+02   3.0122665193e+01     19.66129     0.907177 -76.62  0.009481721   13.310    0.925
        22  -8.3941    114.6603    173.6792   9.8751025909e+01   2.3200160475e+01    0.1453104    0.1144618 -13.27 0.0007050214    1.716    0.417
        23 -10.1527     96.0942    168.6871   1.0249184769e+02   2.7417068069e+01    0.4906771    0.2256548  47.91  0.001979366    2.255    0.557
        24  -9.3394     32.7731    165.2222   1.1772054272e+02   3.6390110029e+01    0.2586737     0.191019  57.72  0.000962668    1.326    0.246
        25 -10.9514     82.3457    161.6314   1.0483094370e+02   3.1193495447e+01    0.6160948    0.3702766  61.27  0.000753756    1.964    0.491
        26 -12.0015     70.6766    156.6547   1.0707250377e+02   3.4044371417e+01    0.5727519    0.4634221 -28.51  0.001740256    1.562    0.360
        27 -12.6963     68.5703    144.3043   1.0564302466e+02   3.7353826143e+01     1.876423    0.9991079  80.25  0.006626057    3.528    0.717
        28  -9.4289     31.9013    156.1201   1.1696154381e+02   3.8638276891e+01    0.2035258    0.1524185  75.77  0.001230265    1.254    0.203
        29  -9.4078    134.0670    146.0859   8.8447490926e+01   2.5952525794e+01    0.7973634    0.2129306 -54.76  0.001898641    5.525    0.819
        30  -9.2604     53.7991    149.5943   1.1047253925e+02   3.7901350112e+01    0.1865629    0.1159695  47.40 0.0009432888    1.685    0.407
        31  -8.6527     39.2116    146.4484   1.1391993435e+02   4.0260088068e+01    0.2967365    0.1179973  32.39  0.001298535    2.672    0.626
        32  -8.1335    158.1597    161.0222   8.5842246045e+01   1.7911860953e+01    0.2375988    0.1775406 -76.62  0.000907334    1.912    0.477
        33  -9.5432    102.5227    140.0124   9.5461094810e+01   3.3212548980e+01     0.540567    0.3174138 -27.88  0.002042148    2.671    0.626
        34 -10.6518     90.2118    139.6746   9.8790962247e+01   3.5330542038e+01    0.2966943    0.2654234 -38.62 0.0005328319    1.176    0.150
        35  -9.6734     32.2595    131.1368   1.1376818840e+02   4.4671973135e+01    0.2357387    0.1931357  85.75 0.0009289637    1.180    0.153
        36  -8.8229    105.8259    130.4468   9.2463206875e+01   3.4936426015e+01    0.3179169    0.2527167 -56.40    0.0015791    1.221    0.181
        37  -9.7350    112.7045    129.4832   9.0329628047e+01   3.3913795738e+01    0.4813701    0.3446093   8.30  0.002085845    1.978    0.494
        38  -9.5678     43.7191    129.9586   1.1031549426e+02   4.3852551495e+01    0.1981974    0.1566186 -69.13 0.0005572025    1.085    0.078
        39  -9.4259     99.0600    126.2456   9.3424653192e+01   3.7133172550e+01    0.3200329    0.2577116 -14.05 0.0009531075    1.524    0.344
        40  -9.7869     49.2629    216.4381   1.1883432366e+02   2.3207923624e+01     0.382425    0.2187002  65.56  0.001654264    1.608    0.378
        41 -10.6228     88.9723    154.6742   1.0193340748e+02   3.1872910786e+01    0.5910076    0.4052389 -24.95  0.001526924    2.131    0.531
        42  -9.6922    117.9453    124.2256   8.7629928973e+01   3.4159501320e+01    0.3475317    0.2563362  -0.04  0.001509631    1.909    0.476
        43  -8.4822     92.7089    217.2287   1.0998594705e+02   1.7302382588e+01    0.1894289    0.1504363 -75.52 0.0005546662    1.314    0.239
        44  -8.4535    107.9859    119.0817   8.9164622626e+01   3.7249687387e+01    0.2254919    0.2143608 -26.98  0.000286083    1.059    0.056
        45  -9.1275     53.5778    118.2431   1.0534265983e+02   4.5670211205e+01    0.2077342    0.1102929 -52.97 0.0009531258    1.637    0.389
        46  -8.3866    205.5094    109.9828   6.3597740158e+01   1.8129002013e+01    0.2288056    0.2029382  49.06 0.0006696473    1.209    0.173
        47 -10.1651     42.6716    109.3215   1.0707355315e+02   4.9034755462e+01     0.313024    0.2072707 -48.08  0.001672724    1.362    0.266
        48 -10.3266     32.8854    108.0493   1.0997323686e+02   5.0263162567e+01     0.413857    0.1428223 -66.71  0.001621987    2.523    0.604
        49 -10.4659     49.9259    107.8329   1.0444649613e+02   4.8633110571e+01    0.4723851    0.2624081  47.20  0.002195031    2.188    0.543
        50  -9.0721    134.7708    105.4197   7.8155658125e+01   3.4963571094e+01    0.5084206    0.1772441 -38.69  0.001540606    3.093    0.677
        51  -8.6798    243.5197    104.4880   5.6009647281e+01   1.1130937905e+01    0.1395455     0.121677 -31.21 0.0008099106    1.040    0.039
        52  -7.7078     21.3166    215.2922   1.2417839327e+02   2.6477540549e+01   0.09838767   0.08236559 -56.46 0.0007008522    1.599    0.375
        53  -8.5422    113.9391    207.8193   1.0423172496e+02   1.5967434369e+01    0.2392657    0.1362265  59.35 0.0008412214    2.042    0.510
        54  -8.3071     74.9455     84.7270   9.0340282035e+01   5.0801584600e+01    0.1907171    0.1805934  20.56 0.0003855085    1.149    0.130
        55 -12.0368    189.1646     45.9153   4.9277686176e+01   3.2574178865e+01    0.8660212    0.6756748   7.88  0.002731814    1.688    0.408
        56  -9.4224     59.8461    232.1431   1.1805388564e+02   1.8796093213e+01    0.2293915    0.1703237  87.43 0.0004784518    1.250    0.200
        57 -15.0942      8.2883    242.8958   1.2790713621e+02   2.2426074844e+01      2.45663     1.865331  24.93   0.01875095    1.930    0.482
        58  -9.8347     54.3386    221.8556   1.1827692106e+02   2.1499196237e+01    0.5870407    0.2727467  30.92  0.002781851    2.429    0.588
        59  -8.0274    146.9532     43.3237   5.5997433104e+01   4.3392762053e+01    0.2036963    0.1764495  54.82 0.0003801726    1.106    0.096
        60 -10.3674     29.7363     31.6609   9.0572889028e+01   6.7123438076e+01    0.2957099    0.2087854  31.34   0.00184195    1.697    0.411
        61  -9.2007     48.8289    224.7075   1.1957941843e+02   2.1588521984e+01    0.2157568      0.17885 -89.85 0.0005742352    1.179    0.152
        62  -9.7085    144.8735     49.4991   5.8466918304e+01   4.3012991544e+01    0.4708169    0.3160417 -81.67  0.001596921    2.332    0.571
