#   1 NUMBER                 Running object number                                     
#   2 MAG_AUTO               Kron-like elliptical aperture magnitude                    [mag]
#   3 X_IMAGE                Object position along x                                    [pixel]
#   4 Y_IMAGE                Object position along y                                    [pixel]
#   5 X_WORLD                Barycenter position along world x axis                     [deg]
#   6 Y_WORLD                Barycenter position along world y axis                     [deg]
#   7 A_WORLD                Profile RMS along major axis (world units)                 [deg]
#   8 B_WORLD                Profile RMS along minor axis (world units)                 [deg]
#   9 THETA_WORLD            Position angle (CCW/world-x)                               [deg]
#  10 FWHM_WORLD             FWHM assuming a gaussian core                              [deg]
#  11 ELONGATION             A_IMAGE/B_IMAGE                                           
#  12 ELLIPTICITY            1 - B_IMAGE/A_IMAGE                                       
         1 -12.2681      5.6579     13.5624   8.3776861787e+01   7.3936266819e+01    0.3512433    0.2250213   4.47  0.002220408    1.429    0.300
         2 -11.4264     13.4035     12.9232   7.8279564068e+01   7.3267592663e+01     0.235089    0.1201871 -28.51  0.001167998    1.829    0.453
         3 -11.2746    161.4056     10.0774   3.2598130221e+01   4.2811988918e+01     0.274834    0.1498504 -83.44  0.001333107    1.983    0.496
         4 -10.1978    149.6452      9.1434   3.3712222822e+01   4.5710218183e+01     0.262706    0.1507155 -79.61   0.00129163    1.940    0.484
         5 -12.0031      7.5518      2.6774   7.6378514992e+01   7.5391869000e+01    0.6515187    0.1606906  27.75  0.002497022    4.283    0.766
         6 -11.1642    169.3170      2.8504   2.9828186184e+01   4.1612581053e+01    0.2944576    0.1601394 -70.24  0.001319708    1.890    0.471
         7 -11.8379     18.2366      8.4185   7.2709616429e+01   7.3350933702e+01    0.2504288    0.1629058  45.98  0.001389594    2.253    0.556
         8 -10.1728    176.3244      4.6751   2.9655146840e+01   3.9823214913e+01    0.1338246   0.07706529 -64.89  0.000704844    1.689    0.408
         9 -10.4696    152.9916      2.7316   3.1456174076e+01   4.5473394446e+01    0.3445041   0.09066452 -42.21  0.001308271    3.568    0.720
        10 -11.0076    181.9390      2.8946   2.8716718149e+01   3.8701656710e+01    0.2673994    0.1259644 -69.96  0.001267898    2.268    0.559
        11 -11.0076    159.7302      3.0727   3.0834089563e+01   4.3844339532e+01    0.2970474    0.1558807 -84.68  0.001452863    1.993    0.498
        12 -10.9073    207.1660      7.6360   2.7863585618e+01   3.2671015604e+01    0.1698673    0.1241077 -60.30 0.0005470599    1.150    0.130
        13  -9.4348    239.6827      2.3137   2.4740896176e+01   2.6628214681e+01    0.1207254    0.0596425 -61.12 0.0007036427    1.646    0.393
        14 -10.4764    210.2171    242.9313   7.7209793616e+01  -4.6446047538e+00     0.198492    0.1103685 -12.27  0.001080575    1.952    0.488
        15  -9.3772    249.3337    250.3113   7.1577928119e+01  -9.9376951269e+00    0.1151634   0.06304999  -3.99 0.0007044082    1.678    0.404
        16  -9.6980    226.4750    250.5224   7.5471862473e+01  -7.5379855924e+00    0.1141548   0.08454654   0.29 9.403209e-05    1.026    0.025
        17 -10.7143    210.2005    250.2854   7.8342255128e+01  -5.6397446665e+00    0.2878341    0.1119756  38.22   0.00137976    2.802    0.643
        18  -9.5725    202.1725    250.5762   7.9865837635e+01  -4.7174962645e+00    0.1704024   0.09105798  17.85 0.0009488564    1.712    0.416
        19 -10.2729    184.9357    250.1595   8.3078221340e+01  -2.5126001807e+00    0.2767469    0.1363333  23.27  0.001254053    1.831    0.454
        20 -11.2849    168.3300    249.7267   8.6286074195e+01  -2.8765357764e-01    0.3279783    0.1759071  17.93  0.001178965    1.875    0.467
        21 -10.0800    103.2126    250.6000   9.9931503252e+01   8.3887418218e+00    0.1795048    0.1048437  23.99 0.0009528952    1.686    0.407
        22  -9.7284     73.6557    250.3024   1.0614910260e+02   1.2281894135e+01    0.1303265   0.07457571  55.55 0.0007039305    1.683    0.406
        23 -10.2905     50.0901    250.1553   1.1103038503e+02   1.5147018067e+01    0.2978094    0.1170042  39.04  0.001492565    1.961    0.490
        24 -10.1074    225.6173    240.2096   7.4011997534e+01  -6.1013383611e+00    0.2097259    0.1239421 -22.23  0.001297178    1.499    0.333
        25 -10.9369    155.7922    241.1152   8.7623430936e+01   2.7758847697e+00    0.1861322    0.1583577  33.74 0.0006143127    1.215    0.177
        26 -11.2018    244.9856    239.4954   7.0591808866e+01  -8.1643320564e+00    0.1985812    0.1312365   4.80 0.0006993051    1.231    0.188
        27 -10.2696    187.6740    245.3160   8.1831660525e+01  -2.1601573216e+00    0.2485825    0.1454904  -1.48  0.001007734    1.995    0.499
        28 -10.6983     96.1295    243.5862   1.0069736596e+02   1.0620164093e+01     0.322435    0.1116877  29.94  0.001300488    2.701    0.630
        29 -10.1435    202.4007    239.7426   7.8164239478e+01  -3.2301171227e+00    0.1671181   0.09713829 -24.77 0.0009522545    1.680    0.405
        30  -9.2705     37.6911    240.3178   1.1291798277e+02   1.8467801633e+01    0.1284024   0.06988271  58.90  0.000388731    1.637    0.389
        31 -10.1438     15.9959    240.3302   1.1735018237e+02   2.0711801095e+01    0.2054039   0.01623325  45.48  0.000705211    4.374    0.771
        32 -10.1914    170.7774    239.4158   8.4299642140e+01   9.8335947906e-01    0.1821496    0.1025375  20.30 0.0007743458    1.692    0.409
        33 -10.8028    184.1460    236.3195   8.1151592534e+01  -3.4465722867e-01    0.2421285     0.143043 -16.90  0.001278178    1.930    0.482
        34 -10.6599    203.9563    233.1647   7.6827427961e+01  -2.4735734149e+00    0.2406723    0.2089665  64.16 0.0005283807    2.123    0.529
        35 -10.0926     20.9901    234.4840   1.1602669632e+02   2.1401164740e+01    0.1843454   0.05499778  48.65 0.0008104333    2.597    0.615
        36  -9.5365      5.6327    235.3039   1.1918102337e+02   2.2699108106e+01    0.1282764   0.05945075  57.02  0.000703501    1.744    0.427
        37  -9.7304    230.0000    233.9270   7.2235257846e+01  -5.7680414324e+00     0.181989   0.05734164 -37.92 0.0008085348    2.985    0.665
        38  -9.7712    235.3357    226.8246   7.0147168657e+01  -5.4258566739e+00     0.299066   0.07891145 -31.35   0.00109939    4.188    0.761
        39 -10.4733    246.9263    224.3842   6.7801455466e+01  -6.4210475230e+00    0.2454881    0.1198695 -20.08   0.00133631    1.968    0.492
        40 -10.1662     55.9822    216.3110   1.0696910370e+02   2.1406320807e+01    0.2761128    0.1627878 -86.28 0.0004800509    1.878    0.468
        41  -9.6413    248.3393    212.3285   6.5523645666e+01  -4.9478389121e+00    0.1246777   0.07249162  -7.34 0.0007051729    1.735    0.424
        42  -9.1076     16.3039    212.6446   1.1575599832e+02   2.6516199409e+01    0.1350124   0.07101201  62.25 0.0007039928    1.713    0.416
        43  -9.3779    250.1966    200.6323   6.3178285937e+01  -3.5251780263e+00    0.2260544   0.07681733 -38.95  0.001023985    2.575    0.612
        44  -9.0492    237.7702    192.3765   6.3704161652e+01  -7.4800662346e-01    0.1127951   0.08679499 -45.31 0.0005031301    1.610    0.379
        45 -10.4351      2.3852    178.2271   1.1687585929e+02   3.5693713053e+01    0.1861638   0.09946246  85.83 0.0009526768    1.687    0.407
        46  -9.5654    240.5125    163.5737   5.7801512284e+01   3.3750226158e+00    0.2306321    0.1005977 -45.78  0.001030523    2.353    0.575
        47 -10.3634      3.4810    155.4801   1.1495975664e+02   4.1221248491e+01    0.1304445    0.1085956  88.69   0.00080996    1.020    0.020
        48 -10.3538    249.8747    149.7366   5.3685432477e+01   4.2131944491e+00    0.4247324    0.0694721 -37.29  0.001206022    5.341    0.813
        49  -9.7042    244.1407    148.7273   5.4322318710e+01   5.2186749880e+00    0.2618454    0.1218151 -46.65  0.001220417    2.150    0.535
        50  -9.6044    234.8298    146.8389   5.5350492720e+01   6.9540886871e+00    0.1787103    0.1442122 -49.34  0.001088756    1.340    0.254
        51 -11.0734      7.7625    144.2000   1.1274181324e+02   4.3785793609e+01    0.3786103    0.1318882  66.25   0.00115145    4.938    0.797
        52  -9.8967    243.5126    140.0286   5.2671550930e+01   6.7124088669e+00     0.209496    0.1046851 -37.97  0.001045884    1.631    0.387
        53  -9.5433    234.6544    135.3353   5.3014889410e+01   8.8871247700e+00     0.129906   0.09552631 -62.77 0.0007049174    1.770    0.435
        54 -10.3651    242.4079    133.6377   5.1533893961e+01   7.9171078348e+00    0.2634137   0.08788467 -47.63 0.0009579528    3.329    0.700
        55 -10.8036    248.2081    129.6489   4.9917647704e+01   7.6430028753e+00    0.3421132     0.161438 -47.25  0.001642584    2.012    0.503
        56 -11.0422      2.7137    127.5570   1.1265180573e+02   4.8368283053e+01    0.2403036    0.1396974  79.30  0.001178505    1.790    0.441
        57 -10.1450    240.8308    125.9129   5.0171087482e+01   9.4216010656e+00    0.2538223    0.1503602 -40.77  0.001369796    1.394    0.283
        58 -11.4620    248.0716    118.9606   4.7766836359e+01   9.3564339186e+00     0.323209    0.1487855 -43.81  0.001421615    1.815    0.449
        59 -11.9543      4.7922    114.5157   1.1048151995e+02   5.1581149956e+01    0.3993965     0.162403 -80.60  0.001642592    2.392    0.582
        60 -10.4492     18.5172    119.0866   1.0631059865e+02   4.9485048444e+01    0.2119382    0.1195934 -70.06  0.000609217    1.544    0.352
        61 -10.9343    243.5130    109.0387   4.6312947405e+01   1.1676536416e+01    0.2052137    0.1045002 -38.97   0.00103288    1.593    0.372
        62  -9.8236    231.3216    109.6585   4.8067535330e+01   1.3696725501e+01    0.1355474   0.09179518 -61.67 0.0007050379    1.723    0.420
        63  -9.9322     16.5437    108.5330   1.0542829248e+02   5.2347167530e+01    0.1363754    0.1177447 -63.51 -2.21386e-05    1.007    0.007
        64 -11.4642      2.5590    104.9878   1.1006442182e+02   5.4122023775e+01    0.2738187    0.1752444 -64.70  0.000926276    1.278    0.218
        65  -9.5812    230.2928    102.6694   4.6697962222e+01   1.5018764871e+01    0.1340229   0.09006543 -60.02 0.0004093487    1.630    0.387
        66 -12.3243    248.9808     97.8320   4.3326843113e+01   1.2489657958e+01    0.5582806    0.1517309 -37.98  0.002145871    2.931    0.659
        67 -11.7559     14.8133     94.5310   1.0373431690e+02   5.6008675312e+01    0.4124059    0.2009974 -19.20   0.00173376    2.766    0.638
        68 -11.9685      8.7728     92.1062   1.0573303341e+02   5.7001608642e+01    0.3503677    0.2170354 -82.75  0.001797941    1.683    0.406
        69 -12.0177    242.0622     92.5349   4.3041734022e+01   1.4499237344e+01     0.328024    0.1629252 -34.13  0.001412353    1.803    0.445
        70 -12.4688    239.9265     85.8291   4.1878185619e+01   1.5903882244e+01    0.5418503    0.2192674 -56.50  0.002077548    3.409    0.707
        71 -12.1428    235.3789     86.2127   4.2494861517e+01   1.6677247951e+01    0.5436865    0.1480729 -36.69  0.001987043    3.140    0.681
        72  -9.1677     30.6777     96.7133   9.7847597071e+01   5.4158603175e+01    0.1455631   0.09391334 -33.43 0.0003509974    1.600    0.375
        73  -9.1303    226.2840     87.6614   4.3936215813e+01   1.8162619440e+01    0.1362866    0.0877446 -59.90 0.0005652026    1.629    0.386
        74  -9.1226     30.6572     86.6717   9.5608670247e+01   5.6631780814e+01    0.1519483   0.09084469 -32.24 0.0007051104    1.744    0.427
        75 -10.7464    246.2261     84.5922   4.0907538750e+01   1.4963011934e+01    0.1495868    0.1171647  48.10  0.000652048    1.619    0.382
        76 -10.5245     24.9901     90.0042   9.8709290975e+01   5.6338524126e+01     0.211055    0.1790196 -44.35 0.0004350469    1.046    0.044
        77 -12.1347      3.4809     77.9781   1.0543468935e+02   6.0738772985e+01    0.3730243    0.3398064  21.03  0.002355158    1.300    0.231
        78 -10.5037    248.1316     74.1208   3.8544406570e+01   1.6156442965e+01    0.1788655    0.1183894 -55.04 0.0009324983    1.321    0.243
        79  -9.3190     52.5360     72.5489   8.2488377020e+01   5.7285129473e+01    0.1445659      0.12614 -20.36 0.0002590785    1.066    0.062
        80 -11.5351    244.3571     76.7969   3.9490082663e+01   1.6445688134e+01    0.2721714    0.1989461 -73.65  0.001488836    1.474    0.322
        81 -10.4966    248.5926     64.8147   3.6593491517e+01   1.7389101764e+01    0.1849814     0.085697 -46.06 0.0009180888    1.713    0.416
        82  -9.4237     21.6460     61.1492   9.2929743763e+01   6.3377574772e+01    0.1969626   0.09735461 -47.19 0.0008742561    1.697    0.411
        83  -8.7157    227.0000     56.9872   3.7076830038e+01   2.2572324304e+01     0.207491    0.0627718 -35.35 0.0007991142    2.919    0.657
        84 -10.3642    250.5145     56.0146   3.4634467373e+01   1.8243738974e+01    0.1863436   0.09621033 -39.41  0.001029709    1.582    0.368
        85 -10.9649      9.9989     56.0052   9.7277212775e+01   6.5416143584e+01    0.2178175    0.1180393 -34.14 0.0006742536    1.666    0.400
        86 -10.2635    247.0000     41.9899   3.2105233660e+01   2.0714736280e+01    0.1984621   0.05602545 -35.08  0.000814185    3.024    0.669
        87 -10.1958      8.6678     25.6636   8.7472414478e+01   7.1603519740e+01      0.13268   0.07289664 -22.89   0.00066486    1.737    0.424
        88  -9.7475     15.3060     18.3141   7.9868700471e+01   7.2219546353e+01    0.1262577   0.07672544 -13.34 0.0007025312    1.622    0.384
        89  -9.5672    156.4000     17.2372   3.5222496655e+01   4.3303499500e+01     0.184596    0.1081353 -43.95  0.000949416    1.717    0.417
        90  -9.3957    162.3301     15.6712   3.4049701744e+01   4.2044252025e+01    0.1391835   0.08527977 -66.42 0.0004860475    1.712    0.416
        91 -11.0079    152.1946    249.5310   8.9530100746e+01   1.9073039956e+00    0.3009145    0.1050979  30.76  0.001255553    2.488    0.598
        92 -10.2900     89.9051    249.3436   1.0262624133e+02   1.0377848136e+01    0.2978344    0.1098006  41.25  0.001345575    2.188    0.543
        93 -10.9182    193.3443    245.4792   8.0764685845e+01  -2.9087021366e+00    0.4275207    0.1770838 -33.03  0.002065753    2.579    0.612
        94 -10.2925    137.9567    250.0000   9.2537743368e+01   3.7709624095e+00    0.2134936   0.05988818  32.95 0.0008066761    2.972    0.664
        95 -10.5837     64.5167    248.5360   1.0791639854e+02   1.3744796120e+01    0.3394755   0.07705338  36.18  0.001316594    3.095    0.677
        96 -10.2875     34.7054    246.8471   1.1394643184e+02   1.7502687201e+01    0.3452462    0.0861233  43.71  0.001489814    2.764    0.638
        97 -10.2734    218.4340    245.2268   7.6076580518e+01  -5.9337813398e+00    0.2167672   0.09497027 -31.96  0.001148903    2.183    0.542
        98 -11.0653    157.8657    244.8771   8.7726041785e+01   1.8791368203e+00    0.1984791    0.1503256   7.22 0.0007586008    1.234    0.190
        99 -11.3867    177.4636    243.0501   8.3497845333e+01  -4.8375001493e-01    0.2654267     0.163775   6.00  0.001166692    1.733    0.423
       100 -10.5334    110.2417    248.6153   9.8219716988e+01   7.7954796468e+00    0.1823936    0.1048425  24.65  0.000955166    1.673    0.402
       101  -9.8707    133.4660    244.5221   9.2779584814e+01   5.3137487395e+00    0.1267703    0.1062282  23.92 7.822377e-05    1.013    0.013
       102 -10.1378     83.1569    244.4276   1.0358532158e+02   1.2177323986e+01    0.3125371   0.07016288  39.46  0.001145305    3.219    0.689
