#   1 NUMBER                 Running object number                                     
#   2 MAG_AUTO               Kron-like elliptical aperture magnitude                    [mag]
#   3 X_IMAGE                Object position along x                                    [pixel]
#   4 Y_IMAGE                Object position along y                                    [pixel]
#   5 X_WORLD                Barycenter position along world x axis                     [deg]
#   6 Y_WORLD                Barycenter position along world y axis                     [deg]
#   7 A_WORLD                Profile RMS along major axis (world units)                 [deg]
#   8 B_WORLD                Profile RMS along minor axis (world units)                 [deg]
#   9 THETA_WORLD            Position angle (CCW/world-x)                               [deg]
#  10 FWHM_WORLD             FWHM assuming a gaussian core                              [deg]
#  11 ELONGATION             A_IMAGE/B_IMAGE                                           
#  12 ELLIPTICITY            1 - B_IMAGE/A_IMAGE                                       
         1 -13.4404     59.8906    139.5455   9.4177287713e+01   3.9826247340e+01     2.695918     1.507074 -63.15  0.006207825    1.722    0.419
         2 -13.1069    199.4421     46.0847   3.6037399368e+01   2.9957478445e+01    0.9089493    0.7949261 -69.29  0.003261808    1.021    0.021
         3 -13.4319    207.6838     38.6199   3.3416587342e+01   2.9155442657e+01    0.7710596    0.6990227  46.14  0.001260754    1.419    0.295
         4 -13.0187    232.8675     13.6280   2.6060689207e+01   2.6960861242e+01    0.7991332    0.6517174 -64.80  0.004290289    1.094    0.086
         5 -11.6836     34.8939     15.6950   6.5851620113e+01   6.9950644008e+01    0.3477401    0.2654214  70.33   0.00184679    2.815    0.645
         6 -11.1803     61.1969      2.4362   4.7822994932e+01   6.6583265862e+01    0.3625287    0.1310975  52.51  0.001628856    2.213    0.548
         7 -11.6955     48.5907      3.4625   5.2994644973e+01   6.8972185073e+01    0.4095258    0.1768865  43.16  0.002024955    1.900    0.474
         8 -11.0952    137.1376    241.8848   8.9767255637e+01   5.2092234610e+00    0.4108793    0.2522957  60.55  0.001923303    2.769    0.639
         9 -10.8369    139.6862    249.2747   9.0199773534e+01   3.5945606040e+00     0.378792    0.1746743  33.29  0.001861729    1.803    0.445
        10 -11.1045    119.1479    244.5498   9.4039029849e+01   7.2144323525e+00    0.3800849    0.2343002 -76.88  0.001875806    2.697    0.629
        11 -11.1712    125.4007    245.2525   9.2759391411e+01   6.2328168176e+00    0.4195279    0.2041921 -51.12  0.001608181    2.363    0.577
        12  -9.8458     75.0132    249.2045   1.0420314804e+02   1.2160572286e+01    0.3715533    0.1707602 -52.71  0.001832203    2.586    0.613
        13 -10.1585     72.5559    243.6276   1.0422958071e+02   1.3544816874e+01    0.4663578    0.2536571  45.66  0.002165175    1.581    0.367
        14 -18.0468     10.1574    239.1805   1.1723171308e+02   2.1288285179e+01     10.17036     4.923523 -78.05    0.0231669    2.022    0.505
        15  -9.4057     89.7572    202.0274   9.5445883315e+01   2.0072648480e+01    0.3253694     0.158628  37.80  0.001401753    1.855    0.461
        16  -9.1234     72.4970    204.5921   1.0013898027e+02   2.1878942220e+01    0.2233331    0.1309537 -84.65 0.0007324545    2.150    0.535
        17  -9.4106    161.3336    202.3274   7.8282481720e+01   8.9295664315e+00    0.1466186    0.1003534  -6.54 0.0007051671    1.718    0.418
        18 -10.8394    139.1058    201.0177   8.3142570307e+01   1.2706693590e+01    0.2705136    0.2088458 -33.25  0.001447265    1.344    0.256
        19 -10.9916    192.7460    194.3987   7.0208160873e+01   5.5428668200e+00    0.8010746    0.4423413 -63.02  0.002663848    5.206    0.808
        20  -9.2816     82.8752    194.9334   9.6237617494e+01   2.2697129045e+01    0.2859846    0.2028071  18.86  0.001139325    1.550    0.355
        21  -9.9133     57.3108    192.8913   1.0266249687e+02   2.6589914562e+01    0.4072794    0.1960552 -54.21  0.001335959    2.140    0.533
        22 -11.2553    109.1895    187.6880   8.8294263182e+01   2.0405664045e+01    0.7215956    0.1944157 -46.47  0.002139742    4.091    0.756
        23  -9.9612    211.4915    189.4859   6.5681339483e+01   3.6183930262e+00    0.1324512    0.1093639 -12.95 -4.388252e-05    1.007    0.007
        24 -15.6605      2.1544    206.0686   1.1731827085e+02   2.9093805931e+01     6.714103          nan -76.01   0.01331183   13.398    0.925
        25 -12.4958     57.3823    179.9931   1.0108011361e+02   2.9744733607e+01    0.8678257    0.7125843 -38.23  0.003052703    1.387    0.279
        26 -10.9344     99.1268    180.8990   8.9813487336e+01   2.3587354880e+01    0.3996201    0.3186562 -42.03 0.0009320628    1.322    0.244
        27 -13.2711     97.7800    168.1955   8.7989812311e+01   2.6867328098e+01     2.915767     0.858083  45.55  0.008243692    4.091    0.756
        28 -10.8764     82.7455    155.4824   8.9999667382e+01   3.2419288821e+01    0.3472011    0.2649983 -45.93 0.0002304728    1.328    0.247
        29 -10.7226    102.6518    241.6820   9.7347443420e+01   9.9916287907e+00    0.3836032    0.2152538 -41.21  0.001936244    2.230    0.552
        30 -10.2029     74.6106    180.6949   9.6435942976e+01   2.7289337730e+01    0.4831799    0.2539218 -76.68  0.001933753    2.399    0.583
        31 -11.6001    120.1595    180.3982   8.4205946775e+01   2.0281505939e+01    0.3437441     0.335225  86.52  0.001097153    1.118    0.105
        32  -9.3276     39.8090    176.8293   1.0554943022e+02   3.2585457315e+01    0.2553717    0.2256494 -43.73 0.0008200599    1.267    0.211
        33 -10.3086     43.1913    175.0467   1.0441048087e+02   3.2663558649e+01      0.34051    0.2329032  83.06  0.001725324    1.533    0.348
        34  -9.5383     85.5069    174.5228   9.2481504158e+01   2.7229698871e+01    0.3247401    0.2432716 -59.85  0.001337932    1.350    0.259
        35  -9.8903     88.4837    173.4282   9.1475863064e+01   2.7047684833e+01    0.4429134    0.2371046  54.38  0.001735825    2.305    0.566
        36  -9.2707     77.7399    173.1358   9.4431672943e+01   2.8717894169e+01    0.2772257     0.189006 -43.76  0.001309844    1.584    0.369
        37 -12.5447     72.3263    165.3597   9.4750625182e+01   3.1448654330e+01     1.252728    0.7160646 -36.59  0.002268904    2.218    0.549
        38  -8.1563     88.3123    230.2941   9.9308392020e+01   1.4169357265e+01    0.1251266   0.09911439  -9.55  0.000307932    1.594    0.373
        39 -10.0225     34.7685    171.5611   1.0637286873e+02   3.4446984221e+01    0.2736128     0.197728  76.82 0.0005926351    1.384    0.277
        40 -11.9763    245.0591    167.8781   5.5900837709e+01   2.4132070076e+00    0.4107291    0.3995207  73.62  0.002953698    1.514    0.340
        41 -11.4191    232.0305    170.7281   5.8513042370e+01   3.7759602717e+00    0.3062508    0.1977556 -49.59  0.001671079    1.792    0.442
        42  -9.9122    179.0309    169.3012   6.8143327199e+01   1.2442660696e+01    0.2038221    0.1836031  13.45 0.0008839855    1.099    0.090
        43  -9.0899    187.3134    168.6686   6.6299481204e+01   1.1150164488e+01    0.1327306    0.1143534 -80.50 0.0005138806    1.678    0.404
        44  -9.4863    101.9219    163.6550   8.6002967745e+01   2.7295719919e+01    0.2644877    0.2185182 -73.31 0.0004482169    1.336    0.252
        45 -10.4737     77.1463    232.1082   1.0207606212e+02   1.5272730449e+01    0.5125343    0.2059175 -51.09  0.002209215    2.890    0.654
        46 -12.7120     70.4949    144.9814   9.1797311665e+01   3.6943745632e+01    0.6421674     0.501613 -87.07  0.002280119    1.444    0.308
        47 -10.2344    153.8181    228.3802   8.4202570985e+01   5.2392472623e+00    0.1967049     0.111153  21.71 0.0009585816    1.724    0.420
        48 -11.2053    133.9628    146.2224   7.3724081618e+01   2.5651729347e+01     1.382336    0.3780044 -54.95  0.003144605    6.114    0.836
        49 -11.4632     89.7061    149.1562   8.6725876048e+01   3.2914065371e+01    0.7204866    0.4770473 -21.51   0.00298087    2.111    0.526
        50  -8.1561    112.3279    150.2624   8.0421028999e+01   2.8741791464e+01    0.1540913    0.1205363  -6.85 0.0004506085    1.566    0.361
        51  -9.1084    174.8482    148.7803   6.4683020119e+01   1.7271985623e+01    0.2660931    0.1896188 -66.96 0.0007465834    1.983    0.496
        52  -8.5523    179.6279    141.7751   6.2129690645e+01   1.7768059539e+01    0.2041878    0.1295943 -50.02 0.0004947001    1.623    0.384
        53 -10.8531    104.7078    133.5066   7.8906337204e+01   3.4189292678e+01    0.9162868    0.4254924 -36.68   0.00264151    2.765    0.638
        54 -11.5475     90.6603    135.5115   8.3596214199e+01   3.6184669208e+01    0.3100761     0.269564 -41.93 0.0002766606    1.141    0.124
        55  -9.5446    167.4976    224.4791   8.0657852712e+01   3.9654570751e+00    0.1323485    0.1116796   7.66 0.0002919075    1.003    0.003
        56 -11.7080     43.9679    129.6952   9.7720854563e+01   4.4357916095e+01    0.7390929    0.3435315 -80.14  0.002601904    2.993    0.666
        57 -10.0012     40.7396    128.0063   9.8535168080e+01   4.5155714720e+01    0.2084756    0.1761548 -63.79 0.0004726275    1.091    0.083
        58 -10.6532    134.0696    128.5961   6.9578928397e+01   2.9618743653e+01    0.5653164    0.3882101 -86.87  0.002163051    2.609    0.617
        59  -9.4645    127.4727    127.4978   7.1049926151e+01   3.1200543471e+01    0.3532281    0.2465671  86.08  0.001138298    2.463    0.594
        60  -9.7186    112.0886    127.9031   7.5429313512e+01   3.4142855252e+01    0.3390276    0.2528537  17.24 0.0008633339    1.582    0.368
        61  -8.8981    143.9941    127.1772   6.6726189241e+01   2.7902294131e+01    0.2238761    0.2031943 -86.75 0.0003905651    1.270    0.212
        62 -10.4293     99.0615    123.6353   7.8268151842e+01   3.7622347647e+01    0.3225792    0.2618946   4.40 0.0006574653    1.438    0.305
        63  -9.7225    118.2847    122.7136   7.2388278325e+01   3.4139957567e+01    0.3287582    0.1942397  18.70   0.00117276    2.640    0.621
        64  -9.9320    152.5072    221.4875   8.3423370198e+01   6.6735215807e+00    0.1348505    0.1165704  11.94 9.081314e-05    1.002    0.002
        65  -8.9989     86.4733    204.5458   9.6613022234e+01   1.9970046951e+01    0.2988653    0.1741951 -61.25  0.001010537    1.819    0.450
        66  -9.0572    108.0200    117.3557   7.3997336440e+01   3.7413293932e+01     0.213226    0.1904538  34.20 0.0003714183    1.130    0.115
        67  -9.2476    135.0000    112.5052   6.5273784333e+01   3.2956765820e+01     0.346918   0.08715974 -44.40 0.0009327398    3.919    0.745
        68  -9.6456    205.3597    110.1450   5.0202126420e+01   1.8714202420e+01    0.2635771    0.2087177  44.71 0.0009210893    1.426    0.299
        69 -10.2910    116.4988    108.8875   6.9307449762e+01   3.7638545745e+01    0.4952283    0.3117155  65.36  0.001902866    2.368    0.578
        70 -10.2777    113.0195    104.1914   6.9028917616e+01   3.9397328379e+01    0.2893518    0.2299533 -55.44 0.0004812433    1.327    0.247
        71  -9.0777    134.5031    106.4957   6.3809360261e+01   3.4339541318e+01    0.2861513    0.1431815 -53.43  0.001040591    2.315    0.568
        72 -11.3940     45.3210    105.4091   9.2465043932e+01   5.0463293245e+01    0.3506808    0.2948832  26.42  0.001138626    1.265    0.210
        73 -10.1407    119.3012    104.0014   6.7188475612e+01   3.8126013019e+01    0.2196219    0.2068871 -42.04 0.0004894593    1.057    0.054
        74 -13.1438     71.1511    150.2160   9.2545182748e+01   3.5497200895e+01    0.9367703    0.5298708 -53.07 0.0008872446    1.699    0.411
        75  -9.4450    120.8737     98.8704   6.5324946513e+01   3.8888231070e+01    0.2373164    0.2138256   1.21 0.0004718051    1.202    0.168
        76  -9.4020    106.5575     98.7878   6.9427457626e+01   4.1913482066e+01    0.3083701    0.2303328  78.02 0.0008683763    1.933    0.483
        77  -9.2037     80.6522    183.0469   9.5132140755e+01   2.5856630813e+01    0.3086565    0.1945829  65.17  0.001203348    1.994    0.499
        78 -10.2472     32.0936     86.0777   9.3301767791e+01   5.6672040786e+01    0.3713007    0.1920936  42.07  0.001026415    2.323    0.570
        79  -8.5001    158.7289     84.3739   5.2248276516e+01   3.3224231365e+01    0.1533765    0.1098705 -67.51  0.000395684    1.681    0.405
        80 -12.7021    186.6840     55.3816   3.9908642087e+01   3.1494299229e+01    0.8606334    0.6370353  54.15 0.0008335398    1.456    0.313
        81 -10.3030    105.1375    248.1534   9.7531472198e+01   8.4545911244e+00    0.2096857     0.188075 -34.23 0.0003456722    1.304    0.233
        82 -10.6516    105.2517    244.3713   9.7078518155e+01   9.1361372732e+00    0.2093394     0.174567 -56.57 0.0006033659    1.409    0.290
        83 -15.0603     10.0300    206.5085   1.1554339418e+02   2.8331418184e+01    0.9822041      0.65259   1.18  0.004555917    2.194    0.544
        84  -8.9462     78.6285     52.3141   6.3401784702e+01   5.6699556452e+01    0.1394951    0.1147241  85.10 0.0001321247    1.783    0.439
        85  -9.7248     51.2874    245.1998   1.0898504839e+02   1.5790534777e+01    0.2246843    0.1435117 -78.64 0.0007052814    1.707    0.414
        86  -9.4183     60.4620     21.0268   5.7048100487e+01   6.4813687960e+01    0.1959241     0.155482  34.60 0.0004096784    1.102    0.093
        87 -10.5507     44.9429     18.5009   6.2379948339e+01   6.7952313033e+01    0.1940126    0.1106115  39.37  0.001030881    1.584    0.369
        88  -9.8419     80.1342     16.6210   4.8425582204e+01   6.1249801568e+01    0.3045762    0.1911384  77.50  0.001452912    2.302    0.566
        89  -9.7034    189.6909     15.3725   2.9738448406e+01   3.5753222081e+01    0.2550218    0.1116105 -44.57  0.001263608    2.053    0.513
        90 -10.8014     48.1780    241.9416   1.0940952716e+02   1.6796300100e+01    0.2232689    0.1647669  51.23 0.0003849807    1.128    0.113
        91 -10.0874     72.8708     13.1351   4.9095180352e+01   6.3165484227e+01    0.1882982    0.1702019  66.65 0.0008247637    1.271    0.213
        92  -9.2190     96.7223    244.5815   9.8987557475e+01   1.0238643227e+01    0.2516077    0.1118135  27.46  0.001136428    2.115    0.527
