#   1 NUMBER                 Running object number                                     
#   2 MAG_AUTO               Kron-like elliptical aperture magnitude                    [mag]
#   3 X_IMAGE                Object position along x                                    [pixel]
#   4 Y_IMAGE                Object position along y                                    [pixel]
#   5 X_WORLD                Barycenter position along world x axis                     [deg]
#   6 Y_WORLD                Barycenter position along world y axis                     [deg]
#   7 A_WORLD                Profile RMS along major axis (world units)                 [deg]
#   8 B_WORLD                Profile RMS along minor axis (world units)                 [deg]
#   9 THETA_WORLD            Position angle (CCW/world-x)                               [deg]
#  10 FWHM_WORLD             FWHM assuming a gaussian core                              [deg]
#  11 ELONGATION             A_IMAGE/B_IMAGE                                           
#  12 ELLIPTICITY            1 - B_IMAGE/A_IMAGE                                       
         1 -14.4498    153.1300     56.5414   8.5094743840e+01   3.9418545970e+01     1.314951     1.146933  15.14 0.0009684332    1.184    0.155
         2 -14.8976    164.6100     41.7980   7.7984161506e+01   3.8692353831e+01     1.438321     1.058816 -13.99  0.004066944    1.429    0.300
         3 -14.8024    181.8961      8.2702   6.4692846038e+01   3.8049169953e+01      1.96234    0.9552378  63.34  0.006739843    1.956    0.489
         4 -11.3196    125.0537    243.5795   1.2947066600e+02   1.1542465428e+01    0.1280332    0.1227352   8.31 0.0005030275    1.294    0.227
         5 -19.8974     73.0330    168.3904   1.3254802492e+02   3.1236581855e+01     16.42473      7.49789 -69.11   0.07614174    2.414    0.586
         6 -10.1587    139.6167    200.5927   1.2152020571e+02   1.5955236860e+01    0.2602884    0.1644009  30.62  0.000852218    1.341    0.255
         7 -10.8832     16.4610    250.2154   1.4962763161e+02   2.2185038358e+01    0.1152108   0.07915741  79.35 0.0009667925    1.408    0.290
         8 -11.1959     21.7858    242.1256   1.4845350994e+02   2.2972391675e+01    0.1438315   0.09233751  77.20  0.001130101    1.461    0.315
         9 -11.1659    118.9810    240.1976   1.3028235702e+02   1.2766160737e+01    0.1455593    0.1354339 -66.23  0.000912772    1.424    0.298
        10  -9.1990    154.2881    239.6216   1.2360405980e+02   8.3501663073e+00    0.1035755     0.076826  52.99 0.0007017131    1.732    0.423
        11  -9.7665    146.2630    189.3414   1.1847077764e+02   1.6790932904e+01    0.1247122    0.0910468  -2.98 0.0002318536    1.594    0.373
        12 -12.5176    153.2561    185.0766   1.1631451373e+02   1.6410969317e+01    0.4588408    0.2923194 -65.60  0.002219027    2.813    0.645
        13 -10.8390     13.8487    238.6602   1.4973994127e+02   2.4202948179e+01   0.07731079    0.0601394 -79.57 0.0006419176    1.525    0.344
        14 -12.2719    112.9858    169.5893   1.2293519900e+02   2.5438431518e+01    0.4262909    0.4093651 -30.05  0.001575602    1.137    0.121
        15 -10.8805    118.7589    181.9834   1.2343027536e+02   2.2225886912e+01    0.3338191    0.1771493  52.95  0.001287469    2.260    0.558
        16 -11.5655    114.0976    178.2234   1.2395854132e+02   2.3616046533e+01     0.446642    0.2174387  55.71  0.001559585    2.962    0.662
        17 -12.1650    199.6561    179.2196   1.0601894587e+02   1.0014619002e+01    0.3585059    0.2853264 -74.10  0.001902489    2.874    0.652
        18 -13.2583    195.6887    169.5181   1.0496641072e+02   1.2022462481e+01    0.4709699    0.4137085 -25.78 0.0008141283    1.323    0.244
        19 -12.2682    193.5958    164.7508   1.0445241626e+02   1.3066713992e+01    0.3574908    0.2974659  16.42  0.001529986    1.073    0.068
        20 -10.3463     25.6276    230.5914   1.4733852182e+02   2.4491074566e+01    0.1177461   0.07846224  72.27 0.0006957212    1.340    0.254
        21 -11.0644      3.7696    180.0674   1.4978206247e+02   3.5539418578e+01    0.2420043    0.1668541  31.12  0.001707791    1.481    0.325
        22 -13.4770    138.2641    171.0067   1.1727401958e+02   2.1207407271e+01    0.7441905    0.6093289  60.06  0.004345304    1.480    0.325
        23 -14.0923    144.6672    169.2901   1.1553684139e+02   2.0474686762e+01    0.7884231    0.5436379  65.01  0.003849573    2.280    0.561
        24 -10.6640     10.9373    174.4373   1.4795682909e+02   3.6154029524e+01    0.1655768    0.1295571  82.39 0.0004273262    1.122    0.109
        25 -11.7350    165.6175    172.4308   1.1154466764e+02   1.6496493609e+01    0.2280764    0.2042778 -23.93  0.001042852    1.220    0.180
        26 -11.4600    125.7532    171.8515   1.2028283864e+02   2.3039342590e+01    0.2733527    0.2376949 -61.98  0.001040275    1.348    0.258
        27 -10.2782    139.3270    249.9304   1.2747513516e+02   8.9343596424e+00    0.1389507    0.1136077  16.30  0.000559145    1.192    0.161
        28 -11.8930    230.1067    166.7204   9.8265944116e+01   7.0003323066e+00    0.2679689    0.1605179 -39.56  0.001470327    2.027    0.507
        29 -10.5877    122.9548    165.9009   1.1997282180e+02   2.4608573109e+01    0.2507105    0.1643965  51.69 0.0007279725    1.659    0.397
        30 -10.4394     25.1355    165.1669   1.4410299367e+02   3.6962731276e+01    0.1908845    0.1554865 -21.87  0.001270587    1.684    0.406
        31 -10.3408     13.4392    163.1159   1.4681077997e+02   3.8340209788e+01    0.1607283   0.09816252 -84.49 0.0004346772    1.474    0.322
        32 -11.3271     25.1726    225.2315   1.4720900516e+02   2.5428638977e+01    0.1896773    0.1171666 -68.90 0.0009107143    1.880    0.468
        33 -10.5624    191.9495    157.8677   1.0341230402e+02   1.4380659082e+01    0.3031877    0.1772906   6.20  0.001358096    2.313    0.568
        34 -10.0803     23.7153    214.6821   1.4704915829e+02   2.7385362810e+01    0.2460385     0.115269 -57.54  0.001438295    2.742    0.635
        35 -13.0833    161.8568    153.6380   1.0878859446e+02   2.0311204531e+01     0.426595     0.374263  69.83  0.001816818    1.563    0.360
        36 -11.0214    111.7917    213.8080   1.2897034238e+02   1.7685964555e+01    0.1550141    0.1173293  57.87 0.0003580535    1.420    0.296
        37 -11.5311    174.3277    148.6974   1.0510221033e+02   1.8935875103e+01    0.2945434    0.2588741 -66.24  0.001193727    1.615    0.381
        38 -10.9445      7.4808    141.4870   1.4711289525e+02   4.3525161693e+01     0.210833    0.1648239 -25.71 0.0009435618    1.699    0.412
        39 -12.1853      4.9590    137.5207   1.4756071424e+02   4.4585417901e+01    0.3645896    0.3049474  11.13  0.002106766    1.486    0.327
        40 -10.8417    171.8978    138.1660   1.0336015961e+02   2.1175113404e+01    0.2023219    0.1960616  40.18 0.0005535145    1.247    0.198
        41 -12.7201     24.1700    137.9357   1.4231741540e+02   4.3130782427e+01    0.4958113    0.2799528   2.56   0.00223559    2.617    0.618
        42 -12.2929      2.5772    125.9167   1.4754783221e+02   4.7399744934e+01    0.3833558    0.2168275 -70.52  0.002211237    1.547    0.354
        43 -12.2942    160.5427    127.8697   1.0352609666e+02   2.5175870532e+01    0.4043199    0.3303483 -50.11  0.001863134    1.415    0.293
        44 -11.7973      6.9137    119.9002   1.4588521340e+02   4.8567371224e+01    0.2527857    0.1708517  -8.59  0.001058142    1.995    0.499
        45 -11.7424    108.8998    209.1043   1.2904882020e+02   1.8845314944e+01    0.3834136    0.2559135  78.98  0.002089868    2.256    0.557
        46 -12.2076      3.0008    112.8168   1.4657233172e+02   5.0468261197e+01    0.2572115     0.205157 -68.98  0.001623355    1.170    0.145
        47 -11.1704    116.4831    212.2437   1.2782351615e+02   1.7314800167e+01    0.2234345    0.1516786 -67.21  0.001377076    1.957    0.489
        48 -10.7873    205.3513    110.2417   9.0252593875e+01   1.9239571720e+01    0.2821991    0.1883212  38.13 0.0009904099    1.531    0.347
        49 -10.0645    130.2418    212.5458   1.2502844110e+02   1.5392898619e+01    0.1126396   0.08485606  67.07 0.0003153385    1.807    0.446
        50 -11.9046      8.4699    102.1147   1.4394554970e+02   5.2760980993e+01    0.3034449    0.2515625  47.15  0.001225065    1.298    0.229
        51 -10.9144    167.3920    112.5471   9.8290191494e+01   2.6573270907e+01    0.3065535    0.2444612 -87.39   0.00129623    1.990    0.498
        52 -13.1670     11.7244    206.0578   1.4907251620e+02   2.9952193784e+01    0.4160728    0.2302711  22.90  0.002214601    1.984    0.496
        53 -12.9021    160.8837    197.6129   1.1670588574e+02   1.3279075678e+01    0.3733246    0.2958052 -67.57  0.002270696    2.020    0.505
        54 -12.3441    163.6430    202.9230   1.1695482574e+02   1.2082413597e+01    0.3252806    0.2430279  50.00   0.00128362    1.634    0.388
        55 -10.8866    153.8051    194.9802   1.1775192675e+02   1.4744409840e+01    0.2697823    0.2137942  60.63  0.001324568    1.729    0.422
        56 -11.0794    133.8002    246.7111   1.2815991777e+02   1.0035375716e+01    0.1301773    0.1001537  34.75 0.0003284168    1.090    0.083
        57 -12.9038    168.7596     33.8035   7.4650492759e+01   3.8666259081e+01    0.4391741    0.3478808 -20.60 0.0008538583    1.261    0.207
        58 -11.3474     13.5673     59.8389   1.3629631405e+02   6.2900738699e+01    0.2177792     0.195009  71.69 0.0004154977    1.259    0.206
        59 -11.8724    156.9061    200.0403   1.1787836864e+02   1.3502895178e+01     0.488115    0.3421572  69.96  0.002494174    2.850    0.649
        60 -10.3658    141.3773     32.8498   7.9216150340e+01   4.5769699803e+01    0.2428049    0.1988359  73.63 0.0003306718    1.325    0.246
