#   1 NUMBER                 Running object number                                     
#   2 MAG_AUTO               Kron-like elliptical aperture magnitude                    [mag]
#   3 X_IMAGE                Object position along x                                    [pixel]
#   4 Y_IMAGE                Object position along y                                    [pixel]
#   5 X_WORLD                Barycenter position along world x axis                     [deg]
#   6 Y_WORLD                Barycenter position along world y axis                     [deg]
#   7 A_WORLD                Profile RMS along major axis (world units)                 [deg]
#   8 B_WORLD                Profile RMS along minor axis (world units)                 [deg]
#   9 THETA_WORLD            Position angle (CCW/world-x)                               [deg]
#  10 FWHM_WORLD             FWHM assuming a gaussian core                              [deg]
#  11 ELONGATION             A_IMAGE/B_IMAGE                                           
#  12 ELLIPTICITY            1 - B_IMAGE/A_IMAGE                                       
         1 -13.4259    208.6594     37.7311   4.9971920098e+01   2.8201371019e+01     1.143822    0.9414924  56.29  0.004816845    1.262    0.208
         2 -13.8628    228.3366     19.3421   4.2980164460e+01   2.5664103327e+01    0.9637079    0.8816085  45.85  0.001789434    1.315    0.240
         3 -11.3798     17.9979      3.2281   8.9689499025e+01   7.2543145434e+01    0.2322989    0.1837669  16.92  0.001729115    1.422    0.297
         4 -11.1987    171.5441    249.3418   1.0338833821e+02   3.8516061568e-01    0.3398181    0.1205076  34.33  0.001458569    2.760    0.638
         5 -12.9234    240.2853    248.0202   9.1213107571e+01  -9.8419347890e+00    0.7447199    0.4406169   7.45  0.004630534    1.733    0.423
         6 -11.3826    100.9009    249.5709   1.1607608236e+02   1.1246345114e+01    0.2113314    0.1978952 -31.50   0.00161288    1.622    0.383
         7 -15.4898      5.7647    120.7319   1.2369796857e+02   4.9139321915e+01     18.16211     3.162326 -78.78   0.03978552   10.491    0.905
         8 -13.1570     10.4437    207.0112   1.2906033358e+02   3.0173583324e+01    0.8233323    0.4830096  26.59  0.004086869    2.427    0.588
         9 -11.7398     48.8994    246.5159   1.2475839461e+02   1.8711676283e+01    0.4236312    0.1622038 -71.73  0.002388729    2.653    0.623
        10 -12.1082     82.4018    247.5116   1.1913601420e+02   1.4203763585e+01    0.3192337    0.2950953 -89.53  0.002541888    1.397    0.284
        11 -10.8424     55.4985    246.0061   1.2362506670e+02   1.7989548877e+01    0.1482387   0.09290657 -82.70 0.0006833749    1.569    0.363
        12 -10.9822    122.0863    248.4196   1.1219276258e+02   8.2688691398e+00    0.2189626    0.1458111  86.63  0.001100909    1.966    0.491
        13 -11.7651     69.4688    249.6229   1.2151966097e+02   1.5591403528e+01    0.3084156    0.2798009  68.63   0.00250242    1.377    0.274
        14 -11.7096    105.4974    230.4027   1.1334673833e+02   1.3777416914e+01    0.3682187    0.1215454  43.21  0.001627995    2.418    0.586
        15 -12.1624     91.6907    226.9722   1.1559859508e+02   1.6452173943e+01    0.4536076    0.2270283  61.67  0.002325317    2.011    0.503
        16 -12.1147     56.2673    211.4846   1.2090741399e+02   2.4243631888e+01    0.7223109     0.211102  59.25  0.002499166    4.727    0.788
        17 -10.2945     54.4783    205.9953   1.2078492315e+02   2.5559723157e+01    0.2211783    0.1645301  77.19  0.001036453    1.088    0.081
        18 -13.7661      4.9295     12.8310   1.0129660056e+02   7.2040350649e+01     2.000492    0.5631046 -54.83  0.008718546    3.337    0.700
        19 -12.0287     54.7986    182.2108   1.1847602385e+02   3.0493364615e+01    0.2396631    0.2084197  88.80 0.0003930202    1.142    0.124
        20 -11.8714     47.0084    189.8895   1.2085488789e+02   2.9791779714e+01    0.2430176     0.210359  85.92 0.0004966503    1.173    0.148
        21 -10.8738     67.4027    170.4789   1.1434150793e+02   3.1453965461e+01    0.2378139    0.2027705  84.13 0.0003238399    1.019    0.018
        22 -13.1591     52.6552    167.9323   1.1740556181e+02   3.3914564675e+01     0.478824    0.2714972 -48.12  0.001628034    2.219    0.549
        23 -11.8620     75.6177    162.7632   1.1139403551e+02   3.2061242919e+01    0.5111765    0.4499987 -53.49  0.003142981    1.309    0.236
        24 -10.3837     91.1073    148.4488   1.0533509913e+02   3.3025547088e+01     0.283438    0.2629059  47.07 0.0006920828    1.171    0.146
        25 -11.8667     78.9918    146.6681   1.0810583557e+02   3.5304512861e+01    0.2985689    0.2292067 -60.96 0.0003807834    1.243    0.196
        26 -11.8801     67.6755    143.3936   1.1047638865e+02   3.7673720603e+01    0.6558617    0.3760472  62.40  0.002829613    2.032    0.508
        27  -9.3222     94.9184    144.4691   1.0365545868e+02   3.3334829007e+01    0.2071167    0.1810549 -70.94 0.0003748089    1.084    0.078
        28  -9.9911    105.6073    134.1001   9.8857007153e+01   3.3921149495e+01    0.4924835    0.3090388 -25.53  0.001553254    2.703    0.630
        29 -10.4120     91.7811    131.4430   1.0198655056e+02   3.6911502353e+01    0.2402499      0.21307 -53.30 0.0003410598    1.137    0.121
        30  -8.9346    103.8034    121.9775   9.6712538406e+01   3.7070435138e+01    0.1916084    0.1766405 -64.88 0.0002331457    1.033    0.032
        31 -12.0834    244.7026    115.2208   6.4377997816e+01   7.8907211120e+00    0.4851932    0.2318088 -37.73  0.002091396    1.877    0.467
        32 -13.5071      5.2193    245.1390   1.3163359721e+02   2.3710800852e+01     1.450521    0.8698395  75.97   0.01141419    1.183    0.155
        33 -13.6025     32.9554    203.9447   1.2475214146e+02   2.8491346346e+01    0.8885201    0.6653355  72.99  0.004225832    1.026    0.025
        34 -10.9270    243.6601     93.3463   5.9348001846e+01   1.1612046744e+01    0.2302803    0.1608128 -61.64  0.001127773    1.697    0.411
        35  -9.5971    162.5395     80.5194   7.0483771364e+01   3.3142661890e+01    0.1549203    0.1531706 -62.53 9.887009e-05    1.014    0.014
        36 -14.9407     19.1462    216.1234   1.2802454288e+02   2.7562032373e+01     1.048549     1.008438  74.16   0.00887107    1.573    0.364
        37 -12.3056    138.6567    249.2099   1.0929674576e+02   5.5880185245e+00    0.4703842    0.2700644  43.42  0.002825545    1.351    0.260
        38  -9.6743    190.6643    249.6820   1.0002258032e+02  -2.6574161978e+00    0.1196604   0.07735354  16.94 0.0007048704    1.699    0.411
