#   1 NUMBER                 Running object number                                     
#   2 MAG_AUTO               Kron-like elliptical aperture magnitude                    [mag]
#   3 X_IMAGE                Object position along x                                    [pixel]
#   4 Y_IMAGE                Object position along y                                    [pixel]
#   5 X_WORLD                Barycenter position along world x axis                     [deg]
#   6 Y_WORLD                Barycenter position along world y axis                     [deg]
#   7 A_WORLD                Profile RMS along major axis (world units)                 [deg]
#   8 B_WORLD                Profile RMS along minor axis (world units)                 [deg]
#   9 THETA_WORLD            Position angle (CCW/world-x)                               [deg]
#  10 FWHM_WORLD             FWHM assuming a gaussian core                              [deg]
#  11 ELONGATION             A_IMAGE/B_IMAGE                                           
#  12 ELLIPTICITY            1 - B_IMAGE/A_IMAGE                                       
         1 -14.4577    159.3113     56.0136   7.5991612566e+01   3.8232913627e+01     1.440997     1.274315  14.89  0.003264946    1.133    0.117
         2 -14.6623    172.2030     41.3136   6.8573343879e+01   3.7028529389e+01     1.328275     1.066313  -0.62  0.003858778    1.346    0.257
         3 -14.9145    193.7460      8.4234   5.4997664145e+01   3.5068767238e+01     2.716785    0.9140081  61.97   0.01021634    2.568    0.611
         4 -10.3061    150.7767    246.4670   1.1776478666e+02   7.4929351886e+00    0.1597113    0.1487985 -20.12 0.0007995177    1.408    0.290
         5 -10.8208    139.5870    249.9828   1.2013330008e+02   8.6115812602e+00    0.2248433    0.1275767  49.58   0.00143399    1.585    0.369
         6 -10.6261    133.6802    248.3722   1.2102145876e+02   9.6381941234e+00    0.2253552    0.1315296 -46.32  0.001398872    2.335    0.572
         7 -16.9650     87.5647    182.7720   1.2309667526e+02   2.6820177569e+01      6.72259     2.381306 -47.43   0.02631867    3.976    0.748
         8 -10.9645     34.8599    205.8403   1.3597061903e+02   2.8636645870e+01     0.152328    0.1157907  25.74 0.0008341135    1.633    0.388
         9 -12.7963    119.1162    240.9460   1.2291754355e+02   1.2657686066e+01    0.2716062    0.1755702 -72.84  0.001798751    2.188    0.543
        10 -10.3625    135.2683    198.6670   1.1485842621e+02   1.6810376600e+01    0.2333714    0.1798636 -61.82  0.001172612    1.615    0.381
        11 -12.5169    175.9970    231.9958   1.1143307974e+02   5.6437527904e+00    0.3937629    0.1694465 -42.40  0.002082401    2.999    0.667
        12 -10.7108    121.1800    197.6548   1.1766822993e+02   1.9175554674e+01    0.1765088    0.1679456 -81.75 0.0003056148    1.217    0.179
        13 -10.4286      7.1275    197.1958   1.4076476753e+02   3.2699003477e+01   0.07498764   0.05476652 -85.91 0.0004085068    1.295    0.228
        14 -10.4587    180.0678    193.0138   1.0483785542e+02   1.0306300873e+01    0.1939213    0.1551922  61.93  0.001134852    1.739    0.425
        15 -11.7452    172.3694    188.9955   1.0571218686e+02   1.2221346194e+01    0.3426244    0.1645358  39.04  0.001179601    1.767    0.434
        16 -11.3919    175.9205    186.5437   1.0457466781e+02   1.1987654108e+01     0.247695    0.2233835  70.81  0.001549416    1.521    0.343
        17 -19.1703     51.1071     99.9176   1.2081100814e+02   4.9664931045e+01     17.01997    0.8968282 -63.54   0.02621423   16.896    0.941
        18 -11.9052    197.6665    246.0327   1.0942883205e+02   8.6568308815e-01    0.1991289    0.1217411  37.99  0.001163123    1.336    0.252
        19 -12.1251     39.2865    183.4673   1.3364842603e+02   3.2414906916e+01    0.1914039    0.1604706 -87.01 0.0008612416    1.184    0.155
        20 -10.3373    133.5370    183.5179   1.1303120470e+02   1.9700308339e+01    0.1313561    0.1136646  40.85 1.797675e-05    1.020    0.020
        21 -11.8987    168.8791    177.7642   1.0449373120e+02   1.4608819655e+01    0.3791664     0.273249 -65.14  0.001495128    2.199    0.545
        22 -11.0853    165.8633    173.0771   1.0428981558e+02   1.5921005881e+01    0.2396492    0.2197756 -68.95 0.0007460741    1.426    0.299
        23 -12.3559    204.4775    176.1412   9.7029310897e+01   8.5370494089e+00    0.4010694    0.3791956 -17.11    0.0013764    1.345    0.256
        24 -10.6328    197.7703    177.0140   9.8494958260e+01   9.5919806726e+00    0.2300195    0.2072727  74.70  0.001307659    1.701    0.412
        25 -12.2019    189.4782    155.2189   9.5845010766e+01   1.4465769831e+01    0.4712882    0.4023883   6.51  0.001561713    1.077    0.072
        26 -12.3148    193.3547    165.6490   9.7176367075e+01   1.2093140831e+01    0.4527899    0.3080499 -38.13 0.0008511548    1.640    0.390
        27 -11.7347    190.1986    161.1069   9.6905433154e+01   1.3389121065e+01    0.3819189     0.278772  48.37  0.001350224    1.491    0.329
        28 -11.1159    201.7208    167.9254   9.5970673998e+01   1.0220516233e+01    0.4636629    0.2296322  29.75  0.001448534    2.019    0.505
        29 -11.5823    230.0847    166.7043   9.0437279706e+01   5.3717395152e+00    0.3101039    0.1552403 -44.90  0.001343499    3.028    0.670
        30 -11.3503     25.2157    165.6392   1.3542762143e+02   3.7334440416e+01    0.2238448    0.1827707  11.94 0.0009743012    1.666    0.400
        31 -11.6769    132.1786    160.2427   1.0951419038e+02   2.4260522157e+01     0.342054     0.176324  37.34  0.001128178    1.796    0.443
        32 -11.1389    236.8027    158.4111   8.7569131895e+01   5.3028921179e+00    0.1844262    0.1060131  28.94 0.0004733819    1.624    0.384
        33 -13.8093    133.9252    145.8967   1.0640890694e+02   2.6770802660e+01     1.394426    0.4162799 -55.55  0.003778563    5.602    0.821
        34 -11.7871    165.8512    153.9512   1.0061934750e+02   1.9219937513e+01    0.3795938    0.2673203  67.94  0.001221935    2.209    0.547
        35 -13.4801    135.7979    127.9377   1.0215283520e+02   3.0050891920e+01     1.755688    0.3403258 -50.28  0.003817199    7.544    0.867
        36 -11.9785    134.6344    109.1367   9.7941550615e+01   3.4145011608e+01     1.140417    0.1632724 -44.18  0.002417898    7.098    0.859
        37 -12.8547    150.1812    149.2207   1.0320958135e+02   2.3081245152e+01    0.7408513    0.4703613  89.54  0.002333116    5.124    0.805
        38 -13.0201    144.1407    146.0728   1.0398937440e+02   2.4829864150e+01    0.5586429    0.3954742 -69.36  0.002630184    2.029    0.507
        39 -12.6271    141.6917    138.9173   1.0309149238e+02   2.6699180786e+01    0.4184801    0.2883047 -52.81  0.002026893    1.630    0.386
        40 -11.2906    174.3163    148.5027   9.7632972816e+01   1.8533300969e+01    0.3301438    0.2706517 -56.20  0.001198445    1.563    0.360
        41 -11.6542    125.9793    140.0244   1.0720332758e+02   2.9414822753e+01      0.22125    0.2074774  39.76 0.0004410447    1.018    0.017
        42 -10.2226    165.4130    132.2300   9.6015577638e+01   2.3241812822e+01     0.195843    0.1415498 -50.22 0.0004331488    1.612    0.380
        43 -12.0165    160.5785    127.6546   9.6064490013e+01   2.5094838038e+01    0.4000659    0.3291295 -62.58  0.001355125    1.539    0.350
        44 -12.7940    113.8924    118.8397   1.0587050693e+02   3.6112135442e+01    0.4129231    0.3483643 -66.82  0.001076921    1.300    0.231
        45 -11.2863    168.2141    113.3522   9.0793611983e+01   2.6128086074e+01    0.4090862    0.3183362 -78.01  0.001188675    1.984    0.496
        46 -13.3180    118.7454    110.0249   1.0245579807e+02   3.7115431717e+01    0.6551756    0.4032583  55.28  0.002808479    1.941    0.485
        47 -10.7671    205.4682    110.1737   8.2227282680e+01   1.8468634301e+01    0.3242495    0.2004639  37.93 0.0009206124    1.608    0.378
        48  -9.5195    143.2594    209.3196   1.1467721707e+02   1.3839974886e+01    0.1142888   0.08841805   7.09 0.0002512604    1.545    0.353
        49 -10.4844     72.3048     99.3324   1.1386014505e+02   4.7220577274e+01    0.1432435    0.1016609 -29.36 0.0002696347    1.660    0.398
        50 -10.7144     76.0793     86.5202   1.0959712930e+02   4.9644362688e+01    0.2066581    0.1389051  36.15  0.001022812    1.582    0.368
        51 -10.4025    148.0128     81.2522   8.6674065995e+01   3.6683220316e+01    0.2217922    0.2036712  33.08 0.0004452747    1.067    0.063
        52 -10.5439     90.0831     78.6696   1.0275663267e+02   4.9178336666e+01    0.2004727    0.1876768  16.09 0.0004980534    1.096    0.087
        53 -17.7133     69.6796    232.4760   1.3121294324e+02   2.0284699862e+01     7.721182     5.395558  81.43   0.04458794    1.457    0.314
        54 -11.6446    125.0495    247.1652   1.2244452391e+02   1.0983791153e+01    0.2828103    0.1413517 -53.29  0.001453159    2.664    0.625
        55 -10.9863    168.0746    246.2684   1.1465545323e+02   5.0541945645e+00    0.2093154    0.1596187 -47.94 0.0008427222    1.864    0.464
        56 -11.3535     14.2563     58.9248   1.2650508365e+02   6.2222226829e+01    0.3220845     0.180355 -38.99  0.001514597    1.699    0.411
        57 -12.7579    176.4172     34.1216   6.5490230134e+01   3.6846778490e+01    0.4379543    0.3319672  14.27 0.0009287746    1.495    0.331
