#   1 NUMBER                 Running object number                                     
#   2 MAG_AUTO               Kron-like elliptical aperture magnitude                    [mag]
#   3 X_IMAGE                Object position along x                                    [pixel]
#   4 Y_IMAGE                Object position along y                                    [pixel]
#   5 X_WORLD                Barycenter position along world x axis                     [deg]
#   6 Y_WORLD                Barycenter position along world y axis                     [deg]
#   7 A_WORLD                Profile RMS along major axis (world units)                 [deg]
#   8 B_WORLD                Profile RMS along minor axis (world units)                 [deg]
#   9 THETA_WORLD            Position angle (CCW/world-x)                               [deg]
#  10 FWHM_WORLD             FWHM assuming a gaussian core                              [deg]
#  11 ELONGATION             A_IMAGE/B_IMAGE                                           
#  12 ELLIPTICITY            1 - B_IMAGE/A_IMAGE                                       
         1 -14.3998    213.9650      4.3449   4.5644404244e+01   3.0416015399e+01     2.751801     1.715888  42.72    0.0107092    1.862    0.463
         2 -13.9864    175.9914     46.2969   6.3492747687e+01   3.5285456441e+01     1.420832     1.062749  22.55  0.004454185    1.585    0.369
         3 -13.9367    188.7063     34.9356   5.7779148774e+01   3.3510191421e+01     1.083807    0.9332932 -38.57  0.003658853    1.170    0.145
         4 -14.1582    194.4053     27.1788   5.4565851346e+01   3.2986368194e+01      1.15554    0.9578321   2.78  0.001430489    1.395    0.283
         5 -12.6740     43.4799      4.4569   8.3711084970e+01   6.8862857341e+01    0.4730485    0.3500603  62.37  0.002689612    2.866    0.651
         6 -11.5654     58.2386      2.7463   7.6843887340e+01   6.6947105531e+01    0.2080214    0.1484049  37.70  0.001269011    1.478    0.323
         7 -10.0269    198.6185    222.8094   1.0041398410e+02   8.9250823608e-01     0.200299    0.1324499  35.19 0.0004656749    1.236    0.191
         8 -16.7104     70.8637    146.8008   1.1472790553e+02   3.6380054582e+01     10.98337     5.063161  80.99    0.0323219    6.040    0.834
         9 -10.0629     37.2595    206.8570   1.2761627264e+02   2.8206723005e+01    0.1444549   0.09578729  69.69  0.000376878    1.135    0.119
        10  -9.6527    163.2070    203.7960   1.0394416484e+02   9.8339834052e+00    0.1641326    0.1363806  26.17 0.0003117525    1.273    0.214
        11  -9.9209     55.5499    211.2506   1.2477033358e+02   2.5254114815e+01    0.8597734    0.1994757  48.66  0.003202074    3.229    0.690
        12 -11.2171    156.0092    199.9118   1.0471982270e+02   1.1757027155e+01    0.4131435     0.193555 -54.88  0.001892179    2.697    0.629
        13 -10.1890     87.8026    202.4028   1.1810166214e+02   2.2558371504e+01    0.2370345    0.1586972 -74.89  0.001484391    1.502    0.334
        14 -12.1517     37.5682    200.5455   1.2712084008e+02   2.9351162097e+01    0.1775693     0.130778  75.96 0.0003766842    1.014    0.014
        15 -10.3020    209.8560    199.3547   9.4591121077e+01   2.0407805651e+00    0.1900371    0.1722418 -38.84 0.0005631604    1.367    0.269
        16 -11.9994    193.4993    192.9914   9.6471499582e+01   5.9506954372e+00    0.7431411    0.4067696 -49.77  0.003436721    2.383    0.580
        17  -9.5356     43.0571    200.0001   1.2610645166e+02   2.8835529701e+01     0.123847   0.09101204  78.75 0.0003440632    1.033    0.032
        18 -16.8311     68.7174    247.2638   1.2524273613e+02   1.7490251644e+01     7.517089     2.233711  36.14   0.02921268    5.364    0.814
        19 -10.4982     82.2798    195.3390   1.1839303182e+02   2.4689291843e+01    0.2477394    0.2117409  47.46  0.001714156    1.330    0.248
        20 -13.1220     69.5942    190.3080   1.2030872773e+02   2.7420101085e+01    0.6746104    0.5589008 -82.99  0.004762589    1.202    0.168
        21  -9.9953     70.5524    219.3403   1.2282098391e+02   2.1884403093e+01    0.2826821    0.1311476  68.61 0.0006240649    2.280    0.561
        22 -11.8882     96.8806    188.5404   1.1474353827e+02   2.3839536087e+01    0.4045836    0.2721808  60.26  0.001377264    1.322    0.244
        23 -10.2041    151.9835    184.0390   1.0298893538e+02   1.5224016516e+01    0.1589786    0.1471624  57.84 0.0004977004    1.052    0.049
        24 -10.7878     76.3408    207.1527   1.2070370427e+02   2.3298020441e+01    0.3132751    0.2013968 -60.87  0.001383968    1.763    0.433
        25 -11.9795     99.2830    180.8114   1.1325987369e+02   2.4988328607e+01    0.2664723    0.2493407  60.70 0.0006240685    1.220    0.180
        26 -11.9886    145.2231    179.2288   1.0355913126e+02   1.7356722600e+01    0.3973853    0.2350251  34.77  0.001908018    1.819    0.450
        27 -10.2441     70.0869    178.8019   1.1898061061e+02   2.9659100204e+01    0.1941906    0.1334879  69.25 0.0006532745    1.293    0.227
        28 -10.1843    167.4098    175.1181   9.8331161038e+01   1.3863755341e+01     0.375992    0.2305244 -74.42  0.001495845    3.245    0.692
        29  -9.3276    202.6676    171.2905   9.0690546147e+01   7.5412139137e+00    0.1302778    0.1094963  78.63 0.0004691364    1.629    0.386
        30 -11.6402    195.2174    168.6255   9.1587369517e+01   9.4520252812e+00    0.3255831    0.2851066  34.16 0.0007085201    1.039    0.037
        31 -10.7826    146.0205    168.4942   1.0153918666e+02   1.9226717258e+01    0.2151122    0.1271661  45.26 0.0005622398    1.558    0.358
        32 -10.7389    230.2332    166.0038   8.4563086251e+01   2.9673418566e+00    0.1746183    0.1082607 -30.04 0.0005429672    1.633    0.388
        33 -10.5934    190.6386    160.9163   9.0922204872e+01   1.1670905645e+01    0.2478781     0.223927  22.70 0.0007521419    1.057    0.054
        34 -11.2003    189.3166    155.4017   9.0035344272e+01   1.2895809097e+01    0.4020726    0.3489301 -49.44  0.001365054    1.284    0.221
        35 -10.8047    141.4601    158.4420   1.0067043873e+02   2.2067750531e+01    0.2623577    0.2197883  77.57 0.0003371166    1.269    0.212
        36 -13.1315     96.9003    154.8840   1.0998270141e+02   3.0753894533e+01     0.646008     0.506686 -33.77  0.003591362    1.748    0.428
        37 -11.6033    134.0000    147.9926   1.0031288945e+02   2.5636137255e+01    0.5249966    0.2501531 -58.54  0.002069748    2.468    0.595
        38 -12.1830    134.0000    143.9997   9.9516051418e+01   2.6466519597e+01    0.9047839    0.3026995 -57.71  0.002632649    4.475    0.777
        39 -10.5230     39.4995    212.9393   1.2764603974e+02   2.6843716805e+01    0.1940683    0.0968725  57.74 0.0006580154    1.583    0.368
        40 -10.4423    174.8974    149.1421   9.1643012369e+01   1.7054922365e+01    0.2234778    0.1989371  75.80  0.000541519    1.263    0.208
        41 -11.9024    144.3070    146.9814   9.7795644411e+01   2.3811890923e+01    0.4250579    0.2864124 -76.96  0.001882835    2.108    0.526
        42 -12.2502    107.8978    140.2756   1.0488193326e+02   3.2094454398e+01    0.4704584    0.3270292 -32.57  0.002067603    1.974    0.493
        43 -12.5052     96.1306    140.3023   1.0769831873e+02   3.4065410930e+01    0.2838995    0.2559066 -57.00 0.0004272273    1.183    0.154
        44 -19.3758     15.4225    133.4566   1.2595532157e+02   4.5281622018e+01      17.1746     1.817361 -73.66   0.03961546   10.097    0.901
        45 -11.2981    105.9235    130.8301   1.0352062869e+02   3.4520723568e+01      0.41789     0.296319 -72.56  0.001202772    1.506    0.336
        46 -11.3024    102.8769    126.5772   1.0341447683e+02   3.5994857142e+01    0.2757579    0.2417582  -5.32 0.0008005897    1.498    0.333
        47 -12.1835    115.4022    130.3599   1.0109967804e+02   3.2925757244e+01    0.5338632    0.3986202   8.73  0.001497243    2.098    0.523
        48 -11.8586    119.9726    124.5124   9.8718716972e+01   3.3349541122e+01    0.6181469     0.341794 -24.87  0.001955608    4.310    0.768
        49 -11.8542    135.4651    122.6175   9.4516468110e+01   3.0687009068e+01     0.752615     0.168618 -50.73  0.001857151    5.360    0.813
        50 -10.3165    125.9972    127.7862   9.7972303241e+01   3.1476706204e+01      0.24648    0.1650968  73.51 0.0009362655    2.031    0.508
        51 -10.4694    110.4233    119.3222   9.9954654302e+01   3.6272991528e+01    0.2290195    0.2215722  50.21 0.0003603427    1.110    0.099
        52 -10.1323    167.8729    112.6165   8.4561646589e+01   2.5624603430e+01    0.3078638    0.2010823 -59.21  0.001267198    1.904    0.475
        53 -10.3072    161.1450    127.9733   8.9841887705e+01   2.4105568544e+01    0.2541698    0.1766444 -71.07  0.001085726    2.011    0.503
        54 -11.7532    120.0998    110.6964   9.5468406205e+01   3.6340647450e+01     0.447145    0.2891222  68.49  0.001897912    2.131    0.531
        55  -9.4394    100.6112    109.2143   1.0020517859e+02   4.0271412188e+01    0.1874454    0.1273975 -44.83 0.0001827172    1.454    0.312
        56 -10.3357    205.6318    110.1289   7.6207067289e+01   1.7239728655e+01    0.2913963      0.21471  41.96 0.0006469014    1.371    0.270
        57 -13.3775     48.1219    216.7570   1.2645464573e+02   2.5158675087e+01    0.4439478    0.1732843  60.18  0.002022433    2.250    0.556
        58 -10.8554     44.4025    210.4688   1.2664123720e+02   2.6731259012e+01    0.2105026    0.1138633  63.85 0.0005939632    1.494    0.331
        59 -10.8307     41.7585     91.9725   1.1318882993e+02   5.2231150338e+01    0.1843379    0.1788749 -61.62 0.0004925435    1.195    0.163
        60 -12.1478    183.5641    215.2689   1.0193859245e+02   4.5011607750e+00    0.3832557    0.3456595 -76.63   0.00262241    1.459    0.314
        61 -10.1215     50.4346    204.9293   1.2517417906e+02   2.7042856014e+01    0.2349191    0.1699757  67.02  0.001103126    1.081    0.075
        62 -11.9854    166.4758     66.7653   7.1815381174e+01   3.4493772350e+01    0.4869349    0.3446122 -79.98 0.0006353268    2.042    0.510
        63  -8.4119     46.0620    205.1857   1.2596592181e+02   2.7512845525e+01    0.1509546   0.09313516  65.57 0.0003668347    1.286    0.222
        64 -12.2585     63.9412    206.4959   1.2289065664e+02   2.5070156790e+01    0.3603689    0.2787507  76.91  0.001611291    1.049    0.047
        65 -12.9575     59.7482    204.1331   1.2344255587e+02   2.6045664442e+01    0.4439488    0.3105317 -64.57  0.001500379    1.608    0.378
        66 -11.7390     72.4361    211.8428   1.2184091898e+02   2.2971431819e+01    0.2250036    0.1540125  67.14 0.0003874405    1.170    0.145
        67  -9.9757     71.7995    229.8009   1.2345953459e+02   1.9920198997e+01    0.1441536   0.08927474  64.05            0    1.262    0.208
        68  -9.5537     67.1496    225.4978   1.2389997575e+02   2.1260315815e+01    0.1913291   0.09539296  39.08  0.001116814    2.062    0.515
