#   1 NUMBER                 Running object number                                     
#   2 MAG_AUTO               Kron-like elliptical aperture magnitude                    [mag]
#   3 X_IMAGE                Object position along x                                    [pixel]
#   4 Y_IMAGE                Object position along y                                    [pixel]
#   5 X_WORLD                Barycenter position along world x axis                     [deg]
#   6 Y_WORLD                Barycenter position along world y axis                     [deg]
#   7 A_WORLD                Profile RMS along major axis (world units)                 [deg]
#   8 B_WORLD                Profile RMS along minor axis (world units)                 [deg]
#   9 THETA_WORLD            Position angle (CCW/world-x)                               [deg]
#  10 FWHM_WORLD             FWHM assuming a gaussian core                              [deg]
#  11 ELONGATION             A_IMAGE/B_IMAGE                                           
#  12 ELLIPTICITY            1 - B_IMAGE/A_IMAGE                                       
         1 -13.6523     68.0969    144.0492   9.5769775510e+01   3.7650872902e+01      1.80865    0.9829612  72.76  0.002915392    3.704    0.730
         2 -13.9323    226.0380     33.9813   3.4179022420e+01   2.6023808288e+01     1.136922    0.8074952  47.39   0.00690103    1.948    0.487
         3 -12.6706    249.0964     13.1906   2.8389602446e+01   2.3988905145e+01    0.5989215    0.2646762 -41.23  0.002885323    1.941    0.485
         4 -12.0695      2.7838      6.6932   8.3134015924e+01   7.3679816348e+01    0.8106561    0.2130449 -40.19  0.003708129    3.224    0.690
         5  -9.2942     98.3518      6.6903   4.4771021182e+01   5.7806618002e+01    0.1215483   0.09228221 -78.77 0.0007044221    1.719    0.418
         6 -10.6558     16.7516      2.2595   7.2528539640e+01   7.2802098343e+01    0.1896765    0.1250307 -26.03  0.001292012    1.463    0.316
         7 -11.7293     48.3296    177.7748   1.0662644732e+02   3.1569055691e+01    0.4190075    0.3055717 -29.62   0.00128762    1.803    0.445
         8 -15.1808    101.2389    226.3966   9.9783184310e+01   1.2829007630e+01     7.192242     2.830756  36.45   0.02965327    2.237    0.553
         9  -8.7498    110.5583    167.4771   8.8114971822e+01   2.4910349014e+01    0.1518308    0.1460169  79.92 0.0001614446    1.057    0.054
        10 -10.9950     67.1257    162.3616   9.9242712633e+01   3.3078685201e+01    0.2645812    0.2593338 -19.70 0.0004060845    1.127    0.113
        11 -12.9403     53.1907    158.1879   1.0257988892e+02   3.5976132394e+01     0.568429    0.3645832 -37.80  0.002094092    1.843    0.457
        12 -12.7156     52.8745    116.0808   9.5089142979e+01   4.6782406314e+01     1.511656      0.52922 -70.16  0.000540327    5.711    0.825
        13 -12.7495     75.1741    155.6683   9.5791238579e+01   3.3642963449e+01    0.7407948     0.631465  63.19  0.001425186    1.228    0.185
        14 -13.5894      6.3331    226.7198   1.2063428270e+02   2.4463070855e+01     1.759517    0.8291123  71.72   0.00932658    1.958    0.489
        15  -9.4139    134.7694    142.8251   7.6501085070e+01   2.6274319726e+01     0.330452    0.2087434 -37.94  0.001254568    1.670    0.401
        16 -10.6572    105.9205    130.9970   8.1647046777e+01   3.4692853810e+01    0.3794421    0.3434177 -11.91 0.0009779193    1.194    0.163
        17 -14.7145      5.7266    246.4498   1.2176921222e+02   2.0425912288e+01     6.001969    0.7899154  29.41   0.01871075    7.118    0.860
        18 -10.3212     92.2297    127.3800   8.4872580944e+01   3.8047406246e+01    0.2973366    0.2473992 -29.26 0.0007015486    1.278    0.218
        19 -12.1955     32.2959    157.0469   1.0841076294e+02   3.8597097614e+01    0.4026151    0.3096895 -66.87  0.001924502    1.159    0.137
        20  -9.4728    103.9503    119.4716   7.9429343377e+01   3.7820985845e+01    0.2218866    0.2034292 -46.10 0.0003001499    1.067    0.062
        21 -10.4799     92.0103    142.7648   8.8346545203e+01   3.4258625645e+01    0.3779132    0.3084207  -0.51 0.0008926532    1.485    0.326
        22  -9.5140     95.4648    139.0504   8.6533421784e+01   3.4596630945e+01    0.3092824    0.2170906   6.59  0.001312137    1.981    0.495
        23  -8.4103     67.3435    117.7007   9.0568089082e+01   4.4425704180e+01    0.1497896    0.1145745  69.92   0.00056244    1.674    0.403
        24  -9.4816    204.8231    110.6558   5.3855131995e+01   1.8449685985e+01    0.3284916    0.1638063  40.33  0.001342772    2.566    0.610
        25 -11.9198     79.3250    140.5881   9.1685905618e+01   3.6867801371e+01    0.3425775    0.2735154 -49.16 0.0005065979    1.209    0.173
        26 -11.0189     13.2268     60.6752   9.7398426470e+01   6.3398430619e+01    0.3274765    0.1773027 -50.06  0.001432361    1.518    0.341
        27 -14.2510     12.9649    205.6522   1.1792360526e+02   2.8535454942e+01     1.130415    0.8834341  24.82  0.005737987    1.551    0.355
        28 -11.4900    205.3559     49.6845   3.9762791902e+01   2.8309332218e+01    0.6126438     0.240126 -50.53  0.002589239    2.482    0.597
        29  -8.4626     92.2809     52.7033   6.3091386070e+01   5.3604317700e+01    0.1280751    0.1112692 -84.40 0.0002264806    1.539    0.350
        30 -12.4785    212.5671     45.4993   3.7990790188e+01   2.7330286163e+01    0.5743538    0.3635136 -52.97  0.003249587    1.409    0.290
        31 -16.0486     24.6578    196.7507   1.1455590409e+02   2.9493534151e+01       10.155     3.125784 -85.55   0.03124272    4.886    0.795
        32 -11.5524     12.8580     43.9087   9.2533275354e+01   6.6740829950e+01    0.4353138    0.2311484  39.47  0.001872389    2.620    0.618
        33 -11.4659      3.2066     38.7002   9.5796895542e+01   6.8393254363e+01    0.3124817    0.2842249  42.60  0.002281503    1.579    0.367
        34 -10.8628    120.4723     28.5267   4.7522642993e+01   5.0671717698e+01    0.4677689    0.2867435 -75.50  0.001820435    2.662    0.624
        35 -11.6215     55.1821    171.9412   1.0401249125e+02   3.2206687020e+01    0.3338291    0.2691534 -38.26 0.0004676186    1.423    0.297
        36  -9.8518     43.2994     17.0443   6.6749234514e+01   6.7385365228e+01    0.1668284    0.1374939  -2.19 0.0004860415    1.118    0.105
        37  -9.7714    189.6696     15.5388   3.3651900430e+01   3.6001466104e+01    0.2095354    0.1199034 -57.43  0.001148812    1.679    0.404
        38 -10.9829     41.2966    214.1317   1.1222842944e+02   2.3625361359e+01    0.2917145     0.174656  44.88 0.0005341984    1.514    0.339
        39  -9.5364    191.3212    191.9840   7.3791950401e+01   5.2044492897e+00    0.2172865    0.1138716 -62.42 0.0007050277    4.325    0.769
