#   1 NUMBER                 Running object number                                     
#   2 MAG_AUTO               Kron-like elliptical aperture magnitude                    [mag]
#   3 X_IMAGE                Object position along x                                    [pixel]
#   4 Y_IMAGE                Object position along y                                    [pixel]
#   5 X_WORLD                Barycenter position along world x axis                     [deg]
#   6 Y_WORLD                Barycenter position along world y axis                     [deg]
#   7 A_WORLD                Profile RMS along major axis (world units)                 [deg]
#   8 B_WORLD                Profile RMS along minor axis (world units)                 [deg]
#   9 THETA_WORLD            Position angle (CCW/world-x)                               [deg]
#  10 FWHM_WORLD             FWHM assuming a gaussian core                              [deg]
#  11 ELONGATION             A_IMAGE/B_IMAGE                                           
#  12 ELLIPTICITY            1 - B_IMAGE/A_IMAGE                                       
         1 -14.5836      5.6674     75.9941   1.1597548579e+02   5.9423342820e+01     2.967962     1.918323  70.61   0.01740425    2.041    0.510
         2 -15.5329      9.1149     27.0161   1.0217265234e+02   6.9385373488e+01     3.380022     1.394413 -56.51   0.01743539    2.184    0.542
         3 -13.1615     30.6521     10.6594   8.4214477641e+01   7.0188960594e+01     1.375358    0.4827987 -34.27  0.006407477    2.528    0.604
         4 -14.6982     44.1227     41.6541   9.1321297900e+01   6.3516434707e+01     4.276351     1.383915 -41.11   0.01344361    2.685    0.628
         5 -14.3902     96.6775     71.3428   8.2438490804e+01   4.9659681931e+01     2.126909      1.45395  -8.17  0.002579594    2.021    0.505
         6 -13.9186     69.4078     55.7251   8.6439608900e+01   5.7428117281e+01     1.206131     1.120405 -54.55  0.005692638    1.278    0.218
         7 -13.7347     24.0997     49.7514   1.0262643480e+02   6.3906378192e+01     1.244262    0.7288014 -27.67  0.007026946    1.687    0.407
         8 -15.2807     60.3849     71.8497   9.4952269830e+01   5.5424391879e+01     3.193675     1.820107   7.99   0.01319424    2.782    0.641
         9 -12.4715    150.4622      8.6229   4.7224844413e+01   4.6415597599e+01     0.906273    0.4063474  78.55  0.003516407    2.671    0.626
        10 -12.8317     80.5910     32.1079   7.3317213582e+01   5.9568251286e+01    0.7920755    0.6842607  25.98  0.004343047    1.131    0.116
        11 -12.7219    138.3378      4.2173   4.7714024103e+01   4.9843149021e+01     1.170062    0.3388384  60.37  0.004343861    2.684    0.627
        12 -11.8316     73.3861      1.5066   6.1948033852e+01   6.4625137391e+01    0.2645054     0.140367  49.75 0.0006243578    1.754    0.430
        13 -13.1870     83.5251     22.6493   6.8319258074e+01   6.0321840900e+01    0.6672496    0.4849042  50.16 0.0005255002    1.474    0.321
        14 -13.5884    120.5815     10.8660   5.3532678127e+01   5.3552960683e+01     1.537615    0.5620299  55.40  0.006221298    2.269    0.559
        15 -13.1268    104.4381      4.9477   5.4830355546e+01   5.7832495224e+01    0.7245412    0.5398587 -29.34  0.003283218    1.487    0.327
        16 -14.6282     79.5855     70.1486   8.7671454250e+01   5.2931139693e+01     3.159132     1.769088 -23.09   0.01262674    2.561    0.610
        17 -11.2840    153.6235     20.7334   5.0690451756e+01   4.4376913685e+01    0.4398517    0.2398614 -33.86  0.001845486    1.908    0.476
        18 -11.7740    149.9816     21.5087   5.1585082858e+01   4.5213515650e+01    0.4969215    0.3887488 -33.97  0.002699047    1.364    0.267
        19 -13.2485    185.8684     12.6898   4.3555716345e+01   3.7020882980e+01    0.9409162     0.638252 -20.79  0.004928414    1.703    0.413
        20 -11.6496     64.7302     17.8771   7.2809982318e+01   6.4349226178e+01    0.4386018    0.2880362  23.82  0.001400198    1.460    0.315
        21 -11.3046    188.1646      5.3149   4.1232908891e+01   3.7185242570e+01    0.3170758    0.2185808  61.18 0.0007278326    1.360    0.265
        22 -12.5019    175.5231     13.7286   4.5175371389e+01   3.9539897954e+01    0.5600443    0.3380215  39.42  0.002378766    1.931    0.482
        23 -14.8403     87.4623      6.9914   6.0187445547e+01   6.1305589470e+01     2.442499     1.195467  53.60   0.01180932    1.913    0.477
        24 -12.5955    192.9577      5.9450   4.0884408273e+01   3.5924916544e+01    0.6098236     0.411404 -46.25  0.002736165    1.474    0.321
        25 -11.6809    169.7801     10.5272   4.4993074164e+01   4.1328234904e+01    0.2825557    0.2443346  78.23  0.001111564    1.051    0.048
        26 -12.3176     75.7271     13.4352   6.6804877809e+01   6.2935043263e+01     0.316748    0.2952527  32.86 0.0009760203    1.262    0.208
        27 -10.2998     49.2275      4.9831   7.2719717761e+01   6.8434266967e+01    0.2842967    0.1733798 -25.16   0.00132655    1.521    0.343
        28 -11.5473    168.2494      2.4514   4.2760034003e+01   4.2476400770e+01    0.2985662     0.265898  58.17  0.001731619    1.109    0.098
        29  -9.6614    211.9355      1.5250   3.7904671761e+01   3.1709982947e+01    0.1914247    0.1140741  76.56 0.0006613749    1.519    0.342
        30  -9.5204    157.8324      1.3274   4.3784102692e+01   4.5207961720e+01    0.1982007    0.1015849  60.05 0.0004385287    1.665    0.399
        31 -11.7532    135.6174     98.2340   7.9422893151e+01   3.5962525357e+01    0.6996861    0.4924081  13.73  0.002888969    2.052    0.513
        32 -12.5118    141.6532     96.6253   7.7415449574e+01   3.4938920896e+01    0.8287119    0.6335416 -51.40  0.003555866    1.348    0.258
        33 -10.7932    114.3247     97.0639   8.4906642855e+01   4.0753768573e+01    0.3398165    0.2710502 -51.63 0.0008777321    1.245    0.197
        34  -9.7831    185.4987    167.4465   8.4509302802e+01   1.0815068900e+01    0.1456644    0.1349977  15.73 0.0003354294    1.013    0.013
        35 -10.7506    213.9989    164.5088   7.8160685411e+01   5.7664002118e+00    0.2071283    0.1132385  22.22 0.0008104512    2.561    0.609
        36 -10.9598    188.7125     94.5084   6.6258921032e+01   2.4166238639e+01    0.2988221    0.2647845 -61.99 0.0004735359    1.182    0.154
        37 -11.6087    117.3862     90.8301   8.2248974503e+01   4.1478002586e+01    0.4393007    0.2364143  41.84  0.001155486    1.922    0.480
        38 -11.1176    249.2077     86.2486   5.4297790976e+01   1.1835130278e+01     0.396981    0.2984314 -36.76   0.00166467    1.174    0.148
        39  -9.3404    152.4911     88.4698   7.2398757651e+01   3.4058216161e+01    0.1555049    0.1542948 -47.85 0.0003067824    1.014    0.014
        40 -12.5628    128.2206     81.8858   7.6567527892e+01   4.0990100332e+01    0.5518737     0.505031 -53.13  0.002884358    1.133    0.117
        41 -13.3901    121.5639     81.1588   7.8165915043e+01   4.2602419220e+01     1.350265    0.9420512 -71.60   0.00565182    2.144    0.533
        42 -11.2744    112.8494     81.8646   8.0863462790e+01   4.4304756098e+01    0.8739767    0.5225474 -30.06  0.003629875    1.897    0.473
        43 -10.3421    148.5202     80.5471   7.0995181508e+01   3.6539764031e+01    0.2443636    0.2332905  26.21 0.0006441536    1.062    0.058
        44 -12.0797    144.8005     75.8465   7.0457672682e+01   3.8316887310e+01     0.691897    0.5767683 -71.87  0.002297453    1.420    0.296
        45  -9.6364    234.3083     76.0520   5.3882639920e+01   1.6642512874e+01    0.2088741    0.1691571 -40.93 0.0008030381    1.119    0.107
        46 -11.3535    152.7013     73.4039   6.7838236773e+01   3.6855475224e+01    0.5866504    0.4448435 -82.27  0.002249839    1.763    0.433
        47  -9.7862    250.1512     73.8433   5.1280222238e+01   1.3547060426e+01    0.2125374    0.1672943 -54.37 0.0007371413    1.181    0.153
        48 -11.9440    125.9482     72.8613   7.4350258552e+01   4.3264883819e+01    0.8202785    0.4014531  59.68  0.002887073    2.748    0.636
        49 -10.0545    170.8228     72.6024   6.3666923006e+01   3.2510554522e+01    0.4296834    0.2034754  66.40  0.001456613    2.803    0.643
        50  -9.6762    182.7189     71.9547   6.1144089843e+01   2.9648020523e+01    0.2076604    0.1901937 -52.04 0.0003777899    1.078    0.072
        51 -11.3436    117.0392     67.9454   7.5214194555e+01   4.6167135394e+01    0.4513417    0.3307689  32.92   0.00157996    1.433    0.302
        52 -10.6179    118.7157     63.0406   7.3104197433e+01   4.6703846924e+01    0.3227282    0.2446779 -17.09  0.001557613    1.452    0.311
        53 -10.0720    146.6508     66.6343   6.7133019474e+01   3.9539110821e+01    0.3407241    0.2513724  15.10  0.001519867    1.750    0.429
        54 -11.4122     23.9177     66.2338   1.0715124499e+02   6.0437956829e+01    0.2761245    0.1854395 -39.25  0.001498853    1.307    0.235
        55 -11.0824    214.5238     60.9296   5.2853511844e+01   2.3580495227e+01    0.4061883    0.2647421 -33.55  0.000978726    1.496    0.332
        56 -10.7450    169.7531     62.9947   6.1021141974e+01   3.4405037973e+01    0.4115087    0.2002005  57.14  0.001590675    2.030    0.507
        57  -8.9556    189.9999     59.2342   5.6217727196e+01   2.9890596665e+01    0.1846394    0.1230679  61.77 0.0003583946    1.499    0.333
        58 -12.4494    124.7946     56.9930   6.9395837370e+01   4.6391986535e+01    0.3425074    0.2999783  35.00 0.0004228251    1.119    0.106
        59  -8.9915    203.2612     58.3582   5.3842330088e+01   2.6717676532e+01    0.1433645    0.1148857  13.12 0.0003660952    1.626    0.385
        60 -10.3888    227.3515     57.1344   5.0132611371e+01   2.1112550151e+01     0.258155    0.1996062  83.37 0.0006313259    1.365    0.267
        61 -11.4973    174.6175     56.4172   5.8117132335e+01   3.4223941543e+01    0.2669484    0.2572123 -89.18 0.0003261568    1.018    0.017
        62  -9.4644    209.3272     55.3138   5.2123128239e+01   2.5685491213e+01    0.1443961    0.1119905  26.21 0.0003006764    1.669    0.401
        63 -12.3363    133.6299     53.9258   6.6096140081e+01   4.4830293556e+01    0.5040196    0.3180232  62.34 0.0008779049    1.756    0.431
        64 -10.5795    153.8852     53.0771   6.1188481485e+01   3.9993452820e+01    0.5612366    0.2572857  37.67  0.001918617    2.901    0.655
        65 -11.3014    145.4188     50.4943   6.2185098361e+01   4.2504404867e+01    0.3547358    0.3051125 -43.05 0.0009405575    1.208    0.172
        66 -10.9833     99.2704     50.0860   7.4247730406e+01   5.3099459819e+01    0.5569055    0.2591638  39.02  0.002246477    2.231    0.552
        67 -10.9327    137.6777     48.5506   6.3299676196e+01   4.4703015257e+01     0.387647    0.2933285 -54.58  0.001569042    1.524    0.344
        68 -10.6616    139.2963     43.6455   6.1256288713e+01   4.5040675158e+01    0.4596239    0.2717173  67.34  0.001301194    1.938    0.484
        69  -9.1852    126.7538     48.9543   6.6102887840e+01   4.7250667414e+01    0.1813185    0.1254591 -29.48 0.0003665399    1.480    0.324
        70 -10.9242    175.7698     44.4421   5.4324071721e+01   3.5708812948e+01    0.4315911    0.2717222 -48.04  0.001968119    1.658    0.397
        71 -11.0420    181.8052     43.3407   5.2990562392e+01   3.4320335841e+01    0.3458646    0.2520349  62.86 0.0003441667    1.324    0.245
        72 -11.4694    157.3548     43.5671   5.7428199006e+01   4.0535162355e+01    0.3686471    0.2752143  52.73  0.000826951    1.281    0.219
        73 -11.3729    122.3703     43.5899   6.5320078889e+01   4.9096182506e+01    0.2900669    0.2511343  -4.24 0.0007552628    1.186    0.157
        74 -10.6835    203.3059     43.5923   4.9830435632e+01   2.8854885065e+01    0.3649209    0.2272327  56.22  0.001736462    1.610    0.379
        75 -11.5875    233.9714    153.9945   7.2216847379e+01   3.7611607590e+00    0.3230769    0.2085511  51.58  0.001600073    1.836    0.455
        76 -11.4145    197.3817     40.7859   4.9894609196e+01   3.0721157595e+01     0.342852    0.2903863  60.83  0.000483012    1.184    0.156
        77 -12.6357    216.7314     38.7578   4.6809191663e+01   2.6218762093e+01    0.7644401     0.301025  59.05  0.003075073    2.452    0.592
        78 -11.8151    202.8097     37.4145   4.8226167659e+01   2.9815295936e+01     0.942149     0.373742  69.92   0.00352506    2.670    0.626
        79 -11.0383     18.8693    153.8943   1.2207739148e+02   4.0440688172e+01    0.1856411    0.1469139 -67.20  0.000839011    1.244    0.196
        80 -10.1721    198.3325    153.6766   7.8896005425e+01   1.0798933538e+01      0.14441    0.1198976 -84.40 0.0005600231    1.705    0.413
        81 -10.0348    189.6068    153.1927   8.0583046229e+01   1.2683249304e+01    0.2158007    0.1377872 -28.66 0.0008421548    1.707    0.414
        82  -9.6841    139.0052    152.0063   9.1759147296e+01   2.3367838257e+01    0.1847885    0.1799022 -67.26  0.001011436    1.042    0.040
        83 -11.8245    245.7330    145.4748   6.8346974919e+01   2.9750517575e+00    0.4587179    0.1857805 -43.73  0.001808006    2.596    0.615
        84 -12.5809     58.9110    144.2520   1.1088601178e+02   3.8525826980e+01    0.9866292    0.4184878  50.26  0.004072982    2.644    0.622
        85 -11.9871     51.5658    141.7247   1.1244907518e+02   4.0023332056e+01    0.6969787    0.2695004 -65.73  0.002814863    2.252    0.556
        86 -10.2983    159.8245     36.2414   5.4612074853e+01   4.0911948921e+01    0.2324346    0.2143918  67.85  0.000367655    1.036    0.035
        87 -12.9053     47.2828    141.8751   1.1359919686e+02   4.0477050849e+01    0.5425403    0.4928928 -23.41  0.003135163    1.411    0.291
        88  -9.7402    140.8111     35.0045   5.7960187176e+01   4.5868021687e+01    0.2440454    0.1626401  15.91 0.0008442371    1.977    0.494
        89  -9.7737    240.6705     34.0957   4.3036201170e+01   2.1239281930e+01     0.183628    0.1545519 -49.03 0.0005321638    1.101    0.092
        90 -10.9710    176.5746     33.4689   5.0902654253e+01   3.6981142541e+01    0.2943923    0.2523856  77.35 0.0005902933    1.117    0.105
        91  -9.9215     97.1252     33.8484   6.8682809814e+01   5.6075668063e+01    0.1969627    0.1946615   3.74 0.0007144885    1.193    0.162
        92  -9.3587    249.7545     31.9758   4.1684745609e+01   1.9500701563e+01    0.1658667   0.09911242 -35.61 0.0004243529    1.549    0.354
        93 -10.7078    151.0934     31.8824   5.4829929317e+01   4.3695251269e+01    0.4429122    0.2557956  58.43    0.0020068    1.601    0.375
        94 -10.1501    104.2619     29.4268   6.4841282967e+01   5.5168416188e+01    0.2972068    0.1581515  37.58  0.001077049    1.884    0.469
        95  -9.9159    109.1493     28.0358   6.2953994104e+01   5.4272061290e+01    0.2605708    0.1893198  45.47  0.001377082    1.280    0.219
        96  -9.5923    216.4799     28.4834   4.4214048003e+01   2.7603556617e+01    0.1350842    0.1232539 -77.64  0.000221021    1.042    0.040
        97 -10.3289    168.0272     27.5857   5.0475530112e+01   3.9904924937e+01     0.316916    0.1742605  64.87  0.001277993    1.701    0.412
        98 -11.3088    213.8517    142.0667   7.3232141384e+01   9.7388685703e+00    0.6039366    0.3141173  61.41  0.002213497    3.103    0.678
        99 -12.3092     76.3057    139.3267   1.0543329238e+02   3.7364956615e+01    0.8251814     0.238693 -63.62  0.002552534    3.761    0.734
       100 -11.7739    240.6925     22.5010   4.0349548330e+01   2.2682146715e+01    0.6380133     0.300395  87.94  0.002068517    2.510    0.602
       101 -10.4421    139.4558     20.9846   5.3371115886e+01   4.7911965432e+01    0.2793899    0.1974649  58.99 0.0006041677    1.296    0.228
       102 -10.9543    209.0968     18.9466   4.2583004845e+01   3.0540468000e+01    0.3438492    0.2566439 -58.27  0.001303962    1.266    0.210
       103 -12.1934     35.1316    135.6109   1.1596504433e+02   4.3252963219e+01    0.4436481    0.2501298  19.14  0.002251548    2.420    0.587
       104 -11.4861     82.7923    134.2673   1.0272925802e+02   3.7619880421e+01      0.30961    0.1838974 -50.03  0.001425281    1.639    0.390
       105 -10.9034    248.2457    129.5731   6.4413543351e+01   5.0692448892e+00    0.2473664    0.1389158  54.27  0.001150486    2.156    0.536
       106 -10.8828    122.1885    127.4194   9.0549043516e+01   3.2289383705e+01     0.411737    0.3029498  48.02  0.001762474    1.386    0.279
       107 -11.3359    203.5908    122.2057   7.0486953574e+01   1.5558625677e+01    0.4213217    0.1528635 -34.67  0.001381141    2.850    0.649
       108  -9.8478    249.6781    249.3381   8.7299972148e+01  -1.1685285512e+01   0.09411355   0.08523124  32.85 0.0007050524    1.715    0.417
       109 -10.6940    194.8212    248.3954   9.6755372557e+01  -3.7232264204e+00    0.1796061   0.08992905  30.57 0.0009541282    1.729    0.422
       110 -10.0725    123.9908    206.0055   1.0459725783e+02   1.4799716111e+01    0.1843778    0.1626444  52.80            0    1.020    0.019
       111  -9.3812    246.4685    183.5096   7.6158253718e+01  -2.9733121159e+00     0.130252    0.1084785  -2.48 0.0008097337    1.013    0.013
       112 -10.5188     33.9895    177.5310   1.2082499989e+02   3.3620523631e+01    0.2416493    0.1905936 -35.33  0.001522991    1.879    0.468
       113 -11.8878    134.5460     92.4843   7.8054303076e+01   3.7408760770e+01    0.5255297    0.3882827  37.68   0.00223479    1.414    0.293
