#   1 NUMBER                 Running object number                                     
#   2 MAG_AUTO               Kron-like elliptical aperture magnitude                    [mag]
#   3 X_IMAGE                Object position along x                                    [pixel]
#   4 Y_IMAGE                Object position along y                                    [pixel]
#   5 X_WORLD                Barycenter position along world x axis                     [deg]
#   6 Y_WORLD                Barycenter position along world y axis                     [deg]
#   7 A_WORLD                Profile RMS along major axis (world units)                 [deg]
#   8 B_WORLD                Profile RMS along minor axis (world units)                 [deg]
#   9 THETA_WORLD            Position angle (CCW/world-x)                               [deg]
#  10 FWHM_WORLD             FWHM assuming a gaussian core                              [deg]
#  11 ELONGATION             A_IMAGE/B_IMAGE                                           
#  12 ELLIPTICITY            1 - B_IMAGE/A_IMAGE                                       
         1 -12.3801    205.1960     96.4863   8.3606920448e+01   1.9655396150e+01     2.064214     1.330638 -58.88   0.00902929    1.877    0.467
         2 -11.9216    193.6505     48.6124   7.2779233153e+01   3.0061513702e+01     1.207359    0.6310737 -88.05  0.004245817    3.151    0.683
         3 -11.2930    211.0811     43.9100   6.9094342078e+01   2.6299911473e+01     1.352522    0.2653751 -28.65  0.003385655    6.267    0.840
         4 -13.0242    211.3146     55.3374   7.2018533105e+01   2.4659050003e+01     1.107948    0.7618694 -31.32  0.002686636    1.504    0.335
         5  -9.5753    150.1295     11.4957   6.8431751844e+01   4.5798428407e+01    0.2101654    0.1992163 -22.14 0.0002810104    1.195    0.163
         6  -8.4341    125.7009      8.7128   7.1783860604e+01   5.2213046197e+01    0.1411571   0.08983513  37.43  0.000606523    1.555    0.357
         7 -10.1066     11.8516      1.3377   1.0904335934e+02   7.3557518412e+01    0.1512918   0.09037175  21.91 0.0002861985    1.689    0.408
         8 -12.7443    208.1037    208.5786   1.0734218589e+02   3.2666038859e-01    0.8389031    0.5325148 -53.37  0.004301847    2.394    0.582
         9  -8.9565     32.3469    250.3276   1.4565569897e+02   2.0846284989e+01    0.0852068   0.08229031 -62.04 0.0007049888    1.753    0.429
        10 -11.9709    202.6464    204.7422   1.0769942211e+02   1.8449465163e+00    0.4423104    0.3704773  -6.12  0.002423508    1.219    0.179
        11 -10.6317    239.3081    202.7643   1.0066852670e+02  -4.0980651633e+00    0.7195319    0.2492667 -24.51  0.002515385    4.527    0.779
        12 -12.5778    205.5939    191.4118   1.0471084582e+02   3.3460310550e+00    0.7473549    0.5619152  84.02  0.003641327    2.561    0.609
        13 -10.8366    228.9959    210.3734   1.0384438297e+02  -3.4323260187e+00    0.5582857    0.3727222  47.23  0.003220556    1.689    0.408
        14 -12.4008    217.1664    204.9753   1.0502277329e+02  -7.1964765693e-01    0.9065436     0.605164  72.85  0.003707478    4.158    0.759
        15 -11.5567    212.5072    195.6803   1.0419621482e+02   1.4446720265e+00     0.507305    0.3077585 -18.43   0.00252923    1.987    0.497
        16 -12.0163    217.8401    214.8002   1.0662296292e+02  -2.1912492359e+00    0.6822028    0.5464315  81.03   0.00383234    2.431    0.589
        17 -11.8520    193.9314    205.5941   1.0952377783e+02   3.2702221139e+00    0.4686753    0.3211063 -14.48  0.002506305    1.805    0.446
        18  -9.7561    123.9862    206.0067   1.2390916679e+02   1.5832361527e+01    0.1876667    0.1580549  53.94  0.001138657    1.014    0.014
        19  -8.3153    138.9724    198.9571   1.1966794303e+02   1.4493558233e+01    0.1572199    0.1385937  49.46 0.0009362456    1.018    0.017
        20  -9.0351    133.0120    198.7732   1.2091768325e+02   1.5607707609e+01    0.1884749    0.1502364  46.99            0    1.089    0.082
        21  -9.9182    246.7928    198.1726   9.8543064888e+01  -4.6927907575e+00    0.4545199    0.1783002  45.52  0.002018858    2.743    0.635
        22  -9.2259    223.0449    188.1989   1.0083772036e+02   6.8024605021e-01     0.176907    0.1495624  25.95  0.001083354    1.091    0.084
        23 -10.7015    193.0779    183.8551   1.0572464797e+02   6.9173158275e+00     0.315164    0.2444944 -46.11  0.001733304    1.485    0.327
        24 -10.2662    197.8292    176.9233   1.0343063666e+02   7.1587671720e+00    0.3270124    0.1907477  47.22  0.001536695    1.676    0.403
        25  -9.3166     12.3222    177.3362   1.4490930416e+02   3.7026749510e+01    0.1078883   0.07765774 -54.21 0.0007050515    1.711    0.416
        26 -10.9958      4.0409    121.3569   1.4209208263e+02   5.0003986642e+01    0.4982587    0.1105275 -64.47  0.002057894    2.984    0.665
        27 -12.3036    189.1350    112.0495   9.0568972082e+01   2.0710030038e+01     1.500716     0.838876 -58.61  0.005591233    2.548    0.608
        28 -12.3940    217.0908     77.3995   7.6819469210e+01   1.9941817489e+01    0.6822076    0.6302389 -78.09  0.003894869    1.070    0.065
        29 -10.4393    230.3909    110.2895   8.2756278795e+01   1.1633789080e+01    0.7595866    0.4420189  26.39  0.003090404    2.639    0.621
        30 -11.5236      8.3407    247.3867   1.4941826053e+02   2.3929549363e+01    0.3666307    0.1731111 -83.15  0.002478737    1.901    0.474
        31  -9.8746    222.1277    112.1769   8.4555557959e+01   1.3124280057e+01    0.4068498    0.2470984  61.35  0.001834967    1.894    0.472
        32 -11.2478    213.5197     86.3813   7.9644401118e+01   1.9358898245e+01    0.8017732    0.6020398 -54.21  0.004033019    1.368    0.269
        33 -13.3616    195.0623     82.9790   8.1888284103e+01   2.4399159521e+01     1.214382    0.8474851  28.06  0.005422223    1.862    0.463
        34  -9.3617    168.4852    102.8901   9.2502027102e+01   2.7368745728e+01    0.3319879    0.1992844  35.34  0.001321968    1.962    0.490
        35 -10.9581    181.5284     89.4923   8.6178791060e+01   2.6634382399e+01    0.4448245    0.2708441 -17.95  0.001733488    2.313    0.568
        36  -8.0924    127.7218     90.4099   9.8860258316e+01   3.9436569517e+01    0.1605173    0.1206786 -76.19 9.522952e-05    1.788    0.441
        37 -10.1311      9.8158     84.8656   1.3549985449e+02   5.7817774843e+01    0.2808466    0.1266673  85.70   0.00107963    4.125    0.758
        38 -11.9360    227.3255     86.4402   7.7523950608e+01   1.6136687682e+01     1.362922    0.4420463  62.41  0.004380852    3.819    0.738
        39 -10.7672    178.7137     75.9871   8.2998715529e+01   2.9671319390e+01    0.2226565    0.2036171 -43.19 0.0007288069    1.112    0.101
        40 -11.3064    238.9448    102.0607   7.9516438261e+01   1.1116062451e+01    0.8609795    0.4610988 -30.16  0.003731289    1.843    0.458
        41  -9.3546    160.6590     81.1036   8.8163356140e+01   3.3333455214e+01    0.2521332     0.206217  67.08 0.0002486228    1.260    0.206
        42 -10.8926    236.2756     93.9308   7.8003609095e+01   1.2965206234e+01    0.9513848    0.2825275 -37.22  0.003288011    2.971    0.663
        43  -9.1541    122.3382     74.6853   9.5576060808e+01   4.3705681845e+01    0.1537987    0.1215476 -85.00 0.0005375078    1.698    0.411
        44 -12.4452    242.6236     69.0569   7.1294706399e+01   1.5321876024e+01    0.6153218    0.5064492  -5.73  0.002911351    1.509    0.337
        45 -11.7720    203.0623     68.9210   7.6805495022e+01   2.4680564325e+01    0.6653234    0.3539114 -48.79  0.002769698    1.960    0.490
        46 -11.8231    231.1177     67.6134   7.2415973142e+01   1.8133960420e+01    0.4141065    0.3051705  50.82  0.001065497    1.475    0.322
        47 -10.7559     47.0415     67.2748   1.1794899296e+02   5.8370680034e+01    0.2457919    0.1941272  74.22   0.00121062    1.820    0.450
        48 -10.5526    155.1883    245.2457   1.2296699250e+02   3.9768834841e+00      0.38005    0.2048993  24.91  0.001851583    2.407    0.584
        49  -9.4811      1.5628     62.7938   1.3451750546e+02   6.3028799989e+01    0.1595297   0.09512467 -77.12 0.0009470056    1.669    0.401
        50  -8.7205     84.8174     62.3858   1.0286045420e+02   5.3698229601e+01    0.1831505    0.1289156  28.14 0.0002591594    1.506    0.336
        51  -9.1578    250.4735     61.0608   6.8529111972e+01   1.4740162528e+01     0.195581    0.1181869 -37.21 0.0003599832    1.495    0.331
        52  -8.7711    115.6867     61.3098   9.3068732182e+01   4.7614341237e+01    0.1457798    0.1186849 -80.67 0.0007028921    1.629    0.386
        53 -11.1189    231.2306     59.3724   7.0404936743e+01   1.9300561789e+01    0.2283853    0.2147292  28.05 0.0004825264    1.262    0.208
        54  -9.7372     48.6198     59.7729   1.1510181854e+02   5.9707737577e+01    0.1768652    0.1148845 -58.34 0.0003665074    1.645    0.392
        55  -9.2575    176.0033     55.9963   7.7775204754e+01   3.3547247970e+01    0.1795428    0.1731766 -63.68 0.0005249733    1.060    0.057
        56  -9.0378    107.3292     56.3200   9.3741281498e+01   5.0305380418e+01     0.151819    0.1104937  12.91 0.0004580577    1.688    0.408
        57 -10.6245    157.2572     54.6245   8.0937315780e+01   3.8593284574e+01    0.5494273    0.1917577  40.89  0.001528289    4.267    0.766
        58  -9.9952     90.1964     53.2252   9.7908177676e+01   5.4341426775e+01    0.2412651    0.1478102   5.77 0.0009509638    2.780    0.640
        59  -8.5136     83.4840     50.5373   9.9153459440e+01   5.6071099106e+01    0.1371001    0.1269341  -1.06 7.137723e-05    1.023    0.022
        60  -9.6052     54.7703     47.4776   1.0855729060e+02   6.1252792833e+01    0.2805023    0.1580653  50.02  0.001317367    2.554    0.608
        61  -9.4383     76.4464     46.0107   9.9901767633e+01   5.8105982775e+01     0.193388    0.1260502 -36.81 0.0003291481    1.492    0.330
        62  -9.8824    171.9079     49.9085   7.6714384858e+01   3.5502105573e+01    0.2155577    0.1890354  43.83            0    1.178    0.151
        63  -9.7968     16.3059    246.3302   1.4809179067e+02   2.3292228969e+01   0.08485263   0.07513342 -74.25  0.000479564    1.658    0.397
        64 -10.3145    151.9901     38.8119   7.6984681123e+01   4.2199079253e+01    0.3524441     0.199473  40.48  0.001496707    1.923    0.480
        65 -10.2049    190.6790     37.5577   7.0155018194e+01   3.2310534369e+01     0.337262    0.2295382 -37.45  0.001676487    1.499    0.333
        66  -8.6600    132.3156     38.6804   8.1079668497e+01   4.7184219626e+01    0.1461734    0.1126326 -72.58 0.0003498115    1.656    0.396
        67  -9.7314      8.5572     35.1550   1.2459728006e+02   6.8177343874e+01    0.1780193    0.1402871 -12.86 0.0002797839    1.256    0.204
        68 -12.3205      6.2514    236.6443   1.4930798098e+02   2.6010297894e+01      0.38498    0.3389137  80.39  0.003365455    1.447    0.309
        69  -8.7783    248.7706     33.3750   6.2457427294e+01   1.8772108895e+01     0.168487    0.1122545  63.95 0.0005531144    1.572    0.364
        70  -9.6378     80.1176     64.7950   1.0524268720e+02   5.4071221496e+01    0.1940282    0.1890416 -68.70  0.000384194    1.183    0.155
        71  -9.2274     61.7768     26.5699   9.7491159920e+01   6.3626302015e+01     0.233522    0.1133838  36.54  0.001123174    2.029    0.507
        72  -8.4583     88.6203     24.4870   8.7270037014e+01   5.8965999848e+01    0.1326876    0.1168199  13.80 -1.734768e-06    1.031    0.030
        73  -9.4015    195.4841     21.9458   6.5242982192e+01   3.2964974348e+01    0.1979454    0.1359022 -31.69 0.0005187902    1.556    0.357
        74  -8.2460    100.6412     20.7432   8.2250892378e+01   5.6859192833e+01    0.1437109   0.08995133  31.24  0.000295651    1.619    0.382
        75  -8.8419     61.9920     20.0306   9.4518600920e+01   6.4498995966e+01     0.150882    0.1257798  14.93 0.0003220314    1.064    0.060
        76  -8.3928     44.5153     16.5909   1.0013436456e+02   6.7647680384e+01    0.1204396    0.0986321  -1.86 0.0001033007    1.021    0.021
        77  -8.6831     36.8494     15.7332   1.0321333682e+02   6.8788634679e+01    0.1992448    0.1062889  -6.52 0.0009330853    2.693    0.629
        78  -9.2145     39.0434    232.5209   1.4345404735e+02   2.3219471732e+01    0.1601326   0.08920055  44.38 0.0004074862    1.543    0.352
        79  -8.5971     68.9932     12.4784   8.8473017126e+01   6.4209303958e+01    0.1765048    0.1132361  43.40 0.0004403564    1.467    0.318
        80  -9.2387     22.8952    218.8560   1.4552556116e+02   2.7588932352e+01    0.1576424    0.1342869  89.41  0.001235384    1.316    0.240
