#   1 NUMBER                 Running object number                                     
#   2 MAG_AUTO               Kron-like elliptical aperture magnitude                    [mag]
#   3 X_IMAGE                Object position along x                                    [pixel]
#   4 Y_IMAGE                Object position along y                                    [pixel]
#   5 X_WORLD                Barycenter position along world x axis                     [deg]
#   6 Y_WORLD                Barycenter position along world y axis                     [deg]
#   7 A_WORLD                Profile RMS along major axis (world units)                 [deg]
#   8 B_WORLD                Profile RMS along minor axis (world units)                 [deg]
#   9 THETA_WORLD            Position angle (CCW/world-x)                               [deg]
#  10 FWHM_WORLD             FWHM assuming a gaussian core                              [deg]
#  11 ELONGATION             A_IMAGE/B_IMAGE                                           
#  12 ELLIPTICITY            1 - B_IMAGE/A_IMAGE                                       
         1 -15.3861    212.1259    122.3319   5.5232282240e+01   1.4877783862e+01     7.205025     4.786555 -77.99   0.02364338    3.119    0.679
         2 -15.0045    208.2823    109.6927   5.2895843872e+01   1.7677727261e+01     8.454791     1.917939  51.06   0.02434609    4.454    0.776
         3 -16.3375    245.5368     82.5915   4.1141596379e+01   1.4120621867e+01     4.908478     3.745414  68.84  0.009255381    1.567    0.362
         4 -15.3889    247.7579     61.0399   3.5866121446e+01   1.6553636652e+01     5.880141     2.504173 -61.82   0.02008315    4.494    0.777
         5 -11.9386      5.8027     15.6637   8.4188708152e+01   7.3090720809e+01    0.9714701    0.5806149 -20.82  0.005865906    1.714    0.417
         6  -8.4835    233.9371      6.2867   2.4054490357e+01   2.5834426163e+01    0.1715128    0.1451628 -77.26 0.0004458009    1.114    0.102
         7 -10.0249    231.6049    170.2153   6.2118895594e+01   4.2555706588e+00    0.3188755    0.2088475   3.29  0.001497036    1.695    0.410
         8  -7.6894    249.6740    250.6742   7.2662346119e+01  -7.3915519968e+00    0.1077002   0.05924691   9.62  0.000602455    1.695    0.410
         9  -8.6805    193.5065    199.0564   7.3916312763e+01   6.3830624475e+00    0.3218214    0.2204799  64.20  0.001673647    2.493    0.599
        10  -9.1056     24.6313    200.0755   1.0833077430e+02   3.0735855349e+01    0.1772219    0.1465472  44.91 0.0003481514    1.315    0.240
        11  -7.3941    132.9636    199.0226   8.5629222990e+01   1.6285406585e+01    0.1507044    0.1231941  42.14 0.0009346976    1.072    0.068
        12  -9.0114    191.4082    191.4721   7.3005377672e+01   7.8300030646e+00    0.3303209    0.1927076 -59.85  0.001452768    3.389    0.705
        13  -8.7129    237.8890    187.5981   6.4351839912e+01   1.0065372920e+00    0.2282262    0.1456277 -43.33  0.001323982    2.000    0.500
        14  -8.3838    232.0977    187.5195   6.5266445249e+01   1.8890185952e+00    0.1799916     0.107501  37.47   0.00103916    1.613    0.380
        15  -9.4795    235.4258    181.6560   6.3660388665e+01   2.1363910929e+00    0.2374973    0.1980353   1.75  0.001057334    1.029    0.028
        16  -8.4637    183.5475    242.5746   8.2177794560e+01   2.1004622203e+00    0.2146332    0.1562561  65.65  0.001337255    2.351    0.575
        17  -9.1288    191.5192    153.4604   6.5755857010e+01   1.3807151463e+01    0.2496528    0.2109996  24.89 0.0006982837    1.143    0.125
        18  -8.2345    134.7070    155.3621   7.7958922838e+01   2.4231245085e+01    0.2391432    0.1697108 -63.21 0.0005632256    1.624    0.384
        19  -9.1220    172.4387    154.9786   6.9787497559e+01   1.7166257530e+01    0.2676802    0.1904939  58.46  0.001351616    1.658    0.397
        20  -9.0529    224.3904    152.7993   5.9830673670e+01   7.9252366471e+00    0.1984044    0.1730612  47.57 0.0006124369    1.354    0.262
        21  -9.7589    210.2231    150.7715   6.1807776568e+01   1.0764354474e+01    0.4503671    0.1885708  34.40  0.001769565    2.874    0.652
        22  -9.3934    204.0288    237.5524   7.8016635046e+01  -1.6741297868e-01    0.1743688    0.1462879  -6.69 0.0004954638    1.245    0.197
        23  -9.7565    133.5825    148.5076   7.6871368057e+01   2.5825136213e+01    0.5461642    0.3018024 -54.97  0.002405145    1.980    0.495
        24  -9.4211    131.7474    140.7457   7.5707883477e+01   2.7766778184e+01    0.4314347    0.2714963 -48.02  0.001500885    1.620    0.383
        25  -9.0828    143.5195    147.7840   7.4465029826e+01   2.4079692956e+01    0.4418949    0.1405466 -47.36  0.001487589    3.262    0.693
        26  -8.1162    170.9569    237.0445   8.3644239770e+01   4.6028652148e+00    0.1715582    0.1339088  27.03 0.0003759214    1.060    0.056
        27 -11.6683      8.5916    140.7822   1.0772638925e+02   4.4936103973e+01    0.7817879    0.5218596  70.06  0.004924458    1.340    0.254
        28 -11.5947     18.0203    142.9826   1.0547856893e+02   4.3651307030e+01    0.8242671    0.3367477 -77.97  0.003915321    2.147    0.534
        29  -8.4874    182.1864    147.1594   6.6218552203e+01   1.6661467121e+01     0.185245    0.1696172 -75.03  0.001058603    1.331    0.248
        30  -9.0627    177.8426    147.1315   6.7067722440e+01   1.7512279728e+01    0.2316903    0.1870671 -41.22 0.0004121171    1.269    0.212
        31 -10.1675     70.2306    146.1156   9.2162956023e+01   3.6967102018e+01    0.3748726    0.2621604  82.72  0.001977883    1.552    0.356
        32  -7.8730    170.6694    145.2831   6.8117331360e+01   1.9249811623e+01    0.1365822    0.1130985  85.05 0.0007006689    1.610    0.379
        33  -7.1988    164.2964    144.6382   6.9297080636e+01   2.0625718740e+01    0.1419179    0.1136438 -83.09 0.0007032576    1.711    0.416
        34  -8.5519    148.2547    144.0117   7.2622754434e+01   2.3904563984e+01    0.3036216    0.1774774  65.41  0.001185486    2.687    0.628
        35  -9.0596    138.7769    143.9353   7.4743150039e+01   2.5762478715e+01    0.2746859    0.2034958 -70.79  0.001113826    1.680    0.405
        36  -9.9933    182.3882    142.6752   6.5213000658e+01   1.7402730682e+01    0.3694786    0.2566369  70.48  0.001712133    2.163    0.538
        37  -9.2516     78.5811    138.8613   8.8771207981e+01   3.7416843828e+01    0.3022316    0.1986427 -89.27  0.001430581    1.845    0.458
        38 -13.0089     59.9354    131.6252   9.2643841684e+01   4.1742484938e+01     1.956423     1.134245  24.29  0.006087584    2.201    0.546
        39  -8.1328    162.0183    138.0096   6.8332711342e+01   2.2322332539e+01    0.2067915    0.2045975  75.63 0.0003186139    1.071    0.066
        40  -9.2134    143.2951    137.7335   7.2388939187e+01   2.6127598835e+01    0.2395268    0.2149234  82.64 0.0005834789    1.239    0.193
        41  -9.4281    136.8760    134.1501   7.3083744774e+01   2.8126473580e+01    0.4900726    0.1546571 -52.43  0.001473989    3.895    0.743
        42 -10.4345    173.4971    130.4884   6.4250117138e+01   2.1374419356e+01     0.398966    0.2804372 -55.45  0.001925925    1.653    0.395
        43  -8.4296    141.5070    133.0773   7.1769976670e+01   2.7422593996e+01    0.2160557     0.143088 -45.58 0.0006774757    1.526    0.345
        44 -11.5838     24.2552    141.9987   1.0375321427e+02   4.3313193363e+01    0.8283391     0.441182 -80.13  0.004407402    1.660    0.398
        45  -9.6353    194.1004    168.0033   6.8194022548e+01   1.0975041746e+01    0.4159075     0.184844  43.77   0.00183398    2.187    0.543
        46  -8.7827    121.7067    124.9980   7.4700478052e+01   3.3031235749e+01    0.2010263    0.1841633 -55.62 0.0003212591    1.086    0.079
        47 -11.3058     47.7753    134.1970   9.6426237416e+01   4.2655869353e+01     0.451374     0.419601 -30.55  0.001182212    1.333    0.250
        48  -9.7195    157.2046    120.7951   6.5379980750e+01   2.6610321947e+01    0.2947323    0.2549888 -73.36  0.001004947    1.331    0.249
        49  -8.6353     95.9624    121.0468   8.0568120009e+01   3.8676103207e+01    0.2245979    0.1790032 -17.25 0.0008197868    1.672    0.402
        50  -7.5875    172.9853    232.4762   8.2675359068e+01   4.9109172848e+00    0.1670918   0.09372018  38.30 -1.650968e-05    1.457    0.314
        51  -8.1370     64.9964    117.0008   8.8580996730e+01   4.4508035470e+01    0.2038356    0.1590891 -32.00  0.001090984    1.563    0.360
        52  -9.2116     83.9024     99.6464   7.9035045156e+01   4.5625108718e+01    0.2457449    0.1937926 -61.37 0.0002615699    1.232    0.188
        53 -10.7592    112.6793     96.5114   6.9931906062e+01   4.0937079740e+01    0.5548949    0.4665977 -11.53  0.002832122    1.431    0.301
        54  -9.4851    229.0508    166.8203   6.1875465036e+01   5.1378371022e+00    0.2358079    0.1993814 -40.56 0.0003466122    1.409    0.290
        55  -8.7810    130.5174     93.0207   6.4327796000e+01   3.7888330871e+01    0.2360604    0.1466792 -41.92 0.0006997628    1.582    0.368
        56 -10.1634    101.0066    175.9971   8.9166923930e+01   2.5810866331e+01    0.1859465    0.1672648  61.74            0    1.004    0.004
        57  -7.5369     55.2137     88.3588   8.5487791518e+01   5.2577407095e+01    0.1755809    0.1237242  46.57 0.0003112471    1.570    0.363
        58  -7.7896    137.5382     80.5102   5.8986324379e+01   3.8734924344e+01    0.1495798    0.1464766 -46.36 9.479111e-05    1.003    0.003
        59  -9.3432    133.0371     79.2070   5.9666868135e+01   4.0009786663e+01    0.3861931    0.2110887 -29.49 0.0007619058    2.122    0.529
        60  -9.4654    157.5774     74.7386   5.2864700056e+01   3.5057261091e+01    0.2791078    0.2468682 -53.77 0.0006301663    1.138    0.122
        61  -8.2084    127.1884     75.1969   5.9869913083e+01   4.2092677129e+01    0.2139638    0.1789624 -69.97 0.0009818688    1.361    0.265
        62  -9.6930    198.0288    164.3142   6.6746508859e+01   1.0855737330e+01    0.3982529    0.2008105  38.10  0.001685526    1.945    0.486
        63 -10.0100    183.4225     66.1671   4.5624640131e+01   3.0225535675e+01     0.281756    0.2585379  54.32 0.0008546045    1.136    0.120
        64  -8.6218    106.0750     65.7962   6.2442881177e+01   4.8512884478e+01     0.213899    0.1962177 -67.73 0.0006640854    1.177    0.150
        65  -8.7266    204.8393    161.1767   6.4889322445e+01   1.0126023934e+01    0.3352867    0.1782622  50.44 0.0008609865    2.128    0.530
        66  -9.4590    136.1297     62.7039   5.3746338073e+01   4.2248669422e+01    0.2660976    0.1982295 -45.28 0.0008996364    1.347    0.257
        67  -7.3504    216.6024    158.7220   6.2341885384e+01   8.4152649408e+00    0.1376967   0.09166528  12.33 0.0006991061    1.755    0.430
        68 -10.1532    146.6866     59.4107   5.0381196611e+01   4.0248367301e+01     0.534093    0.2572728 -19.06  0.001775409    3.279    0.695
        69  -9.8539    188.5801    147.9146   6.5147215749e+01   1.5295325756e+01    0.4021363    0.2936498  86.82  0.001859588    2.463    0.594
        70  -9.6762    129.3399     57.5904   5.3625911679e+01   4.4721860536e+01    0.3923456    0.2366271  71.08  0.001424474    2.181    0.541
        71  -8.4939    156.4939     54.9083   4.6999990124e+01   3.8544480038e+01    0.2256653    0.1437725 -32.85 0.0009903437    1.554    0.356
        72  -9.8251    191.9931    157.5031   6.6497822484e+01   1.3052106443e+01    0.3693336    0.2327154  62.18  0.001451812    2.343    0.573
        73  -8.2521    158.4823     61.0960   4.8553460400e+01   3.7091990084e+01    0.2240732    0.1445142 -33.27 0.0005379466    1.532    0.347
        74  -9.1020    141.2137     52.2308   4.9178947016e+01   4.2722470275e+01    0.2078825    0.1713469 -62.03 0.0006670292    1.321    0.243
        75  -9.3393    121.7585     50.7319   5.3075157396e+01   4.7633940599e+01     0.369402    0.1767705 -28.33  0.001420269    2.308    0.567
        76  -9.6381    176.8380    171.3165   7.2121057201e+01   1.3530803907e+01    0.3045393    0.1950385 -40.72  0.000944515    1.644    0.392
        77 -10.1310    231.4990    174.5217   6.2958544508e+01   3.6904090323e+00    0.3464805    0.2673671 -57.53  0.002038571    2.065    0.516
        78  -9.5648    144.5255     42.8008   4.5338935125e+01   4.3303858891e+01    0.3548348    0.1780254 -49.10  0.001395661    2.271    0.560
        79  -9.7317    188.0232    155.7473   6.6889242720e+01   1.4083229891e+01    0.4027021    0.2688566  56.66  0.001850384    1.811    0.448
        80  -8.3004    194.3099    174.4092   6.9381935026e+01   9.9322762556e+00      0.22272    0.1598154  47.82 0.0007093571    1.484    0.326
        81  -7.6484    151.3144     27.3170   3.8874374679e+01   4.3615179331e+01    0.1477513    0.1046893  31.75 0.0005728084    1.647    0.393
        82 -10.5387    124.0005    205.9965   8.8420479412e+01   1.6486207668e+01    0.1764376    0.1512229  46.79            0    1.005    0.005
        83  -7.8007    238.5161    200.5257   6.6529587017e+01  -6.6799132365e-01    0.1169001   0.09240078   6.07 6.005793e-05    1.004    0.004
