#   1 NUMBER                 Running object number                                     
#   2 MAG_AUTO               Kron-like elliptical aperture magnitude                    [mag]
#   3 X_IMAGE                Object position along x                                    [pixel]
#   4 Y_IMAGE                Object position along y                                    [pixel]
#   5 X_WORLD                Barycenter position along world x axis                     [deg]
#   6 Y_WORLD                Barycenter position along world y axis                     [deg]
#   7 A_WORLD                Profile RMS along major axis (world units)                 [deg]
#   8 B_WORLD                Profile RMS along minor axis (world units)                 [deg]
#   9 THETA_WORLD            Position angle (CCW/world-x)                               [deg]
#  10 FWHM_WORLD             FWHM assuming a gaussian core                              [deg]
#  11 ELONGATION             A_IMAGE/B_IMAGE                                           
#  12 ELLIPTICITY            1 - B_IMAGE/A_IMAGE                                       
         1 -13.1364     37.1706     50.0095   9.4488848371e+01   6.4638910028e+01     1.034303    0.9009719 -86.75  0.005178085    1.316    0.240
         2 -11.0273     26.6473     49.5070   9.9847618756e+01   6.5904899531e+01      0.87142    0.4912297 -89.27  0.003623557    2.903    0.656
         3 -11.8087     81.5466     34.8898   6.8441803196e+01   5.9983884671e+01    0.8261589     0.383064 -43.46  0.002682856    2.250    0.556
         4 -10.7516     26.4341     14.0856   8.5050579890e+01   7.3455351634e+01    0.2242337    0.1686989 -14.23 0.0002669851    1.322    0.243
         5 -10.7570     22.5366     25.7023   9.3573171139e+01   7.1615878115e+01    0.4246429    0.2961708 -41.92  0.001804778    1.265    0.209
         6 -11.6976     13.4681      3.3302   8.8277925452e+01   7.6930923199e+01     0.596433    0.3610052  47.39  0.002742123    2.446    0.591
         7 -11.2229     27.3896      3.3489   7.7535285486e+01   7.5162870994e+01    0.3589973    0.2256131  48.74 0.0007685916    2.038    0.509
         8 -11.3750     32.2687      1.7928   7.3150817625e+01   7.4646679985e+01    0.2579999    0.1855102  32.46 0.0005479627    1.357    0.263
         9 -11.9432     20.3560     17.7892   9.1299506371e+01   7.3459339370e+01    0.5494164    0.4489681  57.95  0.002864433    1.689    0.408
        10 -12.0613     23.9029      8.5563   8.3495653729e+01   7.4774930711e+01    0.3948836    0.2324645 -33.52 0.0004042157    1.593    0.372
        11 -11.3219     20.8213      3.7979   8.2659821086e+01   7.5990490433e+01    0.3895592    0.2477473 -42.78  0.001711583    1.502    0.334
        12 -10.9947    104.2939     19.3329   5.4461485081e+01   5.6812586157e+01    0.6296008    0.3841795   1.13  0.002427296    2.319    0.569
        13  -9.8559    107.2791     18.3741   5.3311478765e+01   5.6166006988e+01    0.4297023    0.2414525  -6.63  0.001417625    2.465    0.594
        14  99.0000     43.4203      8.5103   7.1108921151e+01   7.1770202644e+01    0.6485142    0.2811945 -47.25  0.002608046    3.070    0.674
        15 -11.0128     42.3627     19.3736   7.8197649745e+01   7.0192272831e+01    0.5295641    0.3610716  24.97  0.002052769    1.546    0.353
        16 -11.5824     39.9349     12.3405   7.5477430959e+01   7.1773704714e+01    0.5307964    0.3890078 -57.91  0.002884198    1.875    0.467
        17 -11.6854     35.0753     15.1032   8.0035277836e+01   7.2072225379e+01    0.7029685      0.30782  23.00  0.001523088    3.748    0.733
        18 -11.3277     31.1570     12.8329   8.1165235279e+01   7.3040881425e+01    0.5467022    0.2034851 -38.08  0.001925435    2.654    0.623
        19 -11.4729      9.9837     15.4600   9.7879278855e+01   7.4894151149e+01    0.2569065    0.1847359 -27.90 0.0004588644    1.278    0.218
        20 -11.8939      4.2518     17.8348   1.0336742717e+02   7.4789006280e+01    0.4115968    0.3495458  58.55  0.001826675    1.509    0.338
        21 -10.5184      5.2014     13.5973   1.0084290843e+02   7.5627578456e+01     0.209977    0.1829408 -42.18 0.0005595098    1.074    0.069
        22 -10.7335     64.1308     14.1977   6.4720100913e+01   6.6925043046e+01    0.4125868    0.2687562  15.31  0.001958461    1.946    0.486
        23 -10.9819     67.0006      7.8842   5.9962362354e+01   6.7125940278e+01    0.2352387    0.1902618  10.07 0.0003228551    1.258    0.205
        24 -11.0595     68.1870      3.7946   5.7119779473e+01   6.7331495279e+01    0.3604529    0.2224987  57.10  0.001437388    1.564    0.361
        25 -11.0648     79.2030     10.5910   5.7241152128e+01   6.4022438856e+01    0.4718262    0.2077236  48.10  0.001256775    2.089    0.521
        26 -12.0832     73.1031      4.9580   5.6112792562e+01   6.6081913611e+01    0.8155465    0.3892602 -28.44  0.001143113    2.121    0.529
        27  -9.9261     77.6363     15.1927   6.0202445238e+01   6.3815790026e+01    0.2939238    0.1958251 -39.33 0.0007751555    1.594    0.373
        28 -10.9295     74.0676     15.7643   6.1756165912e+01   6.4550190954e+01    0.4708705    0.2907076  62.94  0.001737884    1.807    0.446
        29 -11.1848    156.8446     13.1783   4.2673253779e+01   4.3589121214e+01    0.4893273    0.3612981  34.32   0.00249655    1.601    0.375
        30  -9.2903     50.0013     11.9916   6.9840100667e+01   7.0054686509e+01    0.2648872    0.1643799  -6.13  0.000794017    2.175    0.540
        31 -10.1041    118.8211     12.6217   4.8362047595e+01   5.3800436070e+01    0.2890252    0.2168855 -49.87 0.0007621266    1.415    0.293
        32 -10.4452    117.4254      9.2763   4.7209510885e+01   5.4513817574e+01    0.2439675    0.1877039 -65.69 0.0006948702    1.422    0.297
        33 -10.4807     99.5846     12.7471   5.2599331715e+01   5.8784004046e+01    0.3839402    0.2169684  42.99   0.00171303    1.777    0.437
        34 -11.1373    233.5150     10.5126   3.5210186890e+01   2.5234376506e+01    0.2295454    0.1752072 -17.93  0.001203791    1.440    0.305
        35 -12.0880    241.0622     10.1852   3.4691220379e+01   2.3682435742e+01    0.4012652    0.1890582 -55.14   0.00173172    1.876    0.467
        36 -10.9692    236.6802      9.6808   3.4824485719e+01   2.4646297544e+01    0.1763992     0.170146 -55.43 0.0003251392    1.215    0.177
        37 -10.3161    176.0798     11.2005   3.9873292469e+01   3.8758797706e+01    0.2095619    0.1824867  53.42   0.00080245    1.255    0.203
        38 -10.5734    131.7226     10.4768   4.5234553485e+01   5.0581388750e+01    0.3679205    0.2949558  82.31  0.001434389    1.202    0.168
        39  -9.9266    127.0000      3.5272   4.3205067482e+01   5.2502720955e+01    0.3391204    0.1493882 -26.83 0.0009255295    2.289    0.563
        40 -10.3018    126.9997      7.9839   4.5004651987e+01   5.2090776095e+01    0.2491537    0.2090032  52.78 0.0003283047    1.163    0.140
        41 -10.0386    130.4686      6.4944   4.3863319852e+01   5.1302864064e+01    0.2369523    0.2131696  11.24 0.0006428231    1.245    0.197
        42 -10.4561    249.0000      9.9627   3.4203996791e+01   2.2092119878e+01    0.1983587   0.05793766 -26.38 0.0008055096    2.964    0.663
        43  -9.7826     55.0641     11.3374   6.7008244261e+01   6.9175679144e+01    0.4360538    0.1759357 -28.05  0.001271975    2.720    0.632
        44  -9.5475     59.1976      9.8469   6.4267884520e+01   6.8544784966e+01    0.1837035    0.1468025  15.54  0.001038468    1.253    0.202
        45 -10.7496      8.3480      9.0512   9.6015063099e+01   7.6323047073e+01    0.4731656    0.1643688  38.31  0.001944979    3.753    0.734
        46 -11.1665    146.9285      6.1121   4.1442124715e+01   4.6923255239e+01    0.4936864    0.3324106  68.25   0.00248935    1.377    0.274
        47 -10.3896    191.5968      6.8103   3.7166778325e+01   3.5274814831e+01    0.2545919    0.1307288 -18.59   0.00115232    2.160    0.537
        48  -9.7384    161.1471      6.8122   4.0024174745e+01   4.3077044599e+01    0.2156581    0.1696631 -66.64 0.0005966922    1.216    0.178
        49 -11.2318    216.3665      7.6028   3.5571317743e+01   2.9306529511e+01    0.3149005    0.2158546 -28.35  0.001807833    1.407    0.289
        50 -10.5300     91.3873      6.7229   5.1724422045e+01   6.1492629324e+01     0.446514    0.2012414  42.52  0.001674698    2.266    0.559
        51 -12.2299    179.0161      4.1985   3.7451948830e+01   3.8680819272e+01    0.2769119    0.2296152 -49.66 0.0003604624    1.129    0.114
        52 -10.1611    173.3703      4.1154   3.7931288949e+01   4.0136794992e+01    0.4122095    0.1848713 -74.08  0.001591582    2.699    0.630
        53 -10.6694    164.9162      5.4387   3.9173612034e+01   4.2214298676e+01     0.236724    0.1726921 -44.93  0.000525658    1.317    0.241
        54 -10.2704     81.4944      5.9717   5.4053076363e+01   6.3994694903e+01    0.2005472    0.1362663 -19.65 0.0004440915    1.549    0.354
        55 -11.1285    243.5220      4.0881   3.3152266444e+01   2.3769616957e+01     0.229615    0.1748491  31.77  0.001439025    1.871    0.466
        56 -11.5208    237.6110      3.2573   3.3261409541e+01   2.5073372107e+01    0.3695524    0.2975258 -18.87   0.00213896    1.383    0.277
        57 -10.3268    223.6106      4.2698   3.4278305741e+01   2.7998627026e+01    0.2105808    0.1553939 -18.45  0.001052626    1.485    0.326
        58  -9.7334    121.3204      5.1871   4.4793388345e+01   5.3870772466e+01    0.3200301    0.1485607 -81.91  0.001073125    3.446    0.710
        59  -9.7258    203.4447      3.0403   3.5236976488e+01   3.2755946668e+01    0.1672145    0.1073647  17.13 0.0004741208    2.370    0.578
        60  -9.0948    113.2111      2.9872   4.5254735118e+01   5.6221927774e+01    0.1717357    0.1149919 -20.29            0    1.612    0.380
        61 -11.1054     88.8362      1.6894   4.9789675883e+01   6.2618961692e+01    0.2766433    0.1723941  59.29 0.0006209823    1.454    0.312
        62 -10.7329     97.4214      4.3126   4.9067715182e+01   6.0207183186e+01    0.3147767    0.2135302  26.66 0.0008793119    1.640    0.390
        63  -9.5599     82.2845      1.3073   5.1297009309e+01   6.4269717362e+01    0.1426039   0.09417779  31.64 0.0002913347    1.566    0.361
        64  -9.1412     74.5346    171.4581   1.0510548351e+02   3.0440992880e+01    0.1324812    0.1167044  55.16 8.697339e-05    1.029    0.028
        65 -10.6958    249.2966    247.8130   8.1063174808e+01  -5.4200067331e+00     0.360278    0.1616635  -4.21  0.002039697    2.833    0.647
        66 -12.3048    233.4170    247.0211   8.3356264914e+01  -3.6163940741e+00    0.4659124    0.2690769 -23.60  0.003434449    1.767    0.434
        67  -9.6111    141.6679    250.3258   9.9489365294e+01   7.3799781642e+00    0.1096308   0.07072419  51.05 0.0007051099    1.710    0.415
        68 -10.3785     88.0833    249.9253   1.0959390987e+02   1.4272399562e+01    0.2441961    0.1234437  32.16 0.0007473261    1.590    0.371
        69 -10.0205     72.6315    249.9575   1.1255492965e+02   1.6124605556e+01    0.1736621    0.1520646  -4.44  0.001356013    1.640    0.390
        70 -12.0824     29.0128    248.3555   1.2072307740e+02   2.1143948362e+01    0.6951255     0.225613  57.31  0.003745222    2.468    0.595
        71 -12.4158     19.8414    237.9846   1.2207511906e+02   2.3764727295e+01    0.6023696    0.2320007  40.07  0.003600089    1.758    0.431
        72 -11.4619      4.3850    236.5291   1.2495208671e+02   2.5432497176e+01    0.3361864       0.2641 -51.65  0.002640399    1.980    0.495
        73 -13.2704      6.1879    244.9733   1.2482067984e+02   2.3856382456e+01     0.921217     0.543417  34.84  0.004749197    1.451    0.311
        74 -12.1862     21.9649    248.7887   1.2204176194e+02   2.1766453226e+01     0.425072    0.1954503  42.18  0.001725727    1.469    0.319
        75 -11.0343     17.4743    247.4822   1.2282535488e+02   2.2408178080e+01    0.1798794    0.1379162  72.62 9.101124e-06    1.269    0.212
        76 -10.8595     36.9539    157.9363   1.1362939452e+02   3.8137297358e+01    0.3083531    0.1942608  80.88 0.0003842467    1.531    0.347
        77 -11.8365     50.7657    162.4018   1.1032150096e+02   3.5547621832e+01    0.6203189    0.4312846  74.51  0.002768797    1.389    0.280
        78 -11.4242     36.5813    166.7873   1.1448294998e+02   3.6155372587e+01    0.3883503     0.233259  58.58  0.002060954    1.477    0.323
        79 -11.1288     35.8145    163.1725   1.1438708767e+02   3.7055476304e+01     0.381972    0.2625055   7.37   0.00157173    2.034    0.508
        80 -11.1406     44.2780    162.7234   1.1209079908e+02   3.6231317236e+01    0.3753695    0.2956504  82.87  0.001610648    1.172    0.147
        81  -9.5957     99.1827    164.8410   9.7910010764e+01   2.8180004789e+01     0.173986    0.1586713   6.67 0.0003401253    1.272    0.214
        82 -11.0047     40.5924    163.7415   1.1316658941e+02   3.6411326749e+01    0.7742332    0.1838518 -71.59  0.002709223    3.979    0.749
        83  -8.9330    200.3155    162.6505   7.5267048406e+01   1.1078191305e+01    0.1178191    0.1052851 -78.81 0.0007047239    1.728    0.421
        84  -9.8672      9.0611    162.3973   1.2135341329e+02   3.9710697982e+01    0.2955307    0.0508161  34.20  0.001148425    3.486    0.713
        85 -12.1424     21.8784    157.2043   1.1766336136e+02   3.9795583265e+01    0.5059941    0.4683988   4.77  0.003468581    1.396    0.284
        86 -10.2082    177.7635    151.1494   7.7283335361e+01   1.6862475692e+01    0.2603433    0.2226946  49.85  0.001204032    1.298    0.230
        87 -10.1542     11.3453    153.5110   1.2027612832e+02   4.1550724196e+01    0.3002051    0.1500246  19.83   0.00152794    2.309    0.567
        88 -10.7065     18.3823    146.9515   1.1790665829e+02   4.2498149254e+01    0.2741622    0.2143613   7.90  0.001034275    1.646    0.393
        89 -10.0797    207.1596    146.1983   7.0769429236e+01   1.2355646985e+01     0.199397    0.1621894   6.50 0.0007105074    1.161    0.139
        90  -9.6935    220.2892    143.9845   6.8107396643e+01   1.0416848793e+01    0.1811234    0.1458643 -18.86 0.0005609666    1.111    0.100
        91 -10.5131     22.8084    144.1657   1.1642932830e+02   4.2769915090e+01    0.1982267    0.1453686  64.35 0.0004371222    1.194    0.163
        92 -10.0028     41.1535    146.1896   1.1130686871e+02   4.0445505467e+01    0.1792011    0.1668257  71.55 0.0002627756    1.108    0.098
        93  -9.6394      2.3415    144.3304   1.2226070097e+02   4.4353655224e+01    0.1199339    0.0832498 -49.81 0.0007051361    1.746    0.427
        94  -9.7319     49.2642    141.9984   1.0845511990e+02   4.0516891097e+01    0.1842715    0.1622878  88.11            0    1.068    0.064
        95  -9.6557    239.6872    140.6875   6.4446181047e+01   7.6831447821e+00     0.126156   0.08381716   3.49 0.0004545265    1.634    0.388
        96 -10.0623      9.4540    136.8947   1.1979807757e+02   4.5604498339e+01    0.1866682    0.1071285 -84.07 0.0004331511    1.531    0.347
        97 -10.3553      2.5615    136.6132   1.2180090170e+02   4.6155443278e+01    0.2574302    0.1039726 -83.34  0.001198919    2.156    0.536
        98 -10.0740     21.0015    135.4954   1.1624573253e+02   4.5016221767e+01    0.2461982    0.1510154  79.89 0.0006817414    1.515    0.340
        99 -10.1595     13.9627    136.0056   1.1839976642e+02   4.5474104252e+01    0.1897482    0.1542213  71.83  0.001207883    1.047    0.045
       100  -9.4150    122.7179    135.3315   8.6535011117e+01   3.0380702378e+01     0.146394    0.1148032  80.81 0.0002959048    1.610    0.379
       101 -10.0962    249.6912    134.0662   6.1694366848e+01   6.9650225451e+00    0.1728369     0.132932 -18.02 0.0005968572    1.071    0.066
       102  -9.1727    104.5595    134.4901   9.1205448347e+01   3.3932672428e+01     0.145768    0.1375151  61.76 0.0001153782    1.015    0.015
       103 -10.5028     55.7075    133.3046   1.0535703363e+02   4.1827329901e+01    0.3120632    0.1976932  64.49  0.001216116    1.672    0.402
       104 -10.4237     79.6707    133.0498   9.8064202680e+01   3.8464811677e+01    0.1957736    0.1796781 -78.06 0.0004391134    1.089    0.081
       105 -11.4854     73.4425    129.2524   9.9270425271e+01   4.0333245984e+01    0.4935929    0.2715547  52.99  0.002144576    1.920    0.479
       106 -11.5798     37.0081    129.9105   1.1073521467e+02   4.4852255822e+01    0.4313714    0.3397809 -39.68  0.001976599    1.541    0.351
       107  -9.7081      9.6765    129.1330   1.1920452524e+02   4.7460201648e+01    0.1724483    0.1398102  89.60  0.000366725    1.072    0.067
       108 -11.5308     21.7716    121.1203   1.1466772464e+02   4.8485750379e+01    0.3232248      0.24755 -37.48  0.001874257    1.592    0.372
       109 -10.3557     26.3716    120.1147   1.1304334868e+02   4.8332420033e+01    0.2665179    0.1842602  71.83 0.0005385916    1.384    0.277
       110 -11.4788     13.5541    126.1125   1.1776674985e+02   4.7911273714e+01    0.4788716    0.2230761  22.57 0.0005216056    2.338    0.572
       111 -11.1769     10.7969    122.6121   1.1836522680e+02   4.8973716586e+01    0.2851821    0.1910806  56.17  0.001005622    1.388    0.279
       112  -9.4544     56.6377    126.6788   1.0407695202e+02   4.3334058089e+01    0.1424811    0.1059077 -29.95 0.0007041684    1.777    0.437
       113 -11.1628      2.2821    122.9531   1.2109634299e+02   4.9456146958e+01    0.4711944    0.1707252 -71.94  0.002070815    2.324    0.570
       114  -9.6738    220.3522    124.2524   6.3911390436e+01   1.3237705137e+01    0.1827954    0.1090569 -37.86 0.0006642816    1.586    0.369
       115  -9.5290     32.3042    121.6499   1.1126168495e+02   4.7386044223e+01    0.1577954    0.1281104  13.70 0.0002514091    1.478    0.323
       116  -9.7051     66.9622    120.4586   9.9731904775e+01   4.3439540973e+01    0.2836205     0.114029  42.64  0.001014175    2.388    0.581
       117 -10.3596     72.0328    118.0458   9.7651400436e+01   4.3272987250e+01    0.3564015    0.1840687 -67.60  0.001309234    2.074    0.518
       118  -9.2242     12.2814    115.6931   1.1730163480e+02   5.0578135912e+01    0.1335973   0.08178644  64.10 0.0001705071    1.559    0.359
       119 -12.3093     14.6490    109.2757   1.1588395422e+02   5.2009380453e+01    0.5633119    0.3849125 -29.24  0.003082783    1.877    0.467
       120 -11.2105     17.6129    114.8103   1.1541901289e+02   5.0399258762e+01    0.3608289    0.2429893 -57.87 0.0008776778    1.476    0.322
       121 -10.4736     85.9374    116.6104   9.2968245310e+01   4.1362977789e+01    0.2421456     0.196966 -49.53 0.0005077141    1.275    0.216
       122  -9.3412    220.2781    116.6785   6.2244340479e+01   1.4351285300e+01    0.1267973   0.09818804 -54.71 0.0002908298    1.582    0.368
       123  -9.2889    179.4841    116.5047   6.9274342416e+01   2.2465178746e+01    0.1422228    0.1352841  -6.19 0.0002802049    1.004    0.004
       124  -9.8010      6.6752    115.2112   1.1913592215e+02   5.1077800363e+01    0.2241775    0.1378321 -87.87 0.0005777059    1.409    0.290
       125  -9.9873    213.9696    115.5459   6.2972281343e+01   1.5706135922e+01    0.1868849    0.1296696  44.50 0.0005928493    1.532    0.347
       126 -10.1413     35.4566    114.5371   1.0928440247e+02   4.8853671287e+01    0.1359174    0.1209534  86.90 9.004742e-05    1.003    0.003
       127 -10.8700    249.2087    112.2684   5.7229094469e+01   9.8465649757e+00    0.2275143    0.1707106 -29.03 0.0006098835    1.133    0.117
       128  -9.8032     94.8269    112.7651   8.9386364911e+01   4.0696834487e+01    0.2130389    0.1751597  79.97  0.001065496    1.357    0.263
       129 -12.4557     55.0260    110.2624   1.0184909431e+02   4.7634110835e+01    0.3284806    0.2526044 -55.43 0.0009890245    1.294    0.227
       130  -9.7144     43.0473    111.3019   1.0618154853e+02   4.8846446053e+01    0.1866847    0.1762724  69.10 0.0005766375    1.077    0.071
       131 -11.2938     36.3748    109.3590   1.0822588034e+02   5.0066314542e+01     0.485422    0.2658008  66.97  0.001992606    2.154    0.536
       132 -10.8677     35.6376    103.1519   1.0754244967e+02   5.1715733686e+01    0.5463318    0.3066044   0.04  0.002289368    2.896    0.655
       133 -11.3266     24.1298    108.7723   1.1248498583e+02   5.1381243984e+01    0.4114026    0.2337825 -49.06  0.001401834    1.871    0.465
       134  -9.5270     82.5559    108.7340   9.2310738928e+01   4.3828566205e+01    0.2045702     0.142541 -71.25 0.0009442159    1.569    0.363
       135  -9.6949     70.6534    108.3186   9.6139172577e+01   4.5872080480e+01    0.2783967    0.2132793 -80.53 0.0008246213    1.379    0.275
       136 -11.6037      2.8921    106.3267   1.1974114670e+02   5.3506436411e+01    0.3799735    0.3392721  89.16  0.001666703    1.074    0.069
       137 -10.4409    243.9306    104.6742   5.6261670147e+01   1.1743709815e+01    0.1696236    0.1539019  -9.47 0.0006933521    1.099    0.090
       138 -10.2755    247.0066    101.9973   5.5289672513e+01   1.1559281584e+01    0.1767364    0.1371626   0.78 0.0006122896    1.363    0.266
       139 -10.4915     50.9997    104.7935   1.0225524129e+02   4.9529766621e+01     0.258296    0.1705491 -83.44   0.00109933    1.618    0.382
       140  -9.0998    223.2834    103.6984   5.8843321986e+01   1.5659841113e+01    0.1277668   0.09683749 -55.25 0.0003250135    1.553    0.356
       141  -9.7838    119.4952    102.4317   7.9650343299e+01   3.8131150557e+01    0.3257758    0.1513203 -45.86  0.001215265    2.182    0.542
       142 -10.5510     57.4833     96.5649   9.8244850228e+01   5.0728909393e+01    0.2604615    0.2301707  82.63 0.0001476888    1.133    0.118
       143 -11.2776     62.0802     98.6927   9.7040032617e+01   4.9542979741e+01    0.4149085    0.3751182 -26.12 0.0009076688    1.256    0.204
       144 -10.7012     66.5268     98.1172   9.5322071801e+01   4.9019450935e+01      0.25799    0.2064922 -64.35 0.0006368441    1.209    0.173
       145 -11.7569      3.1313     99.8418   1.1913032485e+02   5.5105869514e+01    0.3086604    0.2192305  85.03 0.0003043119    1.232    0.188
       146 -11.3975      1.4780     96.0230   1.1941834316e+02   5.6145156903e+01    0.3459199    0.1321166 -75.63 0.0003012207    2.151    0.535
       147 -11.3560    144.4388     98.0291   7.2083000582e+01   3.3542786996e+01    0.5348712    0.4163885  48.40   0.00233476    1.279    0.218
       148 -10.6487     91.5943    100.2176   8.7365035036e+01   4.4231753069e+01    0.2205106    0.1379523 -42.50 0.0009509339    1.711    0.416
       149 -11.4437    161.8995     98.3563   6.8265900699e+01   2.9523196627e+01    0.4087498    0.2560749 -37.23  0.001832279    1.583    0.368
       150 -11.7622    157.0728     82.4689   6.4889023115e+01   3.3513799461e+01    0.9771004    0.5537544  23.02  0.003247014    3.490    0.713
       151 -11.8634    162.1633     92.7346   6.6697553391e+01   3.0481935823e+01    0.5606505    0.3468024 -13.04  0.002181659    2.504    0.601
       152 -12.4677    158.9992     89.7159   6.6531491948e+01   3.1759157976e+01    0.6412396    0.4740014 -13.59  0.002599061    1.668    0.401
       153 -11.7320    165.5968     83.2230   6.3362743731e+01   3.1360359342e+01    0.8355234    0.5459593  83.60   0.00342184    2.333    0.571
       154 -11.0548     40.3637     97.5162   1.0482986018e+02   5.2637837653e+01     0.423361    0.2488099  50.55  0.002004196    1.812    0.448
       155 -11.0599     20.7875     93.7567   1.1176149710e+02   5.5460568381e+01    0.6468528   0.07181093 -67.32  0.001822534    4.860    0.794
       156 -11.1136     22.2592     86.9291   1.1015854673e+02   5.7071979733e+01     0.439275    0.2480554 -29.02  0.002027749    2.345    0.574
       157 -11.0526     15.3425     98.2730   1.1443169407e+02   5.4729250452e+01     0.308031    0.1932266  74.58 0.0008343395    1.601    0.376
       158  -9.6787    249.8599     95.8118   5.3590898960e+01   1.1865146984e+01    0.1666503    0.1291011 -44.82 0.0004381085    1.297    0.229
       159 -11.2883     28.0139     95.9823   1.0928781121e+02   5.4278441180e+01    0.1952803    0.1742692 -79.83            0    1.012    0.012
       160  -9.7647     47.1546     92.6696   1.0130214660e+02   5.3064368727e+01    0.2187672    0.1589895  51.43 0.0006948235    1.443    0.307
       161 -10.1261     31.4140     92.6968   1.0743428499e+02   5.4792504915e+01     0.251963    0.1461974 -68.34 0.0006352346    1.545    0.353
       162 -10.9254     14.1723    103.3773   1.1543990705e+02   5.3525752311e+01    0.3132158    0.2062693   5.18  0.001051488    1.928    0.481
       163 -10.1342     35.8176     91.2546   1.0544547575e+02   5.4714646930e+01    0.2357285    0.1751384  88.83 0.0006497987    1.370    0.270
       164 -10.4924     25.6429     91.2690   1.0947957224e+02   5.5686483529e+01    0.2597301    0.2104799 -87.44 0.0006860389    1.146    0.127
       165 -11.2613    164.8569     87.2665   6.4641074234e+01   3.0829619352e+01    0.6519741    0.3966851  81.16  0.002414147    2.893    0.654
       166 -10.4064    108.8210     91.4012   7.9677086691e+01   4.2789680212e+01    0.2163922    0.1454284  34.00 0.0005800964    1.640    0.390
       167 -11.4822     10.9133     90.7731   1.1525569950e+02   5.6921481331e+01    0.3484697    0.2428262  26.50  0.002004521    1.593    0.372
       168 -10.7362     97.5278     88.6156   8.2345150013e+01   4.5741811110e+01    0.3903708    0.2559299 -31.02  0.001660626    1.895    0.472
       169  -9.6690     83.0474     88.9253   8.7216575291e+01   4.8456850347e+01    0.2257712    0.1816061 -16.94 0.0005435189    1.570    0.363
       170  -9.6006     58.7048     89.6033   9.6205109762e+01   5.2283305149e+01    0.2726018    0.1451606  26.60  0.001137839    2.165    0.538
       171  -9.9558    138.9899     87.6445   7.0477964334e+01   3.6816384466e+01    0.2131342    0.1920512  53.78  0.001099133    1.108    0.098
       172 -10.4572     78.3196     87.8001   8.8553678686e+01   4.9570509645e+01    0.3050618    0.2006382 -59.04  0.001391885    1.534    0.348
       173 -10.3878     46.5894     87.8021   1.0048844167e+02   5.4355662912e+01    0.2693945    0.2141258  78.69  0.001442568    1.357    0.263
       174 -10.5212     44.5884     83.4510   1.0032521261e+02   5.5688615871e+01    0.4968275    0.1913027  43.25  0.001874884    2.793    0.642
       175  -8.8343    120.6868     87.2871   7.5101589682e+01   4.1078539522e+01    0.1544038    0.1225735 -89.95 0.0003372456    1.582    0.368
       176 -10.1353     64.9212     87.2947   9.3293106490e+01   5.1917909737e+01    0.2502865    0.2183569  41.46  0.000931877    1.182    0.154
       177  -9.6973     67.5735     84.2390   9.1499527852e+01   5.2236663403e+01    0.2850551    0.1886713 -31.57  0.001266047    1.897    0.473
       178  -9.8040    115.7179     86.3631   7.6217070691e+01   4.2377608192e+01    0.2246018    0.1612224 -61.54  0.001000143    1.589    0.371
       179  -9.9936    117.1857     83.6269   7.4985958255e+01   4.2622107163e+01     0.333271    0.1873357  33.34  0.001266803    2.230    0.552
       180 -11.6237      6.2651     83.7784   1.1631513831e+02   5.8955379440e+01    0.6278446    0.4915118 -27.04   0.00304832    1.484    0.326
       181 -11.6541     10.6111     63.2115   1.1138305204e+02   6.3837227946e+01    0.9153182    0.3127949 -39.58   0.00344381    3.395    0.705
       182 -12.3825      4.1222     64.9066   1.1480689735e+02   6.3767877445e+01    0.9533837    0.3886853 -69.70  0.004387443    1.979    0.495
       183 -11.5774      5.1486     58.9147   1.1335928046e+02   6.5192125532e+01     0.359331    0.2616071  44.15 0.0003263649    1.549    0.354
       184 -11.5436      8.3050     73.9636   1.1417775229e+02   6.1299704141e+01    0.6151115    0.3092542 -26.71  0.002835702    2.564    0.610
       185 -13.3182     16.3563     67.6948   1.0944186814e+02   6.2351348256e+01    0.5707499    0.2818933 -56.93  0.000502165    1.718    0.418
       186 -11.6400     21.8448     66.6257   1.0662727383e+02   6.2197494301e+01    0.4472646    0.2635842  51.12  0.001322417    1.981    0.495
       187 -11.8807     12.4428     77.9060   1.1292211478e+02   6.0063025024e+01    0.6270659     0.302696   4.26  0.002828625    2.752    0.637
       188 -11.5121     13.9494     74.3032   1.1170094471e+02   6.0868119393e+01    0.3214262    0.2669205  15.69 0.0003008025    1.386    0.278
       189  -9.3083     83.0022     85.4281   8.6258014422e+01   4.9280821101e+01    0.2130089    0.1466572  40.36 0.0004030688    1.475    0.322
       190  -9.5318    173.4877     83.4902   6.1917153305e+01   2.9461590332e+01    0.1463654    0.1422206 -31.93 0.0001236948    1.011    0.011
       191  -9.5432    133.0502     83.2903   7.0664740950e+01   3.9049994078e+01    0.2118849    0.1946027  55.21 0.0005041329    1.085    0.078
       192 -10.1078     87.0206     81.2432   8.3656349209e+01   4.9482304197e+01    0.4142611    0.2248368 -63.95  0.001554598    2.429    0.588
       193 -11.1159     30.7561     81.7887   1.0571921444e+02   5.7614738135e+01    0.3497076    0.2451472 -28.23  0.001525267    1.704    0.413
       194  -9.0081    196.2795     82.3048   5.7673607316e+01   2.4442370811e+01    0.1385908    0.1086815  10.29 0.0002792303    1.552    0.356
       195 -10.1994    145.7548     81.6753   6.7139365724e+01   3.6355364857e+01    0.2892773    0.2416928 -42.02  0.001390259    1.191    0.160
       196 -10.7331     21.4590     81.4924   1.0960694605e+02   5.8510580719e+01    0.3574491    0.2211798 -32.35  0.001311362    1.921    0.479
       197 -11.2103     18.8366     79.1256   1.1033693029e+02   5.9310712684e+01     0.535604    0.2472337 -43.02 0.0004011573    2.333    0.571
       198  -9.8544     71.0895     79.3900   8.8831452040e+01   5.2808220395e+01     0.200463    0.1806561  45.66 0.0004314243    1.138    0.122
       199 -10.5307     53.9889     73.9174   9.4047239281e+01   5.6790357067e+01    0.2555646    0.2345589  70.52 0.0005985735    1.156    0.135
       200 -10.3264     58.0156     74.2266   9.2474364931e+01   5.6127242247e+01    0.2776183    0.2548317  56.49 0.0006016791    1.145    0.127
       201 -12.0552     62.0829     71.7659   9.0101644512e+01   5.6082727484e+01     0.717178    0.2647322 -47.15 0.0004179054    2.649    0.622
       202 -12.6403     44.7242     75.2978   9.8322137934e+01   5.7691314692e+01    0.3100874    0.2669004  66.54 0.0004753837    1.257    0.204
       203 -10.1008     39.9901     72.2779   9.9618202073e+01   5.9003156786e+01    0.2738515    0.2009816  39.47  0.001154576    1.452    0.311
       204 -11.4426     37.6072     67.6315   9.9502842532e+01   6.0413639952e+01    0.4949378    0.2901766  39.39  0.001326945    1.823    0.451
       205  -9.4477    122.0052     76.0107   7.1306574600e+01   4.3062030590e+01    0.1949942    0.1766459  52.85 0.0009982976    1.097    0.088
       206 -10.8302     90.7296     75.1310   8.0511584367e+01   5.0112255055e+01    0.2675186    0.2491469 -61.66 0.0006353012    1.079    0.073
       207 -10.4238     74.6124     75.7246   8.6428466212e+01   5.3049563046e+01    0.2599742    0.2203607 -30.06 0.0007623337    1.275    0.216
       208 -10.6269    144.8239     74.1636   6.5089494755e+01   3.7952796827e+01    0.3455239    0.2477293  48.16  0.001607756    1.404    0.288
       209 -11.1765    101.5548     73.7630   7.6544491495e+01   4.8135654952e+01    0.5682294    0.1910071  38.86  0.001650661    3.726    0.732
       210  -9.7041    137.4877     73.9726   6.6732116366e+01   3.9767682212e+01    0.2303188    0.1522749 -36.41 0.0004231487    1.533    0.348
       211  -9.8720     95.4751     72.4506   7.8067540948e+01   4.9712132053e+01    0.1494014    0.1489059  -4.92 0.0001558773    1.022    0.021
       212 -11.2234     77.6203     69.9489   8.3491927552e+01   5.3812286113e+01    0.5606409    0.3249034  56.89  0.002285988    2.178    0.541
       213 -11.7828    167.7572     69.9557   5.9130436894e+01   3.3069789938e+01    0.2615504    0.2421544  57.56  0.000327098    1.104    0.094
       214 -10.5440     46.3907     57.6195   9.2501742161e+01   6.1701401007e+01    0.5787652    0.2757531  50.43  0.001957773    2.857    0.650
       215 -11.8958     50.2131     68.5551   9.4133014648e+01   5.8606145704e+01    0.3620277    0.2784143   8.47 0.0003134146    1.559    0.359
       216 -11.4761     51.7559     62.8670   9.1738848270e+01   5.9730834684e+01    0.4196861    0.3294106 -69.46 0.0005550194    1.347    0.258
       217  -9.2466    189.2978     68.6987   5.5118668872e+01   2.8107978317e+01    0.1469166     0.105437 -62.63 0.0002229678    1.580    0.367
       218  -9.1981    110.4651     68.5476   7.2119845117e+01   4.7211895415e+01    0.1525593    0.1489367  17.80 -2.941903e-07    1.060    0.056
       219 -11.0475     31.6569     68.0529   1.0234621494e+02   6.0948184739e+01    0.2287736    0.1951401  -7.65 0.0003163425    1.326    0.246
       220  -9.7725     99.4945     65.5103   7.4433339152e+01   5.0290386598e+01    0.2080715    0.1466556 -53.04 5.043059e-05    1.496    0.332
       221 -10.6406     95.7194     64.9447   7.5457207682e+01   5.1229575619e+01     0.382906    0.2911969  26.15  0.001058346    1.531    0.347
       222 -10.0173     98.1670     60.1764   7.2974521911e+01   5.1650733807e+01    0.2769552    0.2064598 -25.46 0.0003171373    1.523    0.343
       223 -10.8166     77.5139     64.2166   8.1612463255e+01   5.5095248236e+01    0.3534472    0.3360851  66.54   0.00196781    1.103    0.094
       224 -10.1344    151.9568     64.0000   6.0396037360e+01   3.7954580777e+01    0.2598664   0.08607481  57.41 0.0003902121    3.030    0.670
       225 -10.9719     84.4060     61.7525   7.8214677298e+01   5.4264148214e+01    0.4335633    0.2741362 -26.57  0.001819548    2.039    0.510
       226  -9.3950    202.5292     62.4250   5.1498988125e+01   2.5956877190e+01    0.1378736    0.1281565 -44.15 2.885303e-05    1.014    0.013
       227  -9.7146    167.1060     60.9118   5.6553704803e+01   3.4669085347e+01    0.2243334    0.1880361 -63.75 0.0003024593    1.238    0.192
       228 -10.3760    155.6844     60.3759   5.8512419820e+01   3.7612831219e+01    0.2565808    0.1708263 -45.28 0.0005809766    1.495    0.331
       229 -10.1924    121.5396     61.3735   6.6597488855e+01   4.5958113860e+01    0.3581792    0.1372725  49.33 0.0009737308    2.550    0.608
       230 -11.0217     41.6841     37.5639   8.7413517124e+01   6.6782175872e+01     1.587295    0.7141575  48.93  0.006133033    3.177    0.685
       231 -11.1940     29.5953     60.5257   1.0143747954e+02   6.2990695901e+01    0.6893027    0.3734733  25.35  0.003307975    2.010    0.502
       232 -11.3828     23.8529     41.9433   9.9003981459e+01   6.7923734283e+01    0.8181306    0.4664962  73.28  0.003067397    3.572    0.720
       233 -12.2002    226.4359    245.5195   8.4242816848e+01  -2.6807317730e+00    0.5321045    0.2598914   2.31    0.0030069    2.610    0.617
       234 -12.3832     74.8738    239.1705   1.1137231252e+02   1.7560816199e+01    0.5761911    0.4194782 -75.49  0.004154049    1.687    0.407
       235 -12.5925     28.0273     38.8308   9.5507880632e+01   6.8203745716e+01    0.5441712    0.3252098 -58.37  0.001981499    1.568    0.362
       236 -12.2548     24.5318     35.0314   9.6147589871e+01   6.9408125690e+01    0.2968951     0.214711 -13.82 0.0003275136    1.522    0.343
       237  -9.8654    215.0413     60.3590   4.9360482917e+01   2.3440332717e+01    0.1766607    0.1657845 -65.03   0.00109141    1.090    0.083
       238 -10.9872     63.4955     59.5307   8.5556959298e+01   5.8649445867e+01     0.276435    0.2293411   6.48  0.001248722    1.392    0.282
       239 -11.4630     59.3906     59.1552   8.7172045889e+01   5.9412397199e+01    0.6453934    0.4445143  84.20  0.002798017    2.391    0.582
       240 -11.1414     75.2504     56.1561   7.9589683773e+01   5.7246857525e+01    0.2543955    0.2283109 -55.00 0.0003342771    1.138    0.121
       241 -10.2037     98.8585     55.8364   7.1164157250e+01   5.2336755480e+01    0.3052978    0.2007641  36.90 0.0006766657    1.652    0.395
       242 -10.1886    133.5096     54.5499   6.1288713149e+01   4.4176116508e+01    0.2404032    0.2272085  57.04 0.0006856403    1.051    0.048
       243 -12.1119    130.2425     49.4788   6.0264735625e+01   4.5836519918e+01    0.5886714    0.4192277 -38.38 0.0008155044    1.409    0.290
       244 -10.1345    119.9677     52.9457   6.4030075917e+01   4.7838672990e+01    0.2272111    0.2143294  26.25  0.001208929    1.112    0.100
       245 -10.7730    104.1502     51.4622   6.7886814270e+01   5.1925767634e+01    0.5355952    0.3010847 -49.90  0.002184793    1.975    0.494
       246 -10.9436     87.3047     51.7773   7.3468954681e+01   5.5668023952e+01    0.3900799     0.287502  47.69  0.001195476    1.361    0.265
       247  -9.8351     61.8744     53.0436   8.3903323273e+01   6.0341985587e+01    0.2123462    0.1943906  88.62 0.0007208633    1.254    0.203
       248 -10.6333     11.1980     44.7512   1.0714256945e+02   6.8271214773e+01    0.5049695    0.2376159 -63.47  0.001725829    1.773    0.436
       249 -12.2568      7.8787     51.5963   1.1056585133e+02   6.6830882952e+01     0.517314    0.3605957  40.93  0.001111681    1.640    0.390
       250 -10.6210     12.3176     50.7079   1.0795343350e+02   6.6779142801e+01    0.3045812    0.2023315  81.80  0.001236678    1.779    0.438
       251 -10.1442     73.3586     51.3296   7.8490634160e+01   5.8606990141e+01    0.3093603    0.2345123  -2.58  0.000865592    1.723    0.419
       252  -9.8471     17.1766     51.8641   1.0559543424e+02   6.6161741552e+01    0.1863533    0.1645775  79.58 0.0004982337    1.245    0.197
       253 -11.0040     78.5674     47.8198   7.5078402345e+01   5.8267601904e+01    0.4256938    0.2291497 -35.77  0.001572455    1.957    0.489
       254 -12.3795    147.0626     56.9059   5.9127381575e+01   4.0352286744e+01    0.3048192    0.2877066 -50.11 0.0003760816    1.051    0.048
       255  -9.4719    166.8339     48.8086   5.2882299034e+01   3.6550232208e+01    0.1986493    0.1643564 -69.80 0.0004418822    1.252    0.201
       256 -10.1367    113.7130     48.7116   6.4121642520e+01   5.0105709192e+01    0.4407428    0.2216153 -49.43  0.001667127    2.285    0.562
       257  -9.9570    110.3193     46.3417   6.4146600726e+01   5.1338607604e+01     0.305076    0.1388009  49.70  0.001145976    2.129    0.530
       258 -10.2007    155.9896     47.5325   5.4338900016e+01   3.9512624131e+01    0.3274204    0.1999964  -6.44  0.001283732    2.486    0.598
       259 -10.8945    143.2216     45.8604   5.6199359750e+01   4.3062807018e+01    0.3467087    0.2782519 -61.50 0.0006320985    1.318    0.241
       260 -10.9319     91.8550     43.4364   6.8573715064e+01   5.6204599127e+01    0.5016432    0.2444014 -44.92  0.001978352    2.150    0.535
       261  -9.8444     57.9483     46.4651   8.3094397676e+01   6.2401816174e+01    0.2115341    0.1384937  39.42    0.0010239    1.581    0.368
       262 -10.7026     51.0666     44.9429   8.5698670994e+01   6.3836800995e+01    0.2636489    0.1934301 -46.58  0.000329382    1.292    0.226
       263 -11.6558     51.8758     40.3142   8.3403233989e+01   6.4673207840e+01    0.6469722    0.3402142  37.85  0.001759002    1.971    0.493
       264  -9.6609    174.2922     43.9901   5.0229890110e+01   3.5333120549e+01    0.2045461    0.1895644 -47.51  0.001103466    1.048    0.046
       265 -11.0693    123.9535     42.5276   5.9195820489e+01   4.8540625382e+01    0.4954193    0.3321429 -45.55  0.002267659    1.541    0.351
       266  -9.6334     73.8723     44.3411   7.5461745417e+01   5.9888607842e+01     0.205158    0.1308611  34.95 0.0004095998    1.673    0.402
       267 -10.3631     83.1689     40.6387   7.0386184885e+01   5.8632238928e+01    0.3979899    0.2632163  21.22  0.001728974    2.047    0.512
       268 -10.1090    109.5680    243.0373   1.0486256530e+02   1.2583349486e+01    0.2428359    0.1286903  51.21 0.0009942128    1.812    0.448
       269 -11.1203     65.6014     41.1882   7.7520347953e+01   6.2100494611e+01    0.3524194    0.2774906 -16.92  0.001261272    1.408    0.290
       270 -11.5685     68.9949     38.0341   7.4707905778e+01   6.2045512919e+01    0.7127753    0.4349195  24.40  0.003075965    2.161    0.537
       271 -11.4047     73.6351     37.4694   7.2582028314e+01   6.1215866298e+01    0.3932841    0.2719101 -15.35  0.001831534    1.816    0.449
       272 -10.7656     77.1869     34.8481   7.0029162284e+01   6.0934518008e+01    0.3538061    0.2545525 -19.72  0.001463579    1.566    0.362
       273 -11.0601      6.9993     41.2805   1.0874914956e+02   6.9339058166e+01    0.2793842    0.1413759 -59.03  0.000697055    1.601    0.375
       274  -9.5794    163.2566     42.0110   5.1315190924e+01   3.8423758781e+01    0.2025276    0.1814169 -40.20   0.00039119    1.106    0.096
       275 -11.7117     99.8194     38.1955   6.3892667842e+01   5.5228801425e+01    0.7171783    0.4293791  20.19  0.001893575    2.794    0.642
       276 -10.1973    137.9487     41.0445   5.5576013105e+01   4.5146709692e+01    0.2267474    0.2137515  78.60 0.0005550906    1.032    0.031
       277  -9.8944    188.0549     39.4689   4.6999005732e+01   3.2492177355e+01    0.1975801    0.1372661  71.35 0.0003035926    1.475    0.322
       278 -10.0751    222.9612     37.8439   4.2767095425e+01   2.4544828063e+01    0.2480144    0.1590426  74.85  0.001331744    1.702    0.413
       279  -9.2171    154.3730     36.7897   5.1060005632e+01   4.1443721861e+01    0.2053514      0.14314 -12.62 0.0009412284    1.725    0.420
       280 -10.2654      2.2488     36.8711   1.1059832577e+02   7.0609260854e+01    0.2390064    0.1528337 -21.43   0.00136831    1.672    0.402
       281 -12.1448     57.5481     34.3966   7.8074433902e+01   6.4875060175e+01    0.3846002    0.3258004 -63.26  0.002143329    1.405    0.288
       282 -10.3772     88.9068    241.3672   1.0876482806e+02   1.5480035221e+01    0.1914169    0.1417587 -36.82  0.001306886    1.993    0.498
       283 -10.1580    195.4570    238.7291   8.8436491980e+01   1.7932715983e+00    0.2252237    0.1381167  18.47  0.001509328    1.350    0.259
       284 -11.4120      8.4803     33.3190   1.0565963509e+02   7.1099307393e+01    0.6169693    0.4268119  48.19   0.00357169    1.786    0.440
       285 -11.1924     17.9591     31.1625   9.8786575798e+01   7.0879899573e+01    0.3841435    0.2544142  15.45  0.001889951    1.652    0.395
       286 -10.2929     16.2796     18.9312   9.4781954183e+01   7.3636646496e+01    0.3190767    0.1556017 -56.58 0.0002984978    1.913    0.477
       287 -10.3824    243.8561    237.7701   8.0474043186e+01  -3.9205221926e+00    0.1506765    0.1293615 -32.91  0.001117813    2.059    0.514
       288  -9.7753    135.3269    238.0124   9.9360160827e+01   9.8853584972e+00    0.1640737   0.08022247 -27.73  0.000705158    4.377    0.772
       289 -10.4977     29.5351    232.9942   1.2000656485e+02   2.3668509292e+01    0.2300987    0.1280781  50.70  0.001537621    1.295    0.228
       290 -10.2972    159.9816    236.0115   9.4450468499e+01   6.8106257078e+00    0.1779734    0.1168324  10.08 0.0005206445    1.653    0.395
       291 -11.9098     36.9006    243.4189   1.1903367716e+02   2.1147357606e+01    0.5353507    0.2650217  76.26  0.003336397    2.110    0.526
       292 -10.0589    177.2250    234.9631   9.1153938632e+01   4.6204241133e+00    0.1744701    0.1104456  -2.63 0.0009053199    1.897    0.473
       293  -9.9876     94.9754     34.7053   6.3877446309e+01   5.6942716339e+01    0.2727637    0.2205502 -26.86 0.0007634787    1.279    0.218
       294 -11.6536    100.8708     28.9109   5.9614509145e+01   5.6391621909e+01    0.5292503    0.4069515  23.81 0.0007742697    1.478    0.323
       295 -10.4814    201.8186     34.0854   4.3880243847e+01   2.9826847400e+01    0.2125374    0.1910099 -86.50 0.0004002411    1.115    0.103
       296 -10.4499    247.1269     33.1426   3.9621211699e+01   2.0034207433e+01    0.1691738    0.1543753 -29.44 0.0003383658    1.178    0.151
       297  -9.8754    225.3671     32.5503   4.1218386373e+01   2.4635505468e+01    0.2739761   0.05700984 -39.52 0.0009463353    3.292    0.696
       298 -10.5683    192.9655     33.0242   4.4554180339e+01   3.2088672499e+01    0.2115818    0.1893716 -60.25 0.0003722688    1.020    0.020
       299 -11.0627    185.7093     33.0919   4.5422984919e+01   3.3871609758e+01    0.5270847    0.1137968  60.34  0.001645032    3.882    0.742
       300 -10.0703    121.8072     33.1872   5.6110100016e+01   5.0474824865e+01    0.5085701    0.1073026  60.35  0.001346756    4.404    0.773
       301 -10.5267    165.5847     31.8926   4.7704774176e+01   3.9151589565e+01    0.2957196    0.2078735  86.24  0.001436636    1.498    0.333
       302 -11.3518     48.0827     31.7444   8.1459442044e+01   6.6989214792e+01    0.3236186    0.2428902  32.15            0    1.368    0.269
       303  -9.9618     50.4638     27.5420   7.8203562949e+01   6.7385508137e+01    0.2455869    0.2024471  48.23  0.001396939    1.361    0.265
       304  -9.6315     88.9623     31.4933   6.4364964772e+01   5.8859531050e+01    0.2188901    0.1392792  51.26 0.0007684946    1.525    0.344
       305  -9.0999     73.6370     31.7062   6.9935906848e+01   6.2221823717e+01    0.1497197    0.1081912  15.41 0.0007029899    1.707    0.414
       306 -10.6153    236.0683     29.8118   3.9671997071e+01   2.2658230943e+01    0.2721014    0.1533191  65.47  0.001104632    1.957    0.489
       307  -9.1618    139.2264     30.6610   5.1577954630e+01   4.6246943694e+01    0.1497965    0.1046023 -55.67 0.0003483552    1.534    0.348
       308 -10.7304    111.9157     26.5099   5.5714217568e+01   5.3942531240e+01    0.5006623    0.2076905 -28.56  0.001704002    2.510    0.602
       309 -10.7123     69.7913     26.6369   6.9005800958e+01   6.3865463024e+01    0.3027647    0.2729847 -34.14  0.001201112    1.135    0.119
       310  -9.4833     60.6476     27.8320   7.3494231634e+01   6.5491944299e+01    0.2060844    0.1234289 -47.84   0.00095285    1.823    0.451
       311 -11.6641    195.4328     26.3257   4.2380917240e+01   3.2274802250e+01    0.5143708    0.2805022  83.59  0.002086248    2.010    0.502
       312 -11.4182    129.4640     19.1023   4.9001960281e+01   5.0259179293e+01    0.2947533    0.2637915 -25.72 0.0005478471    1.185    0.156
       313 -10.9139    131.8737     26.0439   5.1237220374e+01   4.8785086238e+01    0.3968801     0.224278  53.58 0.0007319761    1.690    0.408
       314  -9.8964    128.4547     23.5161   5.0919267766e+01   5.0004097771e+01    0.2682413    0.2148245 -27.88  0.000824968    1.307    0.235
       315  -9.8361    218.5396     25.9594   4.0128656788e+01   2.6894002500e+01    0.1876976    0.1628587 -84.10 0.0003353959    1.162    0.139
       316 -10.1452    214.1549     26.0702   4.0534323185e+01   2.7877017321e+01    0.1941961    0.1815966  21.29  0.001231108    1.297    0.229
       317 -10.3442    118.8561     25.8282   5.3829814958e+01   5.2237075112e+01    0.2407689    0.2027245 -21.33 0.0002945393    1.265    0.210
       318 -10.3429    120.1209     21.3745   5.1737699798e+01   5.2464243585e+01    0.3408408    0.2161257  32.85  0.001505565    1.876    0.467
       319  -9.6869      1.4901     25.8713   1.0817652491e+02   7.3165448899e+01     0.176683    0.1028036 -63.50 0.0003189353    1.453    0.312
       320  -9.3640     88.9623     25.4812   6.1595762663e+01   5.9764270311e+01    0.2144165    0.1393038  56.84 0.0003971946    1.518    0.341
       321 -10.7529      9.5202     24.8785   1.0213804530e+02   7.2921313439e+01    0.4627694    0.1764537  14.31  0.001721072    3.045    0.672
       322  -9.5245    108.4696     24.5727   5.5730644769e+01   5.5080847695e+01    0.1461864    0.1375033  49.96 0.0002065647    1.025    0.024
       323 -10.8883     95.7231     23.5913   5.8684074912e+01   5.8401883599e+01    0.5603594    0.3115647  70.50  0.002307457    2.185    0.542
       324 -10.6592     90.2486     20.6747   5.8919969563e+01   6.0125096473e+01    0.3212615    0.2389523  36.52 0.0009020466    1.359    0.264
       325 -10.5157     54.8272     23.7222   7.4093114387e+01   6.7287576827e+01    0.2564225    0.1661416  45.62 0.0008239089    1.599    0.375
       326  -9.8220    186.0675     22.1909   4.2163477473e+01   3.5057325360e+01    0.2943445    0.1373588 -51.60   0.00122596    2.147    0.534
       327  -9.3855    167.2489    233.9783   9.2848122494e+01   6.0880858889e+00    0.1232893   0.09632766 -33.06 0.0008221319    1.564    0.361
       328 -10.6371    153.8287    233.8381   9.5340024398e+01   7.9384617612e+00    0.1734899    0.1318728  14.39 0.0007714152    1.245    0.197
       329  -9.6012     36.4794     22.9740   8.3517152684e+01   7.0433066552e+01    0.1874289    0.1218908 -45.72 0.0003688895    1.473    0.321
       330  -9.9619    155.7991     21.8412   4.5768358094e+01   4.2926846328e+01    0.2048067    0.1561527 -64.59 0.0002334937    1.329    0.248
       331 -10.8846     67.6738     21.7491   6.7371474429e+01   6.5077911657e+01    0.3860142    0.1630051  53.55  0.001507978    2.517    0.603
       332 -10.3075     59.4953     21.4779   7.0729450866e+01   6.6774767725e+01    0.1374968     0.126566   4.54 3.538138e-05    1.011    0.011
       333  -9.9520    237.8599     19.4734   3.7072656433e+01   2.3400537613e+01     0.239878    0.0654905 -29.47 0.0008604308    2.878    0.653
       334  -9.3367    114.4757     20.5297   5.2598596138e+01   5.4043619647e+01    0.1455562    0.1377973  58.12 0.0002791625    1.013    0.013
       335 -10.1085     24.1176    232.4683   1.2104801602e+02   2.4299410933e+01    0.1640961    0.1589534  74.62 0.0007074095    1.439    0.305
       336  -9.6819     38.3514    232.8650   1.1825766130e+02   2.2780104469e+01    0.1437774    0.1127584  62.57 0.0007453726    1.134    0.118
       337  -9.4666    169.6902    229.2915   9.1790044140e+01   6.3606272264e+00    0.1064847   0.07994948  48.22 0.0002675623    1.584    0.369
       338 -10.6048     86.5970    233.2301   1.0855778644e+02   1.7071424450e+01     0.234264    0.1004124  43.06  0.001031874    1.748    0.428
       339  -9.8122    190.5579    226.6531   8.7643237066e+01   3.8485133470e+00    0.1787504    0.1029815 -28.98 0.0008363404    1.950    0.487
       340  -9.4686    130.6756    227.3258   9.9069032290e+01   1.2080871186e+01     0.118571   0.07856471  54.92  0.000684435    1.691    0.409
       341 -10.9719    120.3890    226.2654   1.0101781306e+02   1.3677136983e+01    0.1743086    0.1531764  83.17  0.000746788    1.432    0.302
       342 -10.0415     65.9861    226.2079   1.1223432398e+02   2.0815108933e+01    0.1766012     0.149667  65.49 0.0005954591    1.175    0.149
       343 -10.2215    170.8029     18.8085   4.2832416180e+01   3.9327112310e+01    0.2013133    0.1486045 -62.35 0.0003945066    1.327    0.246
       344  -9.4910    140.1310     19.6383   4.7366049369e+01   4.7351040516e+01    0.2068821    0.1213187  57.16 0.0003451954    1.612    0.380
       345  -9.9561    160.0812     17.8927   4.3854164817e+01   4.2234520306e+01    0.2245268    0.1727717 -62.44 0.0003076082    1.284    0.221
       346 -10.6806      4.4275    226.1195   1.2468535342e+02   2.7244935188e+01    0.2629201   0.09765784  46.12  0.001505185    1.767    0.434
       347  -9.6299    182.9697     15.4840   4.0487234385e+01   3.6562863293e+01    0.2064073    0.1303292  78.29   0.00051991    1.555    0.357
       348 -11.1110     21.0169    222.3194   1.2126918108e+02   2.6408232795e+01    0.2253398    0.1411752  85.90  0.001241565    1.553    0.356
       349  -9.9220    123.5904    222.1906   9.9908802734e+01   1.3867559602e+01    0.1531568     0.122295 -52.09 0.0008296706    1.575    0.365
       350  -9.2424    126.5362    221.5193   9.9229960200e+01   1.3555862338e+01     0.194216   0.08876411  43.11 1.637956e-05    1.830    0.454
       351 -10.0308    142.2210    220.8846   9.5989938033e+01   1.1410602796e+01    0.2358385    0.1355348  17.08  0.001228827    2.108    0.526
       352  -9.3331     41.6842    220.7020   1.1693945733e+02   2.4586484658e+01    0.0962863   0.08719684  -7.51 0.0006448671    1.609    0.379
       353  -9.5215    174.0390    220.0000   8.9719386536e+01   6.9794361341e+00    0.1978401   0.05481757  36.65 0.0008016205    2.937    0.659
       354 -11.6141      9.6222    217.1376   1.2339588327e+02   2.8419103372e+01    0.3156992    0.1577431  48.23  0.001696459    1.430    0.301
       355 -10.0304     50.8011     15.4264   7.1479637085e+01   6.9383171265e+01    0.2670226    0.1637448  48.17  0.001339295    1.716    0.417
       356  -9.6287     37.7715    217.4229   1.1757807665e+02   2.5610279995e+01    0.1463751   0.09820962  26.01 0.0006551617    1.592    0.372
       357 -11.2893     30.0368    215.9465   1.1912882571e+02   2.6690387440e+01    0.3561485    0.2140508  21.01   0.00215514    1.973    0.493
       358 -11.3302    235.8507    214.7906   7.8291624340e+01  -6.8500368779e-01    0.3528829    0.2213348  20.40  0.001429412    1.288    0.223
       359 -11.6251    241.4275    211.4279   7.6899580438e+01  -1.0168317282e+00     0.345369    0.2208267 -15.39  0.002433026    1.378    0.275
       360  -9.1909    194.6568    215.3054   8.5272316365e+01   4.6905978334e+00    0.1051493   0.08641429  49.05 0.0002618709    1.687    0.407
       361  -9.5472    137.1486    215.6358   9.6347210325e+01   1.2946693284e+01    0.1828626   0.09662869  27.81 0.0009462684    1.761    0.432
       362  -9.6998     66.9777    215.5027   1.1121163537e+02   2.2607325799e+01    0.1802058   0.09678963  35.42 0.0004862862    1.533    0.348
       363 -10.4553     21.6168    212.6348   1.2074812111e+02   2.8148771528e+01    0.2868797    0.1262856  48.01  0.001655442    1.651    0.394
       364 -10.1395    208.9575    212.0336   8.2274345236e+01   3.1249844671e+00    0.1775841     0.132855  11.11 0.0005365215    1.061    0.058
       365  -9.5163     76.3451    212.2877   1.0890760646e+02   2.2015319609e+01    0.1109072   0.09095772   2.94 0.0004416784    1.651    0.394
       366 -12.3074      4.1368    208.0924   1.2424792243e+02   3.0601526276e+01    0.5249441    0.3067502  89.57  0.003497833    1.610    0.379
       367  -9.2961    188.2379    205.3558   8.4918953930e+01   6.9008809398e+00    0.1176368   0.07964796  -0.61 0.0003949421    1.581    0.368
       368 -11.1175     19.6723    202.2319   1.2071084646e+02   3.0347158139e+01    0.3932253     0.170554 -77.54  0.002140801    2.318    0.569
       369 -10.3233    175.4233    202.7991   8.6930102113e+01   9.1597755086e+00    0.2149307    0.1448584  33.90 0.0005436323    1.265    0.210
       370  -9.4301     97.1379     10.3334   5.2054263856e+01   5.9668778458e+01     0.200476    0.1288035  76.66   0.00056252    1.721    0.419
       371  -9.9669     23.6564    216.5675   1.2049058024e+02   2.7211326170e+01    0.1957226   0.09721803  27.07   0.00111677    2.009    0.502
       372 -10.0686     10.9087    208.4817   1.2284165048e+02   2.9936544455e+01    0.1577867    0.1415853  88.73 0.0007211649    1.341    0.255
       373  -9.1385    223.4843    201.5045   7.8160012181e+01   2.4075998086e+00    0.1125914    0.0915693   8.91 0.0002236273    1.121    0.108
       374  -9.2350     34.4541    201.4297   1.1739469285e+02   2.9031691254e+01    0.1154283   0.09474432  56.14 0.0005035008    1.078    0.072
       375  -9.5573    215.4985    194.5398   7.8339713948e+01   4.3640701753e+00    0.1203067   0.09285642   8.29 1.715532e-05    1.046    0.044
       376 -10.8614     15.9853    193.3336   1.2113497265e+02   3.2475748252e+01    0.2214563    0.1893696  21.81 0.0008126806    1.455    0.313
       377  -9.4638    211.5758    188.1915   7.7930921526e+01   5.7445297877e+00     0.165877    0.1006279 -17.66 0.0009435347    1.693    0.409
       378  -9.2003      1.6171    188.1909   1.2418455815e+02   3.4758615452e+01    0.1464055   0.09150566 -77.99  0.000577318    1.613    0.380
       379 -11.0197     16.6010    183.8025   1.2054872207e+02   3.4397413536e+01    0.3164242    0.1964813  78.30   0.00195598    1.413    0.292
       380 -10.2336     15.2941    180.6627   1.2070595923e+02   3.5180853560e+01     0.222738    0.1354345  32.28  0.001058492    1.571    0.364
       381  -9.7410    167.4846    183.5239   8.5383672909e+01   1.3325635192e+01    0.1302337    0.1113639  20.89 7.916414e-05    1.005    0.005
       382  -9.6729     58.7944    182.1863   1.1021046105e+02   3.0208634735e+01    0.1575306        0.152 -12.74 0.0009389314    1.339    0.253
       383  -9.3973      1.5415    180.5060   1.2394809828e+02   3.6363261605e+01    0.1170321   0.08872294  64.40 0.0001775223    1.005    0.005
       384  -9.9913    244.2435    178.4004   7.0929587045e+01   2.3061944104e+00     0.212054    0.1162356 -16.89  0.001226306    1.728    0.421
       385  -9.3873     69.6321    178.1464   1.0711241235e+02   2.9670715899e+01    0.1675078    0.1130866 -55.11 0.0005601912    1.704    0.413
       386 -10.4736     46.5299    177.6884   1.1284851069e+02   3.2642069528e+01    0.2548463    0.2071105  56.43  0.001475187    1.033    0.032
       387  -9.6188    200.5181    176.4735   7.7812593390e+01   9.0357626029e+00    0.1272067    0.1050796   8.59 0.0001999503    1.030    0.029
       388  -9.7134     34.2893    173.5631   1.1559840625e+02   3.4887185743e+01    0.2102389    0.1023883 -77.67  0.001056986    2.022    0.505
       389 -11.0937     17.9874    173.1222   1.1965805395e+02   3.6569296354e+01    0.3788309    0.1813272  58.45  0.002001513    1.781    0.438
