#   1 NUMBER                 Running object number                                     
#   2 MAG_AUTO               Kron-like elliptical aperture magnitude                    [mag]
#   3 X_IMAGE                Object position along x                                    [pixel]
#   4 Y_IMAGE                Object position along y                                    [pixel]
#   5 X_WORLD                Barycenter position along world x axis                     [deg]
#   6 Y_WORLD                Barycenter position along world y axis                     [deg]
#   7 A_WORLD                Profile RMS along major axis (world units)                 [deg]
#   8 B_WORLD                Profile RMS along minor axis (world units)                 [deg]
#   9 THETA_WORLD            Position angle (CCW/world-x)                               [deg]
#  10 FWHM_WORLD             FWHM assuming a gaussian core                              [deg]
#  11 ELONGATION             A_IMAGE/B_IMAGE                                           
#  12 ELLIPTICITY            1 - B_IMAGE/A_IMAGE                                       
         1 -14.2255      8.4732    155.9598   1.4303354762e+02   4.1849294060e+01     2.524642     0.855508 -79.06   0.01402965    2.414    0.586
         2 -14.0178      2.7924    134.2397   1.4290028017e+02   4.6484767540e+01      3.80638     0.365298 -78.13   0.01059335    8.798    0.886
         3 -13.6344    193.9545     24.5282   7.2146765508e+01   3.3282899754e+01     1.742683      1.56932   8.13  0.007085612    1.145    0.127
         4 -13.4484    209.5385      6.5336   6.4641201455e+01   3.1049986178e+01     1.294968    0.9637026  28.67  0.006613421    1.501    0.334
         5 -11.8870      2.7857     20.2167   1.2716772093e+02   7.0418994129e+01    0.4585913    0.1760338 -62.79  0.002424969    1.941    0.485
         6 -12.2901      2.8787      4.8883   1.2182610696e+02   7.3425826408e+01    0.6980786    0.3954887 -58.68  0.004479691    1.417    0.294
         7 -12.6202    140.8190    248.6529   1.2763608886e+02   1.1401697713e+01    0.8853983    0.4155869  64.02  0.004781209    3.313    0.698
         8 -12.2912    174.4559    248.5863   1.2266090663e+02   6.6969963960e+00    0.4354479    0.2480496  47.45  0.002947201    1.313    0.239
         9 -11.5126    153.5565    249.5699   1.2583529040e+02   9.5356406366e+00     0.692185    0.1111391  46.13  0.002695473    4.508    0.778
        10 -12.5663    144.0412    244.1083   1.2673532707e+02   1.1466534379e+01    0.5085526    0.3398651 -60.40  0.004000254    2.084    0.520
        11 -12.9186    132.0751    248.0213   1.2888001043e+02   1.2670978980e+01    0.6743168    0.3933142  62.74  0.004884856    1.726    0.421
        12 -11.7780     53.5736    209.3996   1.3824139841e+02   2.8031627005e+01     1.149095    0.2097251  55.92  0.003848018    6.873    0.855
        13 -11.9203     36.7448    215.6812   1.4131791006e+02   2.8886441925e+01    0.7006361    0.5074748  62.43  0.006123065    1.117    0.105
        14 -12.8197     50.0805    218.3157   1.3935256569e+02   2.7044763302e+01    0.9064952     0.571606  79.96  0.006107389    1.352    0.260
        15 -11.5727    198.9929    246.3439   1.1883941052e+02   3.4219639719e+00    0.3357561     0.134805  35.73  0.001987907    2.038    0.509
        16  -8.1643     63.9921    251.0000   1.3908440221e+02   2.0861567754e+01    0.1472412   0.03781191  41.77 0.0005729425    2.890    0.654
        17 -12.1677    183.9812    237.0807   1.1998935764e+02   6.4764544579e+00    0.4593633    0.3153526 -75.17  0.002971852    3.128    0.680
        18 -10.0594     23.5463    239.6742   1.4435435492e+02   2.6682312210e+01    0.2250837    0.1003506  53.41 0.0006518584    1.473    0.321
        19 -10.7317     95.3958    240.3181   1.3377641456e+02   1.8474484863e+01    0.1921553    0.1462145 -35.10  0.001471511    2.596    0.615
        20 -10.7924     19.6148    247.6646   1.4518782730e+02   2.5956697472e+01    0.3310614    0.1949466  42.58  0.002886644    1.631    0.387
        21 -13.2259    125.8795    232.1039   1.2839710800e+02   1.5453159558e+01     1.067055    0.1929031  42.75  0.004204594    4.235    0.764
        22 -12.5174     92.0296    227.5010   1.3332946101e+02   2.0638408751e+01     1.193336   0.08185007  48.15  0.003637478    7.513    0.867
        23 -13.3209    108.9570    230.9762   1.3094761981e+02   1.7926952448e+01     1.708305    0.1025136  47.49  0.004581016    9.398    0.894
        24  -9.3501      3.0252    227.9594   1.4690173571e+02   3.0274736765e+01    0.1729386   0.09006587  47.51  0.001443143    1.503    0.335
        25  -9.7579     27.8348    242.2771   1.4384347600e+02   2.5896336436e+01    0.1412533   0.08920466  70.20  0.000414761    1.139    0.122
        26  -9.7846     27.6824    221.8457   1.4301971580e+02   2.8870720481e+01    0.1581329    0.1374228  34.64 0.0009890249    1.815    0.449
        27 -10.0132     20.6431    211.7882   1.4366761291e+02   3.1107391880e+01    0.2898981    0.1359805  33.45    0.0017301    2.555    0.609
        28 -12.3435     10.2848    206.2338   1.4506930636e+02   3.2952025084e+01    0.5139925    0.3940709  61.82  0.002860427    1.263    0.208
        29 -13.0644     36.0607    237.1757   1.4244817905e+02   2.5778679108e+01    0.4213417    0.2435777 -62.12 0.0007725568    2.438    0.590
        30 -11.6600     61.9993    202.0654   1.3632602730e+02   2.8220701185e+01    0.1976116    0.1665752  70.92 0.0005089834    1.227    0.185
        31 -13.9418     41.0284    230.3275   1.4139368406e+02   2.6241255472e+01    0.6837503    0.3773938  52.14  0.002965301    1.300    0.231
        32  -9.7820    194.3173    197.6190   1.1322078926e+02   9.1601567741e+00    0.3808921    0.2092465 -63.30  0.001453747    6.333    0.842
        33 -11.9588     68.2794    193.3161   1.3455345154e+02   2.8892931935e+01    0.2085629    0.1715382  74.00 0.0004953045    1.140    0.123
        34 -10.4779     29.5796    187.3996   1.4095486872e+02   3.4236404868e+01    0.4498996    0.1206184  66.34  0.001606985    6.183    0.838
        35 -13.7821      3.5906    111.4508   1.4109572639e+02   5.1040045762e+01     1.723907    0.6839274  81.90   0.00841238    2.533    0.605
        36  -9.9003    248.7930    249.5930   1.1224591961e+02  -3.7165502280e+00    0.1374523   0.07066411  45.23 0.0009607748    1.724    0.420
        37 -10.6447      2.3235    153.4805   1.4409689959e+02   4.2811366098e+01    0.2968346    0.1917396 -82.31  0.001098882    1.300    0.231
        38 -10.1426     98.0940    154.1214   1.2456902361e+02   3.1750171896e+01    0.2644213     0.239541  73.59 0.0008156174    1.108    0.097
        39 -10.7892    101.8425    151.5835   1.2343308306e+02   3.1649207908e+01    0.4324767    0.2612475  80.93  0.001019697    2.195    0.544
        40 -11.8632     86.7427    153.3154   1.2681511659e+02   3.3572377225e+01    0.2323129    0.2194276 -72.44  0.000612012    1.292    0.226
        41  -9.7470    133.7040    144.7078   1.1573903287e+02   2.7578054825e+01    0.6941555    0.1484904 -54.58  0.001663371    8.747    0.886
        42 -12.1886     67.1961    143.5044   1.2973313280e+02   3.8131859520e+01    0.5953357    0.3299125  64.03  0.003306998    1.837    0.456
        43 -10.0724    109.5466    138.3608   1.1974107344e+02   3.2916450538e+01    0.3738186    0.2759059 -18.11  0.001543288    2.406    0.584
        44 -10.7594     78.4974    179.8094   1.3146594324e+02   2.9886424835e+01    0.1938785    0.1641193  71.03   0.00038716    1.118    0.106
        45 -10.4756     96.8775    135.8033   1.2210029184e+02   3.5444955120e+01    0.1997728     0.192254 -62.59 0.0003226501    1.244    0.196
        46  -9.1209     82.5606    133.9375   1.2501821560e+02   3.7956892387e+01    0.2206342      0.14613  62.63 0.0006397231    1.480    0.324
        47  -9.0173    116.1639    130.2244   1.1686947885e+02   3.3357366879e+01    0.2105535    0.1491874  -9.09 0.0009564757    2.894    0.654
        48  -9.0177    106.9196    124.6587   1.1791925000e+02   3.6022955862e+01     0.173013    0.1487011  59.17 0.0003494572    1.116    0.104
        49 -13.1033     65.0950    178.3709   1.3384109125e+02   3.1851398084e+01    0.3732308    0.2370172 -49.57  0.001614891    2.277    0.561
        50  -8.7040    167.9264    112.9804   1.0224502593e+02   2.6401146987e+01    0.2182564    0.1719944 -85.11 0.0008840987    1.691    0.408
        51 -10.7888    237.8945    247.7481   1.1350404179e+02  -2.1210213797e+00    0.1728375    0.1350424 -15.88    0.0013882    1.615    0.381
        52 -10.1044    157.0238     75.6950   9.4765059642e+01   3.5237671339e+01     0.211475    0.1955417  48.15 0.0006135127    1.089    0.082
        53 -11.7751     85.7357    170.2183   1.2906700441e+02   3.0599622780e+01    0.5116098    0.4839211 -52.55  0.003881618    1.455    0.313
        54 -11.0642      2.8667     39.2645   1.3188764782e+02   6.6466417299e+01    0.2474915    0.1612962 -58.51  0.001609293    1.180    0.153
        55 -10.2820     99.1197    248.8651   1.3383679570e+02   1.6909625387e+01    0.1572189   0.09579934  59.22 0.0007471471    1.253    0.202
        56  -9.6402     81.5011    248.9793   1.3643253753e+02   1.9074033932e+01    0.1187518   0.08148959 -89.17 0.0006183562    1.569    0.363
        57  -9.1584      2.0864    249.0950   1.4761057541e+02   2.7375997901e+01    0.1177529    0.0863979  69.59 0.0007474528    1.276    0.216
