#   1 NUMBER                 Running object number                                     
#   2 MAG_AUTO               Kron-like elliptical aperture magnitude                    [mag]
#   3 X_IMAGE                Object position along x                                    [pixel]
#   4 Y_IMAGE                Object position along y                                    [pixel]
#   5 X_WORLD                Barycenter position along world x axis                     [deg]
#   6 Y_WORLD                Barycenter position along world y axis                     [deg]
#   7 A_WORLD                Profile RMS along major axis (world units)                 [deg]
#   8 B_WORLD                Profile RMS along minor axis (world units)                 [deg]
#   9 THETA_WORLD            Position angle (CCW/world-x)                               [deg]
#  10 FWHM_WORLD             FWHM assuming a gaussian core                              [deg]
#  11 ELONGATION             A_IMAGE/B_IMAGE                                           
#  12 ELLIPTICITY            1 - B_IMAGE/A_IMAGE                                       
         1 -11.6635    208.6424     33.5550   4.3806532234e+01   2.9074043774e+01     1.076295    0.6192521 -36.86  0.005318131    1.652    0.395
         2 -10.8626    215.5864     26.4324   4.1245418052e+01   2.8321985390e+01    0.4850187    0.3846793  20.08  0.001089176    1.787    0.440
         3 -11.4864    226.1710     18.3434   3.8276577608e+01   2.6843504072e+01    0.7098065     0.338766 -29.93  0.003145142    2.142    0.533
         4 -11.6346    221.9928     17.4895   3.8453007028e+01   2.7892495444e+01    0.6706265    0.4319631 -36.26  0.002598438    1.508    0.337
         5  -9.2071     32.8108      5.8880   7.5839059235e+01   7.0402408758e+01    0.4429653   0.07377271 -35.66  0.001445438    5.503    0.818
         6  -9.6033     32.5997     18.2018   8.2111741799e+01   6.8755843357e+01    0.3009316   0.09689531 -41.86  0.001289699    2.965    0.663
         7  -8.2976     49.3183      3.6708   6.7466493185e+01   6.8244972529e+01    0.1042789   0.09454238 -45.47 0.0007047082    1.684    0.406
         8  -8.0363    246.6711      1.3214   3.2952329750e+01   2.4239499916e+01    0.1314632   0.06832721 -61.88 0.0005354537    1.691    0.409
         9 -10.7630     83.9634    227.1991   1.1263793476e+02   1.6458145885e+01    0.7679163    0.2468699 -65.11  0.003195056    3.407    0.707
        10 -10.3672    134.4962    246.4043   1.0500094688e+02   5.4619079003e+00    0.5089309     0.148212 -49.75  0.002077196    4.082    0.755
        11 -11.3801    126.0566    230.7383   1.0469139694e+02   9.4379255246e+00    0.4462549    0.3388828 -67.93  0.002750198    1.536    0.349
        12 -11.7587    126.5459    240.1817   1.0577009120e+02   7.7194891820e+00    0.6205049    0.3794885 -51.64  0.003579641    1.940    0.485
        13 -12.3546    118.3807    243.2414   1.0769874373e+02   8.4498469262e+00    0.8071131      0.63695 -59.22  0.005389269    1.497    0.332
        14 -11.3549    121.1021    224.2403   1.0484906084e+02   1.1404365636e+01    0.6701748    0.2871324  39.86  0.003061156    2.041    0.510
        15 -11.6573    114.2065    230.1413   1.0697360545e+02   1.1400813709e+01    0.5132471    0.4160051  52.06  0.003316316    1.047    0.045
        16 -13.0953     69.4477    248.4183   1.1730583428e+02   1.4502542361e+01      3.71063    0.5685579  36.29   0.01076036    7.059    0.858
        17 -14.2629     39.3890    192.8028   1.1839111209e+02   2.9405995668e+01     10.03387     3.738399  78.68   0.03019848    5.970    0.833
        18  -9.8170    163.5312    229.9654   9.7165277517e+01   3.5231650719e+00    0.2678268    0.1187297 -39.84  0.001216457    2.727    0.633
        19  -8.6894    167.5021    222.9943   9.5321524908e+01   4.0132383298e+00    0.1647148    0.1162381 -79.27 0.0008103925    2.540    0.606
        20 -12.8166     23.6925    224.7094   1.2386286041e+02   2.4443953640e+01     1.421475    0.7059985  69.12  0.006221567    1.741    0.426
        21  -9.6151    164.2669    217.6510   9.5127315425e+01   5.4545527940e+00    0.4162613    0.1121125 -45.28  0.001451216    4.132    0.758
        22  -8.3111     93.6364    220.1763   1.0993805675e+02   1.6423090423e+01    0.1665625    0.1113451 -54.17 0.0005698744    1.718    0.418
        23 -10.7596    119.8376    231.0033   1.0596034676e+02   1.0368501932e+01    0.3897389    0.3227929 -63.99   0.00253659    1.373    0.272
        24  -9.6643    124.0180    218.0156   1.0342235896e+02   1.2101725070e+01    0.2119373    0.1456924  68.56 0.0008758585    1.705    0.413
        25 -12.2159     30.7571    247.9130   1.2400552097e+02   1.9293746600e+01    0.8501318    0.7389067  87.83  0.006037352    1.367    0.268
        26 -10.7431     88.1228    226.8694   1.1178231917e+02   1.5926252869e+01    0.3581594    0.2576434  69.95  0.001489094    1.308    0.235
        27  -9.9289     61.8068    179.8985   1.1205724616e+02   2.9599233040e+01    0.4052113    0.2722852 -33.48  0.001811757    2.333    0.571
        28  -9.7781     67.2769    174.0854   1.1003376639e+02   3.0221696615e+01    0.2998753     0.221384 -45.84 0.0005334977    1.604    0.377
        29  -9.8730     76.9464    164.2185   1.0626952055e+02   3.1196528342e+01    0.2909039    0.2396623 -49.78  0.000419288    1.318    0.242
        30 -10.8129     83.0692    158.2358   1.0377175863e+02   3.1719090265e+01    0.6568384    0.5782442 -22.63  0.002269519    1.434    0.303
        31 -11.4973     64.1878    160.4479   1.0888991484e+02   3.3876149461e+01    0.4782517    0.2791149 -45.99  0.001422176    1.971    0.493
        32 -10.6040     32.5764    157.1218   1.1630945320e+02   3.8367146776e+01    0.6765755    0.1201516 -69.68  0.002033423    4.716    0.788
        33 -12.1294      3.8586    184.3044   1.2509880229e+02   3.4770830186e+01     1.234418    0.4898393 -88.48  0.001234988    2.221    0.550
        34 -10.2386     73.6492    154.6712   1.0559660336e+02   3.3968546957e+01    0.3470712    0.2479288  85.20  0.001602109    1.521    0.342
        35 -10.6633     70.0665    145.3162   1.0498066428e+02   3.6755585739e+01    0.4657107    0.4078937  23.51  0.001589029    1.365    0.267
        36 -10.7285     67.5382    142.5100   1.0518002633e+02   3.7793231003e+01     0.425748    0.3211828  54.50  0.001561128    1.396    0.283
        37 -12.7815     10.4841    206.5845   1.2519285809e+02   2.9433403292e+01    0.9887455    0.7507214  22.44  0.003551614    1.914    0.478
        38 -10.3606     86.2834    141.8869   9.9995729895e+01   3.5183666421e+01    0.3103106    0.2842107 -19.54 0.0007176247    1.291    0.225
        39 -10.6532     58.6274    131.5661   1.0573439733e+02   4.1660836982e+01    0.6042562    0.2451438 -69.52  0.002252579    2.668    0.625
        40  -8.3736     96.7728    127.9289   9.4211063854e+01   3.6839319015e+01    0.2295838    0.1947834 -33.97  0.000641176    1.268    0.212
        41  -8.6093    115.3074    126.1801   8.8727326622e+01   3.3865239946e+01    0.3311307    0.1268683 -44.00  0.001097561    2.655    0.623
        42  -7.8386    106.8186    119.8804   8.9525453084e+01   3.6954587357e+01     0.197753    0.1745024  86.83 0.0004157416    1.256    0.204
        43 -10.3048     32.7128    132.4082   1.1313437864e+02   4.4328368162e+01    0.8270006   0.07617714 -66.53  0.001953331    7.060    0.858
        44  -8.7820    108.4205    131.7813   9.1885631927e+01   3.3838807359e+01    0.3348753    0.2066025  38.28  0.001392381    1.714    0.417
        45  -9.4394     21.5022    120.0282   1.1454115792e+02   4.8325563951e+01    0.2074693    0.1043821 -69.27 0.0007281087    1.601    0.375
        46  -8.3632     83.4013    118.1578   9.5826572461e+01   4.1418602262e+01    0.2170892    0.1343078 -67.09 0.0009458541    1.756    0.431
        47  -8.6111     33.0000    110.0640   1.0951268620e+02   4.9740120878e+01    0.2286246   0.06380442 -64.86 0.0008055876    2.964    0.663
        48  -9.3282     33.0000     91.4930   1.0590576570e+02   5.4167450771e+01    0.3919405   0.06358488 -61.97  0.001071253    5.117    0.805
        49  -9.4590     48.7684    224.8988   1.1923917106e+02   2.1558389023e+01    0.1935908    0.1613888 -84.71 0.0006367652    1.240    0.194
        50  -9.4105     32.7694     71.1557   1.0114213670e+02   5.8811314056e+01    0.4805613     0.103441 -59.95   0.00140906    4.845    0.794
        51  -9.4119     13.2736     60.0005   1.0593105818e+02   6.2777090927e+01    0.1792927    0.1258689 -50.97 0.0005115299    1.108    0.097
        52  -7.8876    208.2861     53.6452   4.9051214185e+01   2.6407655346e+01    0.1519122   0.09741373 -61.29 0.0003980451    1.670    0.401
        53  -8.2385     21.3303     52.3246   1.0042507629e+02   6.3790578678e+01    0.1333676   0.07363646 -31.61 0.0007050337    1.702    0.413
        54 -10.8502    199.1385     40.1362   4.6714686474e+01   3.0499927945e+01    0.7312311    0.3731562  53.79  0.002772065    2.010    0.502
        55 -11.7890     40.4841    235.0210   1.2151111742e+02   2.0576564868e+01    0.6442621    0.3149432  72.99  0.003606696    1.980    0.495
        56 -12.5988     35.0272    206.9253   1.2048085519e+02   2.6843497126e+01    0.8891197    0.7705529  83.28  0.004719757    1.185    0.156
        57  -9.7279     32.8824     32.0533   8.8086749552e+01   6.6514763108e+01    0.5205467   0.06151632 -46.16  0.001355439    7.173    0.861
        58 -14.5724      6.5726    240.1677   1.2762220426e+02   2.3235497675e+01     12.84472     1.300574 -78.38   0.03521884   10.375    0.904
        59  -9.8883     53.0395    240.4051   1.1963683197e+02   1.8054690279e+01    0.2303981    0.1468149 -79.27 0.0008756066    1.537    0.349
        60 -10.1114    222.5072    237.9996   8.7365176367e+01  -6.7774128264e+00     0.306803    0.2001346 -12.70  0.001884018    1.570    0.363
        61 -11.3908    134.3626    230.0836   1.0295337620e+02   8.2304651040e+00     0.611052    0.2818251 -53.78  0.002929689    2.519    0.603
        62  -9.1062     61.5213    235.2041   1.1767803913e+02   1.7961827188e+01    0.2477583    0.1478363  61.62 0.0005302158    1.427    0.299
