#   1 NUMBER                 Running object number                                     
#   2 MAG_AUTO               Kron-like elliptical aperture magnitude                    [mag]
#   3 X_IMAGE                Object position along x                                    [pixel]
#   4 Y_IMAGE                Object position along y                                    [pixel]
#   5 X_WORLD                Barycenter position along world x axis                     [deg]
#   6 Y_WORLD                Barycenter position along world y axis                     [deg]
#   7 A_WORLD                Profile RMS along major axis (world units)                 [deg]
#   8 B_WORLD                Profile RMS along minor axis (world units)                 [deg]
#   9 THETA_WORLD            Position angle (CCW/world-x)                               [deg]
#  10 FWHM_WORLD             FWHM assuming a gaussian core                              [deg]
#  11 ELONGATION             A_IMAGE/B_IMAGE                                           
#  12 ELLIPTICITY            1 - B_IMAGE/A_IMAGE                                       
         1 -12.3709    203.0613      2.2763   6.3974194931e+01   3.3139834006e+01     1.450384      0.68347  71.87  0.002993527    2.120    0.528
         2 -13.1859    182.2074     24.9586   7.3949218208e+01   3.6332178392e+01     1.778337     1.117024  -3.25  0.005623785    1.887    0.470
         3 -13.0252    189.8563     17.8243   7.0514611687e+01   3.5106672791e+01     2.274561    0.9607042 -21.60  0.007915286    2.349    0.574
         4 -12.2731    195.9785      9.8765   6.7165526787e+01   3.4298859813e+01    0.8638177    0.5888851 -27.70  0.001087445    1.419    0.295
         5  -8.9508     50.0176      2.3199   9.7210877109e+01   6.8832288096e+01    0.1925647   0.08791523  23.40 0.0007049791    4.316    0.768
         6  -8.2993    226.6748    238.3522   1.1389163933e+02   1.7151335820e-01   0.09015509   0.07229339  57.32 0.0007047758    1.760    0.432
         7 -10.3088    247.6638    249.7835   1.1242293008e+02  -3.5799699662e+00    0.3120612    0.1097346  39.70   0.00191974    1.956    0.489
         8  -9.6837    164.1065    250.0932   1.2433282128e+02   8.0045292077e+00    0.1535869   0.09878989  62.12  0.001129761    1.761    0.432
         9 -11.3132    140.3867    248.7323   1.2770741781e+02   1.1452320435e+01    0.3693946    0.2056064  50.41  0.002713246    1.316    0.240
        10  -9.6179    110.8178    248.7842   1.3210091069e+02   1.5415661510e+01    0.1731098    0.1247045  60.64 0.0006315247    1.136    0.120
        11 -11.1846    105.9292    246.0695   1.3262098687e+02   1.6385320195e+01    0.3695286    0.1990249  67.67  0.002185403    1.963    0.491
        12 -11.1089     98.8516    248.7075   1.3386515146e+02   1.6963249439e+01    0.3609537    0.1654948  53.01  0.001521615    1.575    0.365
        13 -10.6935    101.1508    245.5953   1.3329870607e+02   1.7060790037e+01    0.2232911    0.1412009  63.63 0.0004448584    1.328    0.247
        14 -10.0885     74.2792    249.6246   1.3752355417e+02   1.9851011732e+01    0.2963411    0.2555714  24.92  0.001760108    1.948    0.487
        15 -10.9945     79.7481    238.4151   1.3601261689e+02   2.0680635348e+01    0.2659627    0.1803795  40.33  0.002138007    1.530    0.346
        16 -11.5679     80.4182    246.6411   1.3644426813e+02   1.9507202258e+01    0.5900683    0.2093392  56.15  0.001749324    2.260    0.558
        17 -10.6887     82.8138    243.0389   1.3585723756e+02   1.9688494167e+01    0.2952279    0.1514319  67.75  0.001355566    1.853    0.460
        18 -19.0737      6.8871    130.8281   1.4178531039e+02   4.6853319152e+01     15.10469     2.286706 -78.32   0.05019995    5.959    0.832
        19 -10.2618    192.9932    194.6143   1.1298974865e+02   9.7333303047e+00    0.6046984    0.3207085 -60.83  0.002448648    5.439    0.816
        20  -8.9607    208.3278    197.3192   1.1093006376e+02   6.8870358421e+00    0.1182686   0.07417587  21.47 0.0007047051    1.683    0.406
        21 -11.2047     77.7550    192.2652   1.3277923106e+02   2.7867862858e+01    0.3130407    0.2180396 -48.07  0.002129619    2.143    0.533
        22 -11.1605     81.5989    185.9626   1.3149594184e+02   2.8419343795e+01     0.240474    0.2052487 -63.37 0.0009457719    1.478    0.323
        23  -8.3995     82.4198    194.2351   1.3212837754e+02   2.6933975978e+01    0.1429525   0.08997217 -89.43 0.0009485534    1.651    0.394
        24  -9.7639     63.6761    192.6868   1.3531638600e+02   2.9561308019e+01    0.2310482     0.166498  46.61  0.001020347    1.351    0.260
        25  -8.1695    181.7928    192.3511   1.1450618129e+02   1.1884800014e+01    0.1613614    0.0889011  38.91 0.0003268717    1.534    0.348
        26  -8.5259     66.3441    185.3470   1.3422696013e+02   3.0480741659e+01    0.1928098    0.0905802  56.51 0.0007378292    1.806    0.446
        27 -10.7888     88.8680    174.3495   1.2892556271e+02   2.9430968845e+01    0.2358091    0.2096514  89.33    0.0003658    1.198    0.165
        28  -9.6809     50.7945    174.4866   1.3619625886e+02   3.4243004078e+01    0.2078413    0.1375145  79.48 0.0009303001    1.268    0.211
        29 -12.7670     77.2817    171.2991   1.3082681933e+02   3.1552735960e+01    0.3695101    0.2645413 -43.46  0.001402988    2.112    0.527
        30  -9.0313    131.3216    173.3237   1.2071128628e+02   2.3115287865e+01    0.1128426   0.09303526  13.65 0.0003677744    1.679    0.404
        31  -8.7938    138.5090    172.0017   1.1917199183e+02   2.2131931038e+01    0.1618575    0.1022443 -82.69 0.0008103892    2.549    0.608
        32  -8.2627    193.8352    156.9782   1.0655852664e+02   1.4410690907e+01    0.1964981    0.1254559  30.14  0.001051534    1.591    0.371
        33  -9.4094     58.9421    153.5066   1.3262993958e+02   3.7203360436e+01    0.1646139    0.1001427  44.85 0.0008536915    1.574    0.365
        34  -9.3779    105.4176    149.1968   1.2233600890e+02   3.1535102335e+01    0.2479208    0.1896419  56.74 0.0007707241    1.177    0.151
        35  -8.9573    107.6288    145.0477   1.2123403456e+02   3.1960205400e+01    0.2989015    0.1850507 -41.05  0.001023526    2.144    0.534
        36 -11.5179     94.6151    148.7678   1.2454499589e+02   3.3282238828e+01    0.2453163    0.2157979  48.32 0.0005749443    1.235    0.190
        37  -9.1236    133.7876    143.7858   1.1555994516e+02   2.7727083126e+01    0.1965976    0.1000858 -60.67 0.0008748587    2.479    0.597
        38  -9.3117    114.1751    135.2562   1.1820584522e+02   3.2734442401e+01    0.2652016    0.1939342 -32.11 0.0009672634    1.897    0.473
        39 -10.8165     70.9175    135.1200   1.2781955016e+02   3.9324800628e+01    0.5003303    0.1911889  47.85  0.002329288    2.490    0.598
        40 -10.1566    102.3308    132.1318   1.2028006516e+02   3.5302773429e+01     0.275946    0.2435547 -12.56 0.0009958167    1.603    0.376
        41  -9.2239    119.3787    127.8097   1.1570989165e+02   3.3258044468e+01    0.1850854    0.1199082 -41.68 0.0009453526    1.781    0.438
        42 -10.9188     67.5082    125.0296   1.2718169244e+02   4.1839578452e+01    0.3326145     0.196564  36.33  0.001854275    1.906    0.475
        43  -9.0100    109.9953    122.8666   1.1688128777e+02   3.5855975274e+01    0.1883999     0.174245  75.80 0.0003681202    1.034    0.033
        44  -8.7851     69.6765    235.6884   1.3736266912e+02   2.2264214933e+01   0.07971663   0.07071648  38.74 0.0002913084    1.655    0.396
        45  -8.7581    205.4831    110.4765   9.4661300111e+01   1.8664462536e+01    0.2677453    0.1113373  41.76  0.001030021    2.457    0.593
        46 -10.4146     83.1793    230.3771   1.3493247035e+02   2.1362131368e+01    0.2324466    0.1163484  55.33  0.001018839    1.492    0.330
        47  -9.8439    168.3329    113.1091   1.0219398601e+02   2.6292817066e+01    0.3468195    0.2631175 -76.89  0.001138801    1.815    0.449
        48 -10.7777    163.9305    224.7559   1.2165198186e+02   1.0799462849e+01    0.2848952    0.1818961  59.00  0.001942861    1.615    0.381
        49 -11.5103    174.8415    220.2449   1.1939696194e+02   9.6567990168e+00    0.4160094    0.2550476  32.54  0.002773657    1.513    0.339
        50  -9.6816    198.5674    245.7775   1.1883625403e+02   3.5337882740e+00    0.1053139   0.09778269 -60.81 0.0009478148    1.666    0.400
        51 -11.3305    126.2763    244.1944   1.2941715948e+02   1.3909676728e+01    0.2723221    0.1840027  51.75  0.002127924    1.058    0.055
        52  -8.9562     90.2243    245.4090   1.3491287957e+02   1.8465228435e+01    0.1407993   0.06114199  50.98 0.0009440345    1.612    0.380
        53 -10.9478     94.2364    239.1778   1.3386884283e+02   1.8771897616e+01    0.2679075    0.1700452 -73.69  0.001852136    1.885    0.470
        54  -8.8434    185.5401    238.0320   1.1986525740e+02   6.1526569361e+00    0.1163544    0.1030738 -31.54 0.0004693029    1.542    0.352
        55  -9.1637    229.3888    206.4972   1.0907449913e+02   2.5848991768e+00    0.1776791    0.1717596  60.89 0.0006996667    1.561    0.359
