#   1 NUMBER                 Running object number                                     
#   2 MAG_AUTO               Kron-like elliptical aperture magnitude                    [mag]
#   3 X_IMAGE                Object position along x                                    [pixel]
#   4 Y_IMAGE                Object position along y                                    [pixel]
#   5 X_WORLD                Barycenter position along world x axis                     [deg]
#   6 Y_WORLD                Barycenter position along world y axis                     [deg]
#   7 A_WORLD                Profile RMS along major axis (world units)                 [deg]
#   8 B_WORLD                Profile RMS along minor axis (world units)                 [deg]
#   9 THETA_WORLD            Position angle (CCW/world-x)                               [deg]
#  10 FWHM_WORLD             FWHM assuming a gaussian core                              [deg]
#  11 ELONGATION             A_IMAGE/B_IMAGE                                           
#  12 ELLIPTICITY            1 - B_IMAGE/A_IMAGE                                       
         1 -15.5520    237.1406    115.8495   2.8962904200e+02   5.0826486439e+00    0.1674211   0.07501501 -61.20   0.01416421    2.279    0.561
         2 -14.0742     17.7551     53.6080   2.9203007228e+02   7.0597571622e+00     0.108402    0.0451352 -76.33  0.007757993    3.544    0.718
         3 -15.2857     47.4723     63.9710   2.9171454783e+02   6.7703852847e+00     0.081967   0.05373289 -59.98   0.00747497    1.590    0.371
         4 -16.4904     48.9428     42.9992   2.9158235680e+02   7.0057233227e+00     0.128502    0.1008269   1.88  0.009540426    1.343    0.255
         5 -15.6130     28.8537     91.3352   2.9209564662e+02   6.5581348192e+00    0.1379478    0.1056595 -43.11   0.01297014    1.378    0.275
         6 -14.9046    196.2013     44.0230   2.8974801684e+02   6.1517910192e+00   0.05618466   0.04144822  36.01  0.003980976    1.274    0.215
         7 -15.7163    218.8607     29.5579   2.8938651246e+02   6.1894895170e+00   0.07750728   0.05591897 -14.00  0.008010355    1.622    0.384
         8 -18.1583    203.3817     16.2215   2.8950680391e+02   6.4331809886e+00    0.2993241    0.1414227  11.78   0.01923765    2.655    0.623
         9 -17.5166    169.3513      4.2368   2.8986619309e+02   6.7676197877e+00    0.3295032    0.1191064  14.17   0.02046095    4.182    0.761
        10 -10.8649    244.3880     60.4737   2.8923701561e+02   5.6839592309e+00   0.01587963  0.005530143  30.83  0.001206661    2.470    0.595
        11 -13.8904    231.1554    245.1527   2.9040608692e+02   3.6144852909e+00   0.04332297    0.0311221 -20.26  0.002918736    1.623    0.384
        12 -14.3701    237.1587    208.8859   2.9013463840e+02   4.0015650994e+00   0.05763954   0.03809063 -41.42  0.003978317    1.640    0.390
        13 -15.2108    238.4048    227.4130   2.9021969336e+02   3.7791315845e+00   0.06272552   0.05911845 -22.77   0.00402252    1.097    0.089
        14 -14.7300    222.7063    222.6533   2.9038918474e+02   3.9243298923e+00   0.06045078   0.05832781  21.49  0.005380456    1.029    0.028
        15 -16.2133    188.1697    108.8929   2.9020143966e+02   5.4444162475e+00    0.1403707   0.09182146  60.57    0.0137102    1.838    0.456
        16 -15.9240    190.0935    138.1382   2.9033646581e+02   5.0935052347e+00    0.1409959   0.07042859  15.21   0.01103942    2.212    0.548
        17 -15.7630    219.9959    127.7072   2.8990712581e+02   5.0432945800e+00     0.149671   0.05559892  50.47  0.008720499    3.861    0.741
        18 -16.0236    220.3254    116.3523   2.8984123424e+02   5.1733270380e+00    0.1088228   0.07030995  34.88   0.01106787    1.435    0.303
        19 -15.3517    239.8793    126.1111   2.8965080098e+02   4.9477315502e+00   0.08575524   0.07254592  40.30  0.007452765    1.144    0.126
        20 -15.0427    196.9253    228.3085   2.9074073826e+02   4.0061246752e+00   0.09449004   0.04644975 -47.82  0.005941497    2.146    0.534
        21 -11.5134     68.0871    144.7620   2.9189467489e+02   5.7135159233e+00    0.0274297   0.01225543  44.92  0.002241171    2.349    0.574
        22 -11.9505    108.6915    133.0538   2.9132430610e+02   5.6181868942e+00   0.03497501   0.01361831  29.52  0.002808294    2.261    0.558
        23 -12.7258    160.1365    128.0711   2.9065530600e+02   5.3820693733e+00   0.01771282   0.01249635  76.90  0.001784803    1.789    0.441
        24 -12.8142    155.4681    124.8487   2.9069603681e+02   5.4462479223e+00   0.01539877   0.01206316  44.11  0.001667858    1.261    0.207
        25 -14.4741    165.6929    112.3017   2.9050030592e+02   5.5335702765e+00    0.0376117   0.02417019 -66.33   0.00378511    1.675    0.403
        26 -13.6687     25.7316    212.8184   2.9279083410e+02   5.1624445287e+00   0.04464415   0.03717895 -21.88  0.004593473    1.291    0.225
        27 -15.3969     53.6542    105.6960   2.9186343857e+02   6.2500913843e+00    0.1293581   0.05862896  18.95   0.01052189    2.300    0.565
        28 -12.7652     21.8834    208.9310   2.9281789310e+02   5.2295362816e+00     0.032943   0.01786552 -26.35  0.002711482    2.627    0.619
        29 -13.5041     53.2252    185.5981   2.9230096675e+02   5.3229643274e+00   0.03751332   0.02884279 -26.74  0.001941217    1.439    0.305
        30 -12.3348    134.6032    106.4690   2.9085657142e+02   5.7792676848e+00   0.02025932  0.008144794 -64.03  0.001616225    2.607    0.616
        31 -13.4541     61.6452    175.6279   2.9214202305e+02   5.3910712464e+00   0.04025166   0.03458276 -43.26   0.00298263    1.220    0.180
        32 -11.6157    145.4260     96.6247   2.9066798904e+02   5.8317910855e+00   0.01323247   0.01146023 -18.05  0.000774269    1.220    0.180
        33 -14.5813    188.1410     88.1015   2.9008866611e+02   5.6861529758e+00   0.05205316   0.03768131  59.28  0.005457708    1.562    0.360
        34 -10.7694    132.2919     93.9762   2.9081755535e+02   5.9377031350e+00  0.009135587  0.008899252 -78.49 0.0003545772    1.100    0.091
        35 -14.0708    156.0323     88.7966   2.9049304791e+02   5.8620592760e+00   0.03968818   0.02234983  30.66  0.003778414    1.617    0.382
        36 -12.8422    219.8640     82.5065   2.8966268803e+02   5.5691012249e+00   0.09748238   0.02557165 -66.95  0.006001665    4.517    0.779
        37 -11.3613    212.7565     74.0937   2.8970544598e+02   5.7076067992e+00   0.01796248   0.01278288 -42.45  0.001119633    1.501    0.334
        38 -13.3869    215.4933     66.9716   2.8963251861e+02   5.7745881571e+00   0.02643676   0.01739306 -73.24  0.002058908    1.725    0.420
        39 -13.9425    209.7216     64.9592   2.8969350873e+02   5.8310987755e+00   0.03178716   0.02301687  -5.94  0.002175645    1.583    0.368
        40 -11.1467    138.5873     85.5269   2.9069303357e+02   5.9998983604e+00   0.01302075   0.01131012  46.61 0.0007850529    1.153    0.133
        41 -13.9278    199.1346     78.3914   2.8989869613e+02   5.7358845798e+00   0.04417023   0.03588811   7.91  0.002915937    1.245    0.197
        42 -11.8113    206.5246     76.0387   2.8979373569e+02   5.7207971842e+00   0.01523853   0.01344078 -21.21 0.0009682816    1.192    0.161
        43 -12.5328    151.7321     77.0080   2.9048260420e+02   6.0236616173e+00   0.01592644   0.01256953 -52.00  0.001182121    1.324    0.244
        44 -13.5739    167.9589     75.4698   2.9027170165e+02   5.9485884509e+00   0.02821762   0.02011334 -21.63  0.002143833    1.640    0.390
        45 -12.4263    174.6660     68.9328   2.9015242006e+02   5.9860839489e+00   0.01471058   0.01446657  22.70 0.0004335532    1.050    0.048
        46 -11.0667    198.8320     67.0158   2.8984050698e+02   5.8697324977e+00   0.01393349   0.01015379  31.11 0.0007800004    1.272    0.214
        47 -11.8567    182.7238     61.2154   2.9000984980e+02   6.0295125447e+00   0.01508767   0.01129204 -18.95 0.0008471764    1.523    0.343
        48 -11.2900    187.0377     57.4878   2.8993571977e+02   6.0480532740e+00   0.01982118   0.01126995 -26.07    0.0016977    2.400    0.583
        49 -14.1561    165.8724     57.8806   2.9020198965e+02   6.1648582922e+00   0.06166373    0.0335649  63.72  0.001757062    2.704    0.630
        50 -14.4428    170.2110    152.3467   2.9066150267e+02   5.0421803820e+00   0.04861923   0.03887504  63.55  0.004623206    1.393    0.282
        51 -13.3496    215.6266    151.4062   2.9009043252e+02   4.7929650051e+00   0.02424288   0.01652437 -46.28  0.001842039    1.546    0.353
        52 -12.1178    140.2898    148.1887   2.9101208494e+02   5.2616711492e+00   0.02165861   0.01536814  67.12  0.002210514    1.703    0.413
        53 -14.3877    132.2460    135.5389   2.9104380989e+02   5.4547489204e+00   0.06350261   0.04822478 -89.86  0.005466965    1.564    0.360
