#   1 NUMBER                 Running object number                                     
#   2 MAG_AUTO               Kron-like elliptical aperture magnitude                    [mag]
#   3 X_IMAGE                Object position along x                                    [pixel]
#   4 Y_IMAGE                Object position along y                                    [pixel]
#   5 X_WORLD                Barycenter position along world x axis                     [deg]
#   6 Y_WORLD                Barycenter position along world y axis                     [deg]
#   7 A_WORLD                Profile RMS along major axis (world units)                 [deg]
#   8 B_WORLD                Profile RMS along minor axis (world units)                 [deg]
#   9 THETA_WORLD            Position angle (CCW/world-x)                               [deg]
#  10 FWHM_WORLD             FWHM assuming a gaussian core                              [deg]
#  11 ELONGATION             A_IMAGE/B_IMAGE                                           
#  12 ELLIPTICITY            1 - B_IMAGE/A_IMAGE                                       
         1 -13.7573     68.4385    144.1115   8.6102675351e+01   3.7476777976e+01     4.350332     2.265288  86.55  0.003556983    5.460    0.817
         2 -13.1607    213.9029     52.0227   3.1218271658e+01   2.6575183297e+01     1.022464    0.8842408 -81.43  0.006163018    1.146    0.127
         3 -13.8319    232.0192     39.7389   2.7161993897e+01   2.4769280792e+01     1.360858    0.9217921  49.44  0.008667825    2.185    0.542
         4 -11.6223      1.9981     11.4998   7.6907337042e+01   7.4846654402e+01    0.7278171     0.159141 -46.69  0.002764396    4.494    0.777
         5 -11.8232      2.4042      3.4797   7.2065563181e+01   7.5956056217e+01     0.600594    0.3943549  13.33  0.004005194    1.258    0.205
         6 -10.8737    114.6412     22.7334   3.7017425935e+01   5.2277785979e+01    0.3507767    0.2331419 -71.55 0.0008193196    1.824    0.452
         7 -12.6852     43.4629    173.1116   9.8577785857e+01   3.2967940911e+01     1.260177    0.7160705 -19.10  0.001911538    2.872    0.652
         8 -11.7853     50.8362    167.5830   9.5606150476e+01   3.3567734139e+01    0.3892945    0.3148534 -32.06  0.000532913    1.388    0.280
         9 -15.3040     18.4157    239.4996   1.1088198357e+02   1.9433760343e+01     8.735444     3.038954  15.09   0.02908248    5.275    0.810
        10 -12.9280      9.1993    197.8475   1.1050003959e+02   2.9961795174e+01    0.5362689    0.4038887  17.88 0.0007803108    1.515    0.340
        11  -9.4747    192.1790    193.3645   6.3897051689e+01   5.8316682191e+00    0.2704235     0.153609 -61.88  0.001078318    3.362    0.703
        12  -8.7373     72.9200    173.0903   8.9795031353e+01   2.9176577030e+01     0.213753    0.1912466  70.11            0    1.156    0.135
        13 -11.2337    230.4891    169.6768   5.2725119587e+01   4.6886996616e+00    0.5194488    0.1661553 -40.33  0.002155589    2.549    0.608
        14  -9.7981    243.3262    169.0038   5.0654689039e+01   3.1231431116e+00    0.2071026   0.07627079 -28.04  0.000705076    4.321    0.769
        15  -9.4698    110.6263    167.2259   7.7940484492e+01   2.4711599014e+01    0.2446968    0.2250595  84.05 0.0004701143    1.216    0.178
        16 -12.0976     76.6509    138.2059   8.2233044845e+01   3.7772080042e+01    0.4961885    0.3830096 -58.69 0.0004489051    1.278    0.217
        17 -12.6154     72.1340    152.8585   8.6565911615e+01   3.4611907440e+01    0.8399047    0.6836351  57.78  0.001246465    1.323    0.244
        18 -11.2358     80.7498    248.4376   9.7343815654e+01   1.0507663474e+01    0.3432145    0.2582319  32.17  0.001123599    1.143    0.125
        19  -9.4305    245.3142    162.3283   4.9155903711e+01   3.9500712925e+00    0.1226009   0.07994495 -17.73 0.0003189689    1.673    0.402
        20 -11.1965    114.3735    237.8676   8.8291053081e+01   8.2343034975e+00    0.3203175    0.2424983 -67.77  0.001810949    1.653    0.395
        21 -10.6071     89.4885    140.4776   7.8633292343e+01   3.5064418219e+01    0.3843543    0.3207539 -39.77  0.000831998    1.209    0.173
        22  -9.5031     93.5363    137.1864   7.6657938231e+01   3.5197459499e+01    0.4013089    0.2727183 -13.42  0.001605324    2.147    0.534
        23 -11.5718    238.9895    143.5699   4.6567595066e+01   7.8870007905e+00    0.2879887    0.2133252 -12.92  0.001757772    1.585    0.369
        24 -10.5514    105.1045    130.2781   7.1570113788e+01   3.4795180809e+01    0.4671826    0.3723117  46.03  0.001077242    1.293    0.227
        25 -11.0944     63.4010    158.6802   9.0336118628e+01   3.4313778566e+01    0.3117847    0.2815123 -39.14 0.0005324378    1.143    0.125
        26 -10.1295    104.4818    172.4663   8.0628654139e+01   2.4451837446e+01    0.3302366    0.1481422  33.39  0.001002215    2.199    0.545
        27 -11.5531    243.8321    125.1285   4.2434027831e+01   1.0203745212e+01     0.321925    0.1729188 -37.17  0.001773304    1.542    0.352
        28 -10.5454     66.9676    125.8224   8.2821928990e+01   4.2504226000e+01    0.4190507    0.1929454 -47.40  0.001556999    2.119    0.528
        29  -8.6728    112.3110    124.3354   6.8036381953e+01   3.4825558486e+01    0.1619436    0.1237402 -12.56 0.0007044383    1.682    0.405
        30  -9.6966    102.9543    118.5117   6.9323510361e+01   3.8029344325e+01    0.2760513    0.2235456 -49.72 0.0003596668    1.224    0.183
        31 -14.6674     18.3135    191.0078   1.0759191772e+02   3.0875723741e+01     2.572652      1.77999  73.32  0.009436651    1.383    0.277
        32 -10.7123     90.3761    125.7276   7.5000655109e+01   3.8630873940e+01    0.3400273    0.2926097  -8.83 0.0004041978    1.295    0.228
        33  -9.4921    204.3410    111.0186   4.5061459418e+01   1.9139577037e+01    0.2845023     0.187465  33.76   0.00144556    2.101    0.524
        34 -13.3451     48.8910    154.1268   9.4220098947e+01   3.7419252859e+01    0.7484899     0.482763 -42.36  0.001698532    1.649    0.393
        35 -10.7181     45.7713    108.6875   8.6779891223e+01   4.9886569667e+01    0.3831448    0.2809291  74.09  0.001068676    1.825    0.452
        36  -9.5946    244.3152     97.6693   3.7152822991e+01   1.4468087177e+01    0.1240944   0.07587517 -61.74 0.0007045731    1.681    0.405
        37 -10.5497     53.0032     90.9569   7.9440074196e+01   5.3265126481e+01    0.3994608    0.2292326 -46.24  0.001321576    1.664    0.399
        38  -9.5570     41.6624     92.0699   8.4423340561e+01   5.4535539993e+01    0.2606068    0.2075138   4.97 0.0005497224    1.307    0.235
        39 -10.1820    166.1341     86.1812   4.5638037760e+01   3.1226142727e+01    0.2018977    0.1575678 -70.16 0.0005103259    1.340    0.254
        40  -9.5075    184.4478     77.2747   4.0465076062e+01   2.8808687979e+01    0.2263959    0.1589406  49.95 0.0005863886    1.623    0.384
        41 -10.0853    119.8292    236.6129   8.6855858405e+01   7.7438575522e+00    0.2138941    0.1694209 -36.02 0.0005355889    1.356    0.263
        42 -10.4427     13.3593     60.0663   8.8970637466e+01   6.4826986189e+01    0.2517245    0.2053514 -50.51 0.0004560919    1.212    0.175
        43 -10.2715     79.9931    209.4037   9.3051703457e+01   1.9137122643e+01    0.2792758    0.2089567 -80.88 0.0001906752    1.520    0.342
        44 -13.9109      9.7856    206.9379   1.1094684766e+02   2.7690890881e+01     1.341226     1.174853 -23.32  0.004335018    1.454    0.312
        45 -10.6643     11.5654     52.8419   8.7743968403e+01   6.6510669256e+01    0.2282666    0.1727181   7.71 0.0007897774    1.281    0.219
        46 -10.4797      1.8704     50.6947   9.2601767439e+01   6.7661794169e+01    0.2833027    0.1282754 -58.52  0.001369309    2.006    0.501
        47  -9.8509    173.4332    243.6906   7.6119954861e+01  -5.4293464699e-01    0.2172904    0.1192541 -47.91  0.001137224    2.081    0.519
        48 -15.4938     23.6434    177.9859   1.0494564898e+02   3.3741086506e+01     9.423087     3.284896  88.04   0.02629248    5.129    0.805
        49  -8.8350    189.3297     15.0864   2.5492435121e+01   3.6074435230e+01    0.1655663    0.1274944 -61.51  0.000608149    1.129    0.114
