#   1 NUMBER                 Running object number                                     
#   2 MAG_AUTO               Kron-like elliptical aperture magnitude                    [mag]
#   3 X_IMAGE                Object position along x                                    [pixel]
#   4 Y_IMAGE                Object position along y                                    [pixel]
#   5 X_WORLD                Barycenter position along world x axis                     [deg]
#   6 Y_WORLD                Barycenter position along world y axis                     [deg]
#   7 A_WORLD                Profile RMS along major axis (world units)                 [deg]
#   8 B_WORLD                Profile RMS along minor axis (world units)                 [deg]
#   9 THETA_WORLD            Position angle (CCW/world-x)                               [deg]
#  10 FWHM_WORLD             FWHM assuming a gaussian core                              [deg]
#  11 ELONGATION             A_IMAGE/B_IMAGE                                           
#  12 ELLIPTICITY            1 - B_IMAGE/A_IMAGE                                       
         1 -12.3554    192.9176     33.9908   5.5657642462e+01   3.2199903036e+01     1.040542    0.9951319  15.52  0.004009806    1.113    0.102
         2 -12.8800    203.0422     22.1573   5.0792094986e+01   3.0957285307e+01     1.386806    0.9664384   0.65  0.002869813    1.799    0.444
         3  -9.2003     59.5145      9.0054   7.7675093615e+01   6.6857575612e+01    0.1847652   0.09991567  -9.38 0.0008097786    2.520    0.603
         4 -10.3200     40.3215      3.3287   8.3037439957e+01   7.0582562900e+01    0.2528418    0.1559442 -16.86  0.001444287    1.577    0.366
         5 -10.8396    248.2199      2.5054   4.1379210757e+01   2.1877280690e+01    0.4451131    0.2967108  85.49  0.002506818    1.507    0.336
         6  -9.3754     71.7008    230.0903   1.2126083535e+02   2.0806856584e+01    0.1911687    0.1078329  54.34  0.000720865    1.328    0.247
         7 -18.0756     10.2825    148.9930   1.2735168225e+02   4.2833277642e+01      16.7591     3.322146 -79.62    0.0591122    4.812    0.792
         8  -8.2767     83.0000    194.9180   1.1608790783e+02   2.5369115063e+01     0.174337   0.06428954 -65.04 0.0007987571    2.917    0.657
         9  -8.8763    195.7722    169.7398   8.9753865143e+01   1.0285094653e+01    0.2439869    0.1860612  20.57  0.001388817    1.301    0.231
        10 -10.0549    208.5077    192.5229   9.1555557548e+01   4.7869586574e+00     0.357807    0.1218325 -36.03  0.001508571    3.330    0.700
        11  -9.9326     94.8618    168.7619   1.1049481032e+02   2.8661953100e+01     0.305377    0.1929753  46.95  0.001688317    1.426    0.299
        12 -10.9096     85.8850    164.2373   1.1187395766e+02   3.0938424404e+01     0.574251     0.316918  65.99  0.001383556    2.080    0.519
        13 -12.0760     74.7034    160.0644   1.1385114975e+02   3.3410775560e+01    0.5316871    0.4014114 -58.51  0.001232879    1.441    0.306
        14 -12.4609     68.1307    144.4481   1.1332014190e+02   3.7650727736e+01    0.9225004     0.544596  78.08  0.004615144    1.990    0.498
        15  -7.7504    139.6886    156.3306   9.8613137448e+01   2.3367665428e+01    0.1404261    0.1048137  78.20 0.0007042952    1.671    0.402
        16  -8.5978    189.6551    155.6965   8.8165553361e+01   1.3652531964e+01    0.1439521     0.101313  15.80 0.0007040297    1.687    0.407
        17 -11.8912     46.4877    146.4999   1.1878360369e+02   3.9876208099e+01    0.5260426    0.3361403  59.09  0.003145459    1.464    0.317
        18 -11.5376     59.2704    138.8984   1.1473606150e+02   4.0020838038e+01    0.5392119    0.2353273 -60.79  0.002556389    2.096    0.523
        19 -11.9022     58.0901    128.1779   1.1351850690e+02   4.2559938736e+01    0.7419345    0.3541573 -81.42  0.003196611    2.572    0.611
        20  -9.3993    104.8320    141.8685   1.0399723661e+02   3.2603185159e+01    0.4101278     0.270345 -29.04  0.001873258    2.442    0.590
        21 -10.6136     93.0810    141.9610   1.0685951484e+02   3.4524067554e+01     0.264451    0.2362482 -50.30 0.0004086464    1.271    0.213
        22  -9.3060    134.0975    145.3900   9.7797836559e+01   2.6556602866e+01    0.7435439    0.1374673 -52.29  0.001711043    7.575    0.868
        23 -10.2598     73.0228    134.8447   1.1069164625e+02   3.9093596892e+01    0.2519912    0.1563916  39.53  0.001329396    1.664    0.399
        24 -10.5166     92.6989    157.3836   1.0936886578e+02   3.1318722050e+01    0.4867608     0.358602 -28.02  0.002349967    2.158    0.537
        25  -9.3551    113.8888    131.5672   9.9847031842e+01   3.3191811257e+01    0.2550023     0.240513 -30.03 0.0008512817    1.222    0.181
        26  -8.7000    106.0096    130.6168   1.0161120599e+02   3.4806810725e+01    0.2737935    0.1945879 -77.23  0.001372352    1.605    0.377
        27  -9.3673    100.8708    127.7766   1.0235158583e+02   3.6314488562e+01    0.2545462    0.2214992 -26.00 0.0006651305    1.435    0.303
        28  -9.0893    135.1853    121.9730   9.2610659174e+01   3.1064222688e+01    0.3880246    0.1058291 -52.79  0.001001728    5.186    0.807
        29  -8.3105    109.1111    119.8415   9.8612782051e+01   3.6581485114e+01    0.2099383      0.18203  78.39 0.0004123628    1.182    0.154
        30  -9.0194     73.3771    189.7602   1.1748656886e+02   2.7658873284e+01    0.2608886    0.1191846  45.82 0.0004473433    1.837    0.456
        31 -11.0552     44.9902    114.3093   1.1498054161e+02   4.7232028403e+01    0.3947644    0.1632748 -64.55  0.001827236    2.052    0.513
        32  -8.7709    119.4862    110.9751   9.3933215627e+01   3.6515026401e+01    0.2078405    0.1272504 -73.06 0.0006493455    2.492    0.599
        33  -8.7467    207.2701    109.1472   7.4293848442e+01   1.7438229064e+01    0.3949767    0.2501959  26.66  0.001737031    1.922    0.480
        34  -9.7679    208.1877    180.3397   8.9454125081e+01   6.4699914411e+00    0.3786693    0.2467987 -25.37  0.002114091    1.684    0.406
        35  -9.1399    134.4884    101.9927   8.7900060136e+01   3.5290346616e+01    0.2327356    0.1474096 -44.94 0.0006412517    1.585    0.369
        36  -8.8308    208.5690    210.3126   9.4472714037e+01   2.5501906622e+00    0.1984745    0.1145335 -38.73  0.001145813    2.125    0.529
        37  -8.0993     99.5115    180.9749   1.1110971391e+02   2.5554384662e+01    0.1732185    0.1197506 -66.11 0.0006755419    1.544    0.352
        38 -10.7265     74.4995    179.6167   1.1619920292e+02   2.9467079576e+01     0.381697     0.268545 -40.44  0.002217302    2.178    0.541
        39 -10.4153     78.8245    173.9802   1.1464350093e+02   2.9984972463e+01    0.2800159    0.2481179 -41.66 0.0009420212    1.542    0.352
        40  -9.2896    160.3236     61.7786   7.0114562268e+01   3.6684221895e+01     0.310513    0.2370845 -71.16 0.0008218904    1.633    0.388
        41  -8.0282    164.3414    205.7669   1.0169159715e+02   1.0587389409e+01    0.1446368    0.1142783 -27.29 0.0002306703    1.584    0.369
        42 -10.0130    194.0368    194.1008   9.4409557179e+01   7.1005299389e+00    0.4094086    0.2615605 -38.04  0.002213601    1.826    0.452
        43 -11.1116    183.0166     41.8564   5.9591622759e+01   3.3779281664e+01    0.4914317    0.4403464  59.19  0.001355122    1.105    0.095
        44 -10.5508     92.1741    234.5949   1.1807899466e+02   1.7383258932e+01    0.2386867    0.1720794  70.23 0.0003772634    1.254    0.202
        45  -9.3131     78.0964    236.2557   1.2062269198e+02   1.9005872155e+01    0.2090282    0.1045333  54.30  0.001214526    1.521    0.343
        46 -10.1683     84.1160    233.7904   1.1940321123e+02   1.8596941604e+01    0.2400257    0.1816546  70.32  0.001395392    1.161    0.138
        47  -9.9393    163.8640    233.1063   1.0543106767e+02   6.9122499428e+00    0.2316136     0.135169  22.72  0.001282208    2.215    0.548
