#   1 NUMBER                 Running object number                                     
#   2 MAG_AUTO               Kron-like elliptical aperture magnitude                    [mag]
#   3 X_IMAGE                Object position along x                                    [pixel]
#   4 Y_IMAGE                Object position along y                                    [pixel]
#   5 X_WORLD                Barycenter position along world x axis                     [deg]
#   6 Y_WORLD                Barycenter position along world y axis                     [deg]
#   7 A_WORLD                Profile RMS along major axis (world units)                 [deg]
#   8 B_WORLD                Profile RMS along minor axis (world units)                 [deg]
#   9 THETA_WORLD            Position angle (CCW/world-x)                               [deg]
#  10 FWHM_WORLD             FWHM assuming a gaussian core                              [deg]
#  11 ELONGATION             A_IMAGE/B_IMAGE                                           
#  12 ELLIPTICITY            1 - B_IMAGE/A_IMAGE                                       
         1 -14.5173    106.2103    105.3232   6.5848153348e+01   4.0883109598e+01      2.41283     1.247353 -35.54  0.009293838    2.174    0.540
         2 -13.3710     65.2318     51.5536   6.3500289821e+01   5.9157482490e+01     1.251642     0.774331 -18.60  0.005872911    1.949    0.487
         3 -15.1656      6.4304     68.5509   9.7385766475e+01   6.2586002822e+01      1.41414    0.8384559 -63.26  0.005960773    1.619    0.382
         4 -14.3539    166.2001     28.3659   3.1078373757e+01   3.9768918204e+01     1.335872    0.7955315  82.99  0.007142934    1.694    0.410
         5 -14.2406    120.8054     36.8920   4.1165637521e+01   4.9325061969e+01     1.574621    0.5535777  55.02  0.006212548    2.367    0.577
         6 -14.5377    146.9352     30.0390   3.4266504834e+01   4.3997000779e+01     1.419011    0.6453517  67.85  0.006332918    2.031    0.508
         7 -13.5756      2.7790     10.2436   8.0347499414e+01   7.4295852168e+01    0.6878916    0.4980529 -38.80  0.004619571    1.477    0.323
         8 -13.3124      9.0644      3.1354   7.1889801554e+01   7.4736749666e+01    0.7517756      0.40678  39.37  0.004080229    2.436    0.589
         9 -15.9749     12.2225     22.1012   7.9192307104e+01   7.1528141159e+01     1.952875     1.062592 -20.05  0.008386068    1.763    0.433
        10 -14.0029     24.5762     13.4894   6.7119618770e+01   7.1408594328e+01    0.8748074      0.28611  32.77  0.003755208    2.656    0.624
        11 -12.2943     45.8362     33.4102   6.4918786973e+01   6.5376970208e+01    0.5411431    0.4557256   2.64   0.00305045    1.082    0.076
        12 -13.1530    120.6619     25.7132   3.7634729273e+01   5.0623578977e+01    0.8215832    0.4995234  39.92  0.004228459    1.715    0.417
        13 -13.5258    188.3772     24.7092   2.7665311932e+01   3.5310475317e+01      1.22336    0.4841504 -56.47  0.005431586    2.879    0.653
        14 -13.2848    187.5439     11.1996   2.4724434373e+01   3.6851060490e+01    0.8041975    0.4522912 -45.67   0.00483737    1.687    0.407
        15 -13.1546     55.5595     26.9425   5.7628827719e+01   6.4624277834e+01    0.6937457    0.3772516  42.02  0.003497701    1.608    0.378
        16 -12.2406     46.7523     20.2378   5.8557235675e+01   6.7066137243e+01    0.4422908    0.2650377  25.30  0.002376127    1.509    0.337
        17 -13.0892     86.2182     14.4210   4.1658723670e+01   5.9696074197e+01    0.6796024    0.4459538 -59.41  0.003484451    2.345    0.574
        18 -15.1756     98.8364     11.1606   3.7304966579e+01   5.7118320170e+01     1.551622    0.7593008  63.57  0.007260082    1.754    0.430
        19 -12.3990     70.1529     15.9278   4.7173480555e+01   6.3036658107e+01    0.3680955    0.3157503  74.33  0.001926728    1.492    0.330
        20 -12.1006     59.2265     16.1384   5.1268213946e+01   6.5234221219e+01    0.3684292    0.3006965  47.38   0.00231586    1.257    0.204
        21 -12.8623    224.3686      4.5099   2.0675948099e+01   3.0163575458e+01    0.2978531    0.2363574  35.25  0.002185864    2.028    0.507
        22 -13.5416    214.9358     10.0648   2.2344026041e+01   3.1417043924e+01    0.5064222    0.2804986 -65.27  0.001522185    1.608    0.378
        23 -11.9058     46.8666     12.8574   5.4963115105e+01   6.7930421282e+01    0.2991888    0.2373149  42.40  0.001377019    1.301    0.231
        24 -14.0169     40.8618      4.2294   5.3381996290e+01   6.9928754950e+01     0.808337    0.4563528  38.28  0.003819084    1.401    0.286
        25 -11.2792     74.9243      8.1800   4.2338575429e+01   6.2753387093e+01    0.3349774    0.1785787  -8.19  0.001084322    2.496    0.599
        26 -10.9662     59.2431      7.7935   4.7406032769e+01   6.6079972772e+01    0.2600718    0.1173529  35.27  0.001164672    2.045    0.511
        27 -12.2686    119.4747      3.0863   3.0642148146e+01   5.2956013859e+01    0.5167636    0.2577795  88.74  0.002335193    2.527    0.604
        28 -10.7366     66.9520      3.7408   4.2874574285e+01   6.4841841565e+01    0.1804609    0.1337367  49.08 0.0004733976    1.109    0.098
        29 -12.3139    153.1817      8.5471   2.7593245571e+01   4.4673772897e+01    0.2443343    0.2136521  73.82 0.0007873051    1.102    0.092
        30 -11.1882     81.1930      1.2973   3.7739095493e+01   6.1926295485e+01      0.49579          nan  56.40  0.001252892    6.397    0.844
        31 -11.3095     61.3049      1.4488   4.3695573693e+01   6.6213880393e+01    0.3411563   0.09993539  55.48    0.0013609    2.749    0.636
        32 -11.1403    169.3880      1.5052   2.4138578964e+01   4.1640677950e+01    0.2461957   0.09644561  73.33 0.0009828798    2.138    0.532
        33 -10.9649    177.9630    167.4766   6.1801482236e+01   1.4369977895e+01    0.2130724     0.135335  34.23  0.001035304    1.603    0.376
        34 -11.8854     51.4590    248.9184   1.0502363445e+02   1.5190939241e+01    0.3394743    0.2212997 -85.28  0.001975885    1.816    0.449
        35 -12.6323      2.9955    249.1994   1.1564715601e+02   1.9653730959e+01     0.469254    0.3342708  62.11  0.002585265    1.199    0.166
        36 -13.5483      9.5056    245.3639   1.1411709622e+02   1.9881017099e+01     0.774974     0.380236  53.16  0.003437288    1.749    0.428
        37 -10.6478    192.5322    164.5094   5.8176636456e+01   1.2566151233e+01    0.1385608    0.1204572 -16.14 0.0008096966    1.014    0.013
        38 -11.1307    249.5141    199.0328   5.4459282983e+01  -7.8919696527e-01    0.1821502   0.09220811 -36.01  0.001037782    1.609    0.379
        39 -11.8878     76.9574    156.6917   8.6912520421e+01   3.3517210383e+01    0.3923804    0.2870339  17.46  0.001179274    1.383    0.277
        40 -12.8342     73.4952    153.1958   8.7392544251e+01   3.4886158539e+01    0.7240411    0.4940212  16.50  0.002626508    1.522    0.343
        41 -11.8622    188.8787    155.9062   5.7158932637e+01   1.4755476586e+01    0.2257662    0.1780744 -10.16  0.001241914    1.266    0.210
        42 -11.1921    103.2319    150.0098   7.7437969343e+01   3.1102191590e+01    0.3524401    0.2229598 -25.30   0.00135711    1.946    0.486
        43 -12.2255      7.5398    146.2358   1.0815288725e+02   4.3179653478e+01    0.7792428    0.3129027 -54.75  0.003332371    2.166    0.538
        44 -12.0382    246.0954    149.0486   4.6055846916e+01   7.2196335659e+00    0.2813805    0.2077869 -45.49  0.001834272    1.332    0.249
        45 -11.8269     60.5792    147.2140   9.0583476319e+01   3.8119797783e+01    0.4334231    0.3015846   1.84  0.002000145    1.626    0.385
        46 -11.8732     40.6170    137.1554   9.5774028347e+01   4.2975637268e+01    0.3259621     0.210383  51.31  0.001496693    1.816    0.449
        47 -11.6939    246.6671    136.6383   4.3672494933e+01   9.0536938422e+00    0.2518208    0.1157466  51.69    0.0012574    2.989    0.665
        48 -11.9373     45.0982    132.7515   9.3448093178e+01   4.3658698689e+01    0.5688806    0.3376358 -86.42  0.002328491    2.339    0.573
        49 -12.1738    135.7741    132.7189   6.4281067347e+01   2.9142684766e+01    0.4120762    0.2332134  45.24 0.0005218763    1.844    0.458
        50 -11.6262    134.9867    125.6222   6.2792815044e+01   3.0816076713e+01    0.2895194     0.233151 -48.34   0.00095536    1.303    0.233
        51 -12.8149     28.4140    245.8442   1.1001997512e+02   1.8109320385e+01    0.4426024    0.3159239  56.89  0.002850279    1.260    0.207
        52 -13.4561    108.8686    123.8349   6.9785831513e+01   3.6263275142e+01    0.8018448    0.6232434  17.74   0.00382297    1.329    0.248
        53 -13.3284    111.7076    116.4211   6.7072431757e+01   3.7388324540e+01    0.5816111    0.3771154  34.92  0.001938292    1.503    0.335
        54 -12.3214     78.6133    110.4399   7.6460780753e+01   4.4724691996e+01    0.5034047     0.389554  67.09  0.001883226    1.801    0.445
        55 -12.9609     28.7161    121.7553   9.7642232361e+01   4.8057690052e+01    0.4142273    0.3316406 -41.33  0.002209593    1.154    0.134
        56 -12.6939     84.5840    114.9246   7.5481924665e+01   4.2675479736e+01     1.007608    0.4913132  21.99  0.003587424    2.495    0.599
        57 -10.9896    181.3139    120.6744   5.1034974950e+01   2.2651376431e+01    0.1386116    0.1105189 -75.26  0.000704242    1.666    0.400
        58 -11.9444      4.4480    119.4123   1.0640543318e+02   5.0222993385e+01    0.5667088    0.1615993   9.93  0.001971068    3.929    0.745
        59 -12.4190     49.6068     98.7100   8.4690115860e+01   5.1708715359e+01    0.8980786    0.4902111  12.51  0.003751451    2.048    0.512
        60 -12.3245     48.9978     93.1738   8.3562325741e+01   5.3099726592e+01    0.5326712    0.3873583  23.82  0.002699976    1.354    0.261
        61 -11.5778     35.4414     86.4767   8.7753262340e+01   5.6212755254e+01    0.3351788    0.2254721 -13.91 0.0005954929    1.522    0.343
        62 -12.6326     42.4467     90.6852   8.5723005199e+01   5.4466673394e+01    0.4600261    0.3141285 -72.86  0.002169507    1.908    0.476
        63 -14.7032     24.5807     93.5460   9.4168302406e+01   5.5499270615e+01     1.475303     1.200885  -6.85  0.008397578    1.190    0.160
        64 -12.0927     36.6043     92.8625   8.8778622656e+01   5.4577773873e+01    0.4797639     0.272532   4.92   0.00141235    1.948    0.487
        65 -14.8225     15.9923    107.8223   1.0036829557e+02   5.2547582541e+01     1.509795     1.124462  57.30  0.007785033    1.643    0.391
        66 -13.3921      2.2957     97.0395   1.0435907197e+02   5.5953940532e+01    0.8659868    0.3064021 -74.90  0.003331872    2.832    0.647
        67 -11.3860    121.7169    112.1484   6.3046228564e+01   3.6332847915e+01     0.279893    0.2584087  54.23 0.0007208284    1.183    0.155
        68 -12.0349     62.9553    109.4466   8.2006134097e+01   4.7349172232e+01    0.6289613    0.4860902 -83.18  0.002988303    1.764    0.433
        69 -11.6864     41.9999    106.8682   8.9654234985e+01   5.0587853708e+01    0.3354492    0.2034616  17.22 0.0009125608    1.681    0.405
        70 -12.0431    136.1793    102.8747   5.6731363160e+01   3.5225813151e+01    0.5617962    0.2415139  46.96  0.001724612    2.312    0.567
        71 -12.6570    120.9497    101.3662   6.0405428005e+01   3.8725119085e+01    0.4015405    0.3026233  -9.41  0.001866044    1.628    0.386
        72 -11.4831    128.5827    101.8918   5.8451112036e+01   3.7022611341e+01    0.2759385    0.2484326  88.11  0.001095073    1.341    0.254
        73 -12.0534     60.9869     97.5076   7.9784781388e+01   5.0474542252e+01    0.4163208    0.3380789  58.15  0.002093219    1.586    0.370
        74 -11.3505     89.8795     97.4812   6.9036163981e+01   4.5699417108e+01    0.3092816      0.25249 -87.77  0.001269973    1.784    0.439
        75 -12.8570    136.0480     95.0148   5.4674657506e+01   3.6760906146e+01     0.524508    0.3652915  44.49  0.002511427    1.395    0.283
        76 -11.1372     81.5570     93.3166   7.0796962157e+01   4.8111797878e+01    0.3476596    0.2145915  -1.41  0.001320436    2.511    0.602
        77 -12.3600    188.1127     84.3012   4.1451255090e+01   2.7492190987e+01    0.4943566    0.2054668  42.51  0.001927779    3.113    0.679
        78 -11.8292    158.7802     65.0955   4.1730364090e+01   3.6738500187e+01    0.7778073    0.2594416 -46.61  0.002719316    3.416    0.707
        79 -13.3160    164.1248     71.4451   4.2403760601e+01   3.4593259937e+01     1.197245    0.4705288  49.76  0.004762104    2.507    0.601
        80 -14.0381    169.4148     76.9016   4.2831677649e+01   3.2591313610e+01     1.239777     0.451425  52.07  0.004795062    2.672    0.626
        81 -11.8653    158.0155     83.4933   4.6672672609e+01   3.4010443249e+01    0.3416505    0.2433241  62.74 0.0007287756    1.483    0.326
        82 -12.8780    161.4451     79.9725   4.5089106426e+01   3.3838782561e+01    0.5827182    0.3709262  32.32   0.00202876    2.015    0.504
        83 -12.7867    105.9818    246.7074   9.2019507016e+01   9.2480163425e+00     0.259528    0.1979966 -74.15  0.001511641    1.798    0.444
        84 -13.6115     54.3374     67.7169   7.3848358296e+01   5.7957918136e+01     1.937227    0.6923521  30.62  0.007079368    2.691    0.628
        85 -13.4987     91.8322     57.7531   5.5970563131e+01   5.2907152079e+01    0.5932082    0.4767076  32.16  0.002805388    1.129    0.114
        86 -12.9579     54.3503     81.4377   7.8084186033e+01   5.5062810690e+01    0.5847138    0.4783956 -66.17  0.003078402    1.554    0.357
        87 -14.0953     61.2128     75.4654   7.3375744635e+01   5.5318817172e+01    0.7936901    0.5431329 -18.94  0.001291738    1.598    0.374
        88 -13.1440     71.3153     74.8383   6.9084683404e+01   5.3775458515e+01    0.7128462    0.4507026   4.73  0.002538705    2.106    0.525
        89 -12.3495     77.1708     73.0924   6.6272568801e+01   5.3072968865e+01    0.4956712    0.3251002 -10.96  0.001467559    2.001    0.500
        90 -12.2551    213.4021     78.8540   3.6614231087e+01   2.3345978999e+01    0.3798627    0.1677027  69.20  0.001626053    3.174    0.685
        91 -12.5770    135.6120     79.7001   5.0573353081e+01   3.9615241775e+01    0.6241847    0.3511837  49.46  0.002070992    1.695    0.410
        92 -11.8036    113.9861     79.7124   5.6226708133e+01   4.4378326263e+01    0.3797953    0.3425847 -47.40  0.001597355    1.218    0.179
        93 -11.3030     42.5107     79.4838   8.2730715810e+01   5.7037010717e+01    0.2978454     0.206943 -37.47  0.001037116    1.341    0.254
        94 -11.2223     41.6199     76.1793   8.2200181417e+01   5.7878361705e+01    0.2919072     0.196792 -38.64 0.0008043759    1.384    0.278
        95 -11.9496     60.5031    246.0017   1.0269610578e+02   1.4795443489e+01    0.2738751    0.1527503   5.05  0.001276846    2.443    0.591
        96 -13.3485     95.5197    110.0389   7.0532540189e+01   4.1876260792e+01    0.8561801    0.8517331   7.89  0.004699138    1.129    0.115
        97 -11.5220     27.3263     75.6533   8.8767358487e+01   5.9496707914e+01    0.4069597     0.271943  88.26  0.001841451    2.605    0.616
        98 -12.9066    199.2355     69.7097   3.6494422821e+01   2.7419205206e+01    0.5877808    0.3497151  45.95    0.0028854    1.976    0.494
        99 -11.4167    117.7257     72.2380   5.2945973411e+01   4.4876854186e+01    0.2631209    0.2185961  40.62 0.0004677327    1.123    0.109
       100 -12.6563    134.5723     66.2234   4.6981256017e+01   4.2061618391e+01    0.7402758    0.4814916  33.43  0.003074798    1.771    0.435
       101 -10.5062    130.3186     61.6772   4.6628148944e+01   4.3733980103e+01    0.2249732    0.1453336 -40.15 0.0008975078    1.657    0.397
       102 -11.3918    214.4758     71.4811   3.4927446765e+01   2.4195050090e+01    0.1212703    0.1063546 -58.95 6.345477e-05    1.004    0.004
       103 -12.3154     31.5040     62.8930   8.3100675687e+01   6.1885593557e+01    0.5461444    0.3651341 -67.46  0.002711854    2.068    0.516
       104 -11.7671     24.8848     59.1777   8.5353156822e+01   6.3330185249e+01     0.544042    0.2823933 -44.57  0.002102559    1.721    0.419
       105 -11.7129     99.8305     65.0422   5.5863662527e+01   5.0003119848e+01    0.3857542    0.2888592  -9.41  0.001918839    1.596    0.373
       106 -12.8124     78.9981     60.4953   6.1365301367e+01   5.5047181495e+01    0.5456142    0.4835362 -41.65   0.00275955    1.309    0.236
       107 -13.0141     82.2139     54.3334   5.8039087146e+01   5.5445517615e+01    0.6019692    0.4793636  19.95  0.002054879    1.204    0.169
       108 -11.4177    200.1724     61.3140   3.4508125787e+01   2.8399869811e+01    0.1878531    0.1489772  49.60 0.0008240903    1.435    0.303
       109 -13.3742    177.7843     57.2281   3.6617135251e+01   3.3652816713e+01    0.7439271    0.4760457 -52.19  0.003108663    1.576    0.366
       110 -11.3831     39.1384     60.0772   7.8402214821e+01   6.1584307873e+01    0.2849692    0.2199497  71.32  0.001415905    2.339    0.573
       111 -11.2799    111.5151     58.9772   5.0512208470e+01   4.8421019644e+01    0.2768649       0.2165  32.37 0.0006266133    1.264    0.209
       112 -14.5856    120.4951     54.5730   4.6806387373e+01   4.7043335562e+01     0.981891    0.5957375  49.89   0.00209836    1.484    0.326
       113 -13.5854     87.2271     65.1393   6.0016313699e+01   5.2606533722e+01     1.112533    0.6252992  20.18  0.004329043    2.547    0.607
       114 -11.4307     17.6700     55.3889   8.8058406475e+01   6.4754587529e+01    0.3227364    0.1898786 -55.91  0.001669578    1.723    0.420
       115 -13.6328    103.1408     50.2848   4.9985280091e+01   5.1599601643e+01    0.9996597    0.5812966 -55.00  0.002593534    2.543    0.607
       116 -13.1811     97.8898     50.1348   5.1462753871e+01   5.2783041858e+01    0.5629197    0.4095527 -49.48  0.002222789    1.686    0.407
       117 -11.5223     37.1898     53.6008   7.7159575121e+01   6.3106759525e+01    0.3853809    0.1704861  22.79  0.001640119    2.210    0.547
       118 -11.3084     38.1889     50.5802   7.5572880744e+01   6.3555728217e+01    0.3608669    0.1886277  17.01  0.001645644    1.953    0.488
       119 -11.8405    135.9679     49.6795   4.1864371640e+01   4.4149698914e+01     0.390439    0.2452367  39.66  0.001747893    1.715    0.417
       120 -10.6421     23.5216     49.9832   8.3130673743e+01   6.5340578632e+01    0.1843904    0.1178871 -44.22 0.0004551379    1.479    0.324
       121 -11.7178    155.2874     48.6533   3.7981982374e+01   3.9823721065e+01    0.2867303    0.1999462 -81.23 0.0008060251    1.710    0.415
       122 -12.8036    158.5699     43.4277   3.6056021479e+01   3.9741622810e+01    0.8880755    0.3568575  47.50  0.003631009    2.709    0.631
       123 -13.0029    204.9590     39.8542   2.9292051304e+01   3.0169324787e+01    0.9567183    0.3987366  89.69  0.003453389    4.708    0.788
       124 -12.5648    213.0246     42.9664   2.9134577231e+01   2.8199971140e+01    0.4469023    0.2145801  57.50  0.002021556    2.203    0.546
       125 -13.0963    219.7269     41.5692   2.8208593763e+01   2.7078249085e+01    0.7247695     0.366511 -83.97  0.003422971    2.583    0.613
       126 -12.6829      4.1058     43.3006   9.2205676407e+01   6.8178643073e+01    0.5529165    0.3478396 -17.11   0.00319326    1.366    0.268
       127 -12.1770     11.6959     43.4739   8.7716585939e+01   6.7650147617e+01    0.4756125    0.2282294  -3.75  0.002033874    2.217    0.549
       128 -12.9425    171.2182    242.5686   7.6560983670e+01   1.6927322077e+00    0.3171799    0.2803148 -82.78  0.001951715    2.097    0.523
       129 -12.3339    109.8359     41.9002   4.5375666146e+01   5.1239413907e+01    0.5277542    0.1704613  52.99  0.001225112    2.616    0.618
       130 -12.9838    100.8298    238.5768   9.2284054993e+01   1.1465093175e+01    0.4462191    0.2660128   8.61  0.002157143    1.880    0.468
       131 -13.6664     92.1238    230.5359   9.3457153529e+01   1.4194609864e+01    0.5011377    0.4637818   0.28  0.003158714    1.111    0.100
       132 -13.1100    139.6379     21.4207   3.2978480922e+01   4.6605331156e+01    0.9138759    0.2682637  64.69   0.00324659    2.846    0.649
       133 -12.3251     75.9668     37.0093   5.3796018478e+01   5.9306221788e+01     0.401109     0.228669  44.09  0.001059619    1.516    0.341
       134 -11.7155     70.6116     36.0776   5.5387409615e+01   6.0513846344e+01    0.3038446    0.2856115   2.11 0.0007687928    1.191    0.161
       135 -12.3771    242.3494     36.0369   2.5268752920e+01   2.3615464035e+01    0.4237179    0.2008293  75.98  0.002105838    2.247    0.555
       136 -13.1369    132.3201     32.7493   3.7559335626e+01   4.7111116478e+01    0.5693749    0.3725957  57.77  0.001746799    1.330    0.248
       137 -12.6511     24.5997    216.8225   1.0904885812e+02   2.4648620790e+01    0.6518995    0.3166102  47.09  0.003226561    1.876    0.467
       138 -11.5248     13.6822    222.6292   1.1203344217e+02   2.4295558325e+01    0.3062318    0.1688709  75.51   0.00131206    1.870    0.465
       139 -13.7898     26.3668    226.4816   1.0927471588e+02   2.2354550972e+01    0.8385537    0.3958088 -50.88  0.004035396    2.490    0.598
       140 -13.8994     20.4184    224.0782   1.1053213438e+02   2.3408524520e+01    0.5786312     0.527998 -77.63   0.00234989    1.180    0.152
       141 -11.1434     35.0118     34.7203   7.1021446116e+01   6.6781327825e+01    0.2542258    0.1673796  20.88 0.0006294334    1.324    0.245
       142 -13.2460     65.1311    223.3023   9.9442898131e+01   1.9030234442e+01    0.7883003    0.6604794  13.64   0.00473474    1.187    0.158
       143 -12.4209     41.3231     30.4689   6.5885440762e+01   6.6533891323e+01    0.5774998    0.3154213  -8.44  0.002521486    2.654    0.623
       144 -12.9233     59.3664    212.7514   9.9832527870e+01   2.2051633548e+01    0.3928933     0.237207 -57.49  0.001141108    1.747    0.428
       145 -13.6425     64.4333    214.3494   9.8676184911e+01   2.1104660894e+01    0.5861267    0.4039067  54.56  0.003086214    1.524    0.344
       146 -11.4458    249.0236    216.0052   5.7397558764e+01  -3.1790468944e+00    0.1535284     0.139728 -31.91   0.00112092    1.701    0.412
       147 -12.8562    216.6515     28.3091   2.5821206889e+01   2.9189635672e+01    0.3025538    0.1747698 -44.35   0.00188483    1.538    0.350
       148 -11.1994    156.6785    214.6663   7.5376619493e+01   8.5273343941e+00       0.1476   0.09517027  -9.02  0.000704993    1.703    0.413
       149 -12.0408     63.4828     24.9653   5.3509150671e+01   6.3372636769e+01    0.4642076    0.2792284  21.70  0.001999314    1.801    0.445
       150 -11.0755     88.6890     26.3383   4.5564442157e+01   5.7912942765e+01    0.2417432    0.1705198 -19.57  0.001338532    1.646    0.393
       151 -11.7905     30.9935     25.2656   6.9077575978e+01   6.8830625599e+01    0.4054771    0.2088021  18.84  0.001704822    1.918    0.479
       152 -11.5042     36.3276     23.3452   6.5257618889e+01   6.8344037217e+01    0.3215308    0.2139761 -19.16   0.00185028    1.504    0.335
       153 -11.1592     51.5204     20.4980   5.6497917268e+01   6.6185378195e+01    0.2359521    0.1415672  39.01 0.0006693843    1.400    0.286
       154 -12.3173      4.0056    211.9484   1.1374175238e+02   2.7416098421e+01    0.4585567    0.2411062 -88.23  0.002430471    1.864    0.464
       155 -11.3277    223.6420     20.9049   2.3822037502e+01   2.8658771677e+01    0.1807364    0.1359734  72.14  0.001090569    1.381    0.276
       156 -11.5754     72.4799    206.9853   9.5692561965e+01   2.1821150132e+01    0.3034686    0.2734151 -70.73  0.001786037    1.215    0.177
       157 -11.7511     57.5042    202.8579   9.9262155411e+01   2.4558969233e+01    0.4773157    0.2386681  83.56  0.001754448    3.433    0.709
       158 -13.2141     16.0983    197.4284   1.0984557595e+02   2.9847261420e+01      0.85843    0.2194224 -61.68  0.003202298    3.352    0.702
       159 -10.9393    185.3357    203.6781   6.7108091709e+01   6.5090446238e+00    0.1200807    0.1098817  61.16  0.000667457    1.709    0.415
       160 -12.9522     22.0451    166.0902   1.0554914486e+02   3.7108935549e+01    0.4302952    0.3056522  -8.43  0.000994724    1.641    0.390
       161 -13.3882     30.0874    169.2177   1.0343891706e+02   3.5645711883e+01     1.149986    0.5807278 -30.94   0.00431902    2.610    0.617
       162 -13.5818     22.0480    181.0765   1.0694317728e+02   3.3339433805e+01    0.7297297    0.4420966 -61.28  0.003156068    1.584    0.369
       163 -15.4401      6.9990    182.0544   1.1119739735e+02   3.4214827627e+01      2.39659      1.13644 -78.65   0.01134534    1.985    0.496
       164 -13.0808     40.5022    195.0998   1.0309913865e+02   2.8227427587e+01    0.4049407     0.266766  87.82  0.002053451    1.696    0.410
       165 -14.2059     15.8515    174.7825   1.0816925098e+02   3.5385953792e+01    0.9198776    0.5708904  74.67  0.004661034    1.724    0.420
       166 -11.3396    200.8489    191.7692   6.1772777423e+01   6.4390682352e+00    0.2251751    0.1836013  41.50  0.001161245    1.602    0.376
       167 -11.4210    206.2661    190.7288   6.0527402375e+01   5.8687846207e+00    0.2309658    0.1481786 -37.34 0.0009871685    1.437    0.304
       168 -11.3644     49.0934    181.7002   9.9197822216e+01   3.0633879203e+01    0.2892187    0.2024649 -57.85  0.001475809    1.426    0.299
       169 -11.6449    198.4993    181.4945   6.0310757946e+01   8.5790975000e+00    0.2248749     0.121669  44.50  0.001037958    2.346    0.574
       170 -12.1875    124.2179    166.7345   7.4817444906e+01   2.3638082603e+01    0.5410827    0.4087722 -74.32  0.002488523    1.872    0.466
