#   1 NUMBER                 Running object number                                     
#   2 MAG_AUTO               Kron-like elliptical aperture magnitude                    [mag]
#   3 X_IMAGE                Object position along x                                    [pixel]
#   4 Y_IMAGE                Object position along y                                    [pixel]
#   5 X_WORLD                Barycenter position along world x axis                     [deg]
#   6 Y_WORLD                Barycenter position along world y axis                     [deg]
#   7 A_WORLD                Profile RMS along major axis (world units)                 [deg]
#   8 B_WORLD                Profile RMS along minor axis (world units)                 [deg]
#   9 THETA_WORLD            Position angle (CCW/world-x)                               [deg]
#  10 FWHM_WORLD             FWHM assuming a gaussian core                              [deg]
#  11 ELONGATION             A_IMAGE/B_IMAGE                                           
#  12 ELLIPTICITY            1 - B_IMAGE/A_IMAGE                                       
         1  -9.7447    141.7238     20.0558   7.5542182782e+01   4.7272549383e+01    0.4287158    0.2443006   8.67  0.001595254    2.781    0.640
         2  -9.0895    229.6386      9.0532   6.0810825325e+01   2.7204189778e+01    0.1723278    0.1453728 -69.62 0.0004720607    1.099    0.090
         3  -9.7153    211.6846      8.9438   6.2538682642e+01   3.1440310644e+01    0.1796917    0.1495183 -65.85 0.0006689369    1.144    0.126
         4  -8.7904    139.5166      5.9626   7.1472226634e+01   4.9146035110e+01    0.1785597   0.09882598  20.07 0.0008096054    2.510    0.602
         5 -10.0172    232.2974    238.2443   1.1051726394e+02  -9.9331737331e+00    0.3282102    0.2440064  69.35  0.001787238    2.628    0.619
         6 -10.1331    240.0536    222.0897   1.0629804611e+02  -8.9818059981e+00    0.4897943    0.3255942  53.47  0.002680621    2.037    0.509
         7 -10.3418    233.7749    247.3379   1.1176952727e+02  -1.1328839198e+01    0.4031772    0.3483791  45.94  0.002822072    1.472    0.321
         8 -11.7597    248.9420    242.4560   1.0829766629e+02  -1.3006133210e+01    0.7621589    0.2809491 -34.85  0.003644798    2.874    0.652
         9 -10.9916    248.3329    232.6615   1.0671448256e+02  -1.1689111070e+01     0.682198    0.2708471 -38.67  0.003235757    2.763    0.638
        10 -11.3211    242.8090    246.8187   1.1009687705e+02  -1.2629141428e+01     0.508542    0.3343765 -25.17  0.001961432    1.585    0.369
        11 -10.5665    241.1592    239.3192   1.0912504781e+02  -1.1448479369e+01    0.3238812    0.2422321  -1.33  0.001119004    1.255    0.203
        12  -8.8228    195.5041    239.5249   1.1748073144e+02  -4.0236619105e+00    0.1271495    0.1070382  35.11 0.0002020597    1.039    0.037
        13 -10.0785    216.7252    234.7689   1.1275963706e+02  -6.9316814509e+00    0.3839672    0.2721329 -64.01  0.002047179    2.534    0.605
        14  -9.0708    159.2257    237.9669   1.2412122174e+02   2.5666754241e+00    0.1488055    0.1085187 -52.39 0.0004825166    1.625    0.384
        15  -9.5151    204.5240    236.0566   1.1523612472e+02  -5.0581440577e+00    0.2992479    0.2107159 -69.15  0.001547232    2.612    0.617
        16  -8.7015    189.5273    237.0820   1.1821869414e+02  -2.6229666264e+00    0.1656047    0.1280602 -43.51 0.0006913504    1.529    0.346
        17  -9.4415     49.7922    235.8567   1.4410913993e+02   2.0223006822e+01    0.1641932    0.1347099  84.01   0.00076928    1.208    0.172
        18 -10.2351    237.6024    230.9945   1.0831986030e+02  -9.8077907699e+00    0.4095866    0.3112128 -85.01  0.002027961    3.436    0.709
        19  -9.2987    195.2955    232.9746   1.1646835650e+02  -3.0027949607e+00    0.2443644    0.1954637  76.38  0.001416338    1.805    0.446
        20  -8.9694    186.1533    230.7463   1.1785058429e+02  -1.0416287014e+00    0.2035798    0.1375623  77.15 0.0009394336    2.744    0.636
        21  -9.0150    157.4713    230.9956   1.2344078791e+02   4.0582088037e+00     0.180453     0.131683 -53.70 0.0007791897    1.596    0.373
        22  -9.2593    223.2600    227.4067   1.1029454879e+02  -6.9752140814e+00    0.1875566    0.1566899 -58.66  0.000798596    1.730    0.422
        23  -9.3870    149.8667    226.5874   1.2427684286e+02   6.1998466667e+00    0.2521784    0.1750019 -79.62  0.001314483    1.957    0.489
        24  -9.3355    200.1373    224.8873   1.1419874432e+02  -2.6048674320e+00     0.253276    0.1847207 -55.81  0.001412468    1.812    0.448
        25  -9.2588    161.5336    225.9731   1.2188538568e+02   4.1966102940e+00    0.1850769    0.1334177 -51.43  0.001032766    1.599    0.374
        26  -9.3979    217.1850    224.3564   1.1088640626e+02  -5.5016553568e+00    0.2654932    0.2180479  84.20  0.001107949    2.019    0.505
        27  -9.3135    181.4809    225.0204   1.1782355722e+02   7.2843368759e-01    0.2598159    0.1678595  53.52  0.001106147    1.584    0.369
        28  -9.6428    229.4948    222.5144   1.0828554100e+02  -7.3132425053e+00    0.2601944    0.2133651 -29.05  0.001653913    1.312    0.238
        29 -10.0476    226.4699    219.5092   1.0830095744e+02  -6.3679926874e+00    0.3117515    0.2572377 -25.97  0.001267947    1.269    0.212
        30  -9.5257    192.0609    220.7192   1.1504350534e+02  -4.8605326090e-01    0.2667389    0.1972835 -64.46  0.001437964    1.898    0.473
        31 -10.7936    248.5334    215.8474   1.0364929339e+02  -9.4679709996e+00    0.5823459     0.355976 -44.43  0.003162815    2.019    0.505
        32 -11.1894    231.7547    187.2029   1.0114425568e+02  -2.2415185386e+00    0.4797339    0.3378034 -36.95  0.001964195    1.418    0.295
        33  -9.6492    228.9033    200.5734   1.0431220176e+02  -3.8925589211e+00    0.2628517    0.2052638  -6.99  0.001083042    1.299    0.230
        34 -11.7335    224.3529    193.2419   1.0373104696e+02  -1.8819004941e+00    0.7222058     0.527877 -71.09  0.003488581    2.381    0.580
        35 -10.5542    236.1807    181.7789   9.9230546747e+01  -2.1543679619e+00    0.3190981    0.2865935  82.31  0.001677222    1.529    0.346
        36 -10.8321    249.8093    179.8722   9.6411922050e+01  -4.2854449007e+00     0.781132     0.235558 -36.75    0.0028275    3.154    0.683
        37 -11.4128    244.2637    202.7442   1.0193348245e+02  -6.8786108737e+00    0.7837029    0.5358229  66.58  0.003752059    2.822    0.646
        38 -11.8739    235.6532    197.4928   1.0247012597e+02  -4.5976918547e+00    0.8627319    0.6456917  72.66  0.004386207    2.340    0.573
        39 -11.9546    247.3945    192.7212   9.9420484824e+01  -5.8853078038e+00    0.8356276    0.5033375 -44.80  0.004274731    1.875    0.467
        40 -10.9572    238.4252    189.1342   1.0031162943e+02  -3.7595446505e+00    0.5362266    0.3859324 -24.95   0.00297115    1.350    0.259
        41 -11.2351    244.0001    183.0912   9.8090664315e+01  -3.7781234905e+00    0.7524533    0.5704758 -84.17  0.003674363    2.566    0.610
        42  -9.0346    210.8853    219.9673   1.1129760199e+02  -3.7413258299e+00    0.1929158    0.1619881  75.20   0.00112137    1.715    0.417
        43  -9.5160    232.9281    214.8892   1.0627252578e+02  -6.7782320896e+00    0.3172105    0.2054855 -40.41  0.001751349    1.707    0.414
        44  -8.8462    168.4997    216.0907   1.1891962086e+02   4.6607883504e+00    0.1889183    0.1368169 -50.13  0.001020595    1.561    0.359
        45  -9.9583    185.6917    213.2505   1.1500329160e+02   1.9440521171e+00    0.3478736    0.2550563 -49.72  0.001358726    1.564    0.361
        46  -9.5696    240.7047    213.5454   1.0461494290e+02  -7.8762733139e+00    0.2527808     0.203221  -0.85  0.001536209    1.137    0.121
        47 -10.0130    236.7582    208.4310   1.0436970181e+02  -6.4657813148e+00    0.3459494     0.279497 -62.87  0.001729279    1.905    0.475
        48  -9.2859    131.5717    212.6638   1.2588287979e+02   1.2126701927e+01    0.2526654    0.1288789 -50.08  0.001153258    2.194    0.544
        49 -11.0875    215.1847    210.1118   1.0869756617e+02  -2.9581400226e+00    0.4632454    0.4131821 -20.09  0.002894555    1.163    0.140
        50 -10.2787    204.5364    211.3796   1.1097349657e+02  -1.2321776055e+00    0.2776545    0.2208398  89.03   0.00147464    1.996    0.499
        51  -9.3202    175.7737    210.7486   1.1655173696e+02   4.2506994487e+00    0.3814744    0.2277601  70.55  0.001496131    3.135    0.681
        52 -10.1402    227.4792    205.2068   1.0546451717e+02  -4.3704431775e+00    0.2797771    0.2456834  -5.29  0.001673658    1.077    0.071
        53  -9.2725    191.8203    208.6957   1.1297902359e+02   1.5809305896e+00    0.2330918    0.1848079 -23.46  0.001131089    1.414    0.293
        54 -10.4833    197.0359    204.9369   1.1126024984e+02   1.2467715966e+00    0.4287037    0.2603748  59.44  0.001830025    2.179    0.541
        55  -9.6033    124.5459    206.1213   1.2635409164e+02   1.4703739209e+01    0.3209007    0.1681746  49.27   0.00147879    1.740    0.425
        56  -9.5389    164.1798    203.1642   1.1760152971e+02   7.8709931152e+00    0.1939975    0.1642522  76.78  0.001074158    1.322    0.244
        57  -9.5575    211.1190    201.6662   1.0789280618e+02  -8.3649903868e-01    0.2464188    0.2106564   8.08  0.001042121    1.149    0.129
        58  -8.7010    184.4767    201.4937   1.1313965977e+02   4.2570875555e+00    0.1399234    0.1283704  34.22 3.658129e-05    1.007    0.007
        59  -9.7012    203.1578    198.5157   1.0884505342e+02   1.1974279552e+00    0.2190761     0.194978 -74.64  0.001103337    1.435    0.303
        60 -10.4956    216.3782    195.4460   1.0568035937e+02  -7.7180018500e-01    0.3541072    0.2542679 -52.82  0.001842692    1.718    0.418
        61  -9.3756    184.5010    193.4890   1.1163629291e+02   5.7272779032e+00    0.1424451    0.1322605  31.19 4.941409e-05    1.021    0.021
        62  -9.4306    210.4860    190.0189   1.0575146393e+02   1.2761910877e+00     0.233369    0.1959474 -83.12  0.001000328    1.679    0.404
        63 -10.3547    208.7886    194.2774   1.0692151816e+02   8.5978658527e-01    0.5604746    0.3658556 -77.86   0.00208195    3.912    0.744
        64  -8.5819    191.3014    187.3594   1.0905531849e+02   5.5227910524e+00    0.1477703     0.111209   1.41  0.000703717    1.717    0.418
        65  -9.4033    225.2947    183.7332   1.0164550047e+02  -4.5959540589e-01    0.2334513    0.2208332 -52.14  0.001403139    1.244    0.196
        66  -9.4305    147.5160    179.4894   1.1686633913e+02   1.5938249824e+01    0.3027909    0.1457444 -50.62  0.001210584    2.166    0.538
        67  -8.5720    139.6524    180.3287   1.1877119089e+02   1.7311375550e+01    0.1557632    0.1108583  78.16 0.0003987591    1.758    0.431
        68  -9.1885    217.9828    177.7450   1.0180433618e+02   1.9865734194e+00    0.2551836    0.1819681 -51.54  0.001069977    1.615    0.381
        69  -8.7160     25.6828    178.6421   1.4358575351e+02   3.4933808269e+01    0.1166074   0.07876129 -52.21 0.0007044433    1.754    0.430
        70  -8.6808    211.5275    176.4961   1.0279654690e+02   3.4852895567e+00    0.1415893    0.1352128   7.44 0.0008099243    1.024    0.023
        71  -8.4402    166.6990    168.6557   1.1047454146e+02   1.4296312980e+01    0.1516785    0.1207758  -2.16  0.000703802    1.680    0.405
        72  -8.4129      9.4770    166.4998   1.4576715493e+02   3.9104896688e+01    0.1168312   0.08744733 -81.95 0.0002406709    1.052    0.050
        73  -8.6065    243.4508    155.5776   9.2406829006e+01   9.3044534545e-01    0.1376687    0.1272843 -23.14 0.0003518549    1.034    0.033
        74  -9.4974    229.2851    153.4385   9.4462018492e+01   4.1029204582e+00    0.2498067    0.1380251  42.59 0.0004844079    1.890    0.471
        75  -8.5955     39.7153    153.6472   1.3768690177e+02   3.9120224970e+01    0.1263819    0.0835671 -48.36     0.000702    1.662    0.398
        76  -8.6877    118.4588    152.5401   1.1833302630e+02   2.7657025554e+01    0.1484695    0.1403507 -84.59 0.0004306592    1.019    0.019
        77  -9.6328    132.6576    151.3202   1.1464400135e+02   2.5162004914e+01    0.1601793    0.1176852  82.50  0.000704989    1.722    0.419
        78 -10.0365    241.0419    149.2694   9.1449260621e+01   2.4986539447e+00      0.27152    0.2450004  77.87 0.0007045752    1.352    0.260
        79  -9.6766    245.1082    144.6278   8.9731310202e+01   2.5134164497e+00    0.2411644    0.2088551  36.91 0.0009914362    1.236    0.191
        80 -10.5699    248.5054    142.9988   8.8803112483e+01   2.1335424842e+00    0.3316901    0.2158763 -37.03  0.001660075    1.400    0.286
        81  -9.4896    235.4414    146.6122   9.1842692613e+01   4.0872014940e+00    0.2526329    0.2387558  55.15  0.001060535    1.170    0.145
        82  -8.8048    225.0000    146.9758   9.3808560963e+01   6.1644237902e+00    0.2430781   0.07992675 -39.35   0.00079727    2.907    0.656
        83  -9.8752    242.6849    138.9608   8.8885697730e+01   3.9909713953e+00    0.4637015    0.3054878 -88.55  0.001848678    3.101    0.677
        84  -9.0608     96.4827    135.4754   1.2034593851e+02   3.5600394636e+01    0.1460232    0.1343083 -73.15 0.0001669439    1.010    0.009
        85  -8.6927    226.3122    134.3238   9.0689155502e+01   8.2291489413e+00    0.1490939     0.115296   3.24 0.0004276858    1.657    0.397
        86  -8.7519    113.6513    134.6932   1.1573701808e+02   3.2706954038e+01    0.1502649    0.1206428 -11.19 0.0006726131    1.704    0.413
        87  -9.4015    235.9127    130.1227   8.8042604602e+01   6.9626158356e+00    0.2361636    0.2084599  62.19 0.0005235805    1.251    0.201
        88  -8.7125    248.4716    130.0000   8.5929511279e+01   4.4058621832e+00    0.2902793   0.08167551  51.24  0.000932701    3.918    0.745
        89  -8.9846    186.5873    128.6646   9.7076440243e+01   1.8241616003e+01    0.2934619    0.1510423 -37.08 0.0008067884    2.026    0.506
        90  -9.6342    200.8695    125.8610   9.3484333366e+01   1.5510747088e+01    0.4471311    0.2098301 -37.89  0.001667768    2.140    0.533
        91  -9.3428    231.1978    129.8291   8.8788973942e+01   8.0131735767e+00    0.2465792    0.2173573  35.67  0.001122042    1.221    0.181
        92  -9.2820    212.4955    123.5558   9.0692903785e+01   1.3304298436e+01    0.1495992    0.1452302 -37.79 1.286266e-05    1.024    0.024
        93  -9.6623    232.0365    121.1796   8.6642087447e+01   9.4119521459e+00     0.254336    0.2005483 -37.92 0.0005187425    1.190    0.160
        94  -9.4622    192.5181    118.5205   9.3352218809e+01   1.8903752700e+01    0.2925608     0.256638 -74.93 0.0008260377    1.229    0.186
        95  -8.3015    226.6980    117.2753   8.6641980443e+01   1.1295822722e+01     0.145367    0.1130321 -73.44 0.0002021003    1.539    0.350
        96  -9.8186    109.6813    115.4861   1.1226725931e+02   3.7852321969e+01    0.2754991    0.2246312  71.03  0.001386493    1.423    0.297
        97  -8.4633    166.0000    119.0850   9.9177012229e+01   2.5006312843e+01    0.2479971   0.08928952 -42.58 0.0004682233    2.760    0.638
        98  -9.1929    209.4825    114.1245   8.8969852645e+01   1.5794106621e+01    0.2374672    0.2045634 -73.87 0.0004568229    1.254    0.203
        99  -9.0737    153.3999    114.2637   1.0085296626e+02   2.8926157355e+01    0.2740028    0.1993744  74.61 0.0006909735    1.750    0.429
       100  -9.3681    241.7766    112.3140   8.2991161613e+01   8.9062059742e+00     0.210564    0.1770253  85.58 0.0007106843    1.362    0.266
       101  -9.7164     25.6487    111.3793   1.3500577919e+02   5.0128318956e+01    0.2229754    0.1677732 -32.66  0.001003034    1.506    0.336
       102  -9.1232    237.0637    107.3856   8.2597978911e+01   1.0796528346e+01    0.2427678    0.1989718 -25.37  0.001285034    1.294    0.227
       103  -8.8766    197.3257    106.9310   8.9486882892e+01   2.0031238211e+01    0.2207361    0.1911952 -36.66 0.0008714972    1.161    0.139
       104  -9.5951    228.5871    104.4171   8.3271054695e+01   1.3209958790e+01    0.2532212    0.2396137 -85.82 0.0005494783    1.078    0.072
       105  -9.1841    213.9880    104.8451   8.5872081368e+01   1.6486368269e+01    0.2215366    0.2020816   9.32 0.0004758489    1.275    0.215
       106  -8.8900    205.5131    105.4914   8.7571241858e+01   1.8358988932e+01     0.152596     0.146086 -62.60 0.0001281054    1.001    0.001
       107 -10.2196    246.7290    102.7532   8.0039000245e+01   9.5173453101e+00    0.3324189    0.2384045 -31.08 0.0009715958    1.403    0.287
       108  -9.6432    234.1837     94.6087   8.0050033864e+01   1.3680363152e+01    0.1989578    0.1782194 -10.03 0.0006150802    1.317    0.241
       109  -8.6125    171.6883     96.3514   9.1952891167e+01   2.8258679354e+01    0.1644817     0.121634 -75.42 0.0007045288    1.723    0.420
       110  -9.8711    206.1391     98.3912   8.5673887764e+01   1.9534004407e+01    0.3535976    0.2911605  48.87   0.00144465    1.270    0.213
       111  -9.4206    150.6806     92.9092   9.5739740094e+01   3.3932565753e+01    0.2158177    0.1990145 -50.06 0.0005176039    1.086    0.079
       112  -8.8202    250.3509     88.3074   7.6235432167e+01   1.1189028714e+01    0.1348513    0.1103496  14.30 0.0007043037    1.711    0.415
       113  -9.1594    227.4011     88.2381   7.9582557579e+01   1.6333388028e+01    0.2140395    0.1254215 -47.64  0.000948324    1.620    0.383
       114  -9.6096    218.2743     86.0176   8.0494462521e+01   1.8857785631e+01    0.2167416    0.1895071 -47.99  0.001141164    1.096    0.087
       115  -9.1244    172.2542     84.0907   8.8483552806e+01   3.0432905896e+01    0.2593617    0.1712329 -65.26  0.001071746    1.954    0.488
       116  -8.4869    196.3204     82.6651   8.3414195850e+01   2.4761185923e+01    0.1611402    0.1144564 -72.31 0.0006377716    1.703    0.413
       117  -9.1315    245.1080     80.8567   7.5258808649e+01   1.3564741926e+01    0.2255198    0.1732009 -69.23 0.0007488993    1.313    0.239
       118  -9.0501    249.9928     76.5070   7.3619707532e+01   1.3198656862e+01    0.2292548    0.1685465 -44.35  0.001240702    1.229    0.186
       119  -9.2231    240.2046     76.9050   7.5020853164e+01   1.5307425313e+01    0.2622388    0.1982032 -20.16   0.00132715    1.646    0.392
       120  -9.2658    157.9271     76.3407   8.9365034415e+01   3.5321272642e+01     0.276813    0.2107097 -51.46  0.001328841    1.381    0.276
       121  -9.3499    139.7549     74.7737   9.3109157762e+01   3.9885889640e+01    0.2467963    0.1133625 -48.46 0.0008916731    2.483    0.597
       122  -8.7069    208.3922     73.8226   7.9046257270e+01   2.3318700788e+01    0.2042019    0.1427277 -23.58 0.0006277811    1.722    0.419
       123 -10.4127    230.1711     71.6457   7.5187812915e+01   1.8466589945e+01    0.2530308    0.1778034 -50.92 0.0006528268    1.328    0.247
       124  -8.7974    107.3519     71.7069   1.0068543361e+02   4.7361446311e+01    0.1397446      0.11564 -89.17 0.0007030603    1.679    0.404
       125  -9.5584    239.4349     68.1394   7.3093792328e+01   1.6891001718e+01    0.2563711    0.1848453 -49.53 0.0007312289    1.261    0.207
       126  -9.0154    215.4068     69.2277   7.6777593320e+01   2.2370150008e+01    0.2131624    0.1245214 -48.32 0.0008785531    1.663    0.398
       127  -8.7816    188.0170     69.4965   8.1413732259e+01   2.9076018939e+01    0.2064416    0.1289588  89.87 0.0005822104    2.321    0.569
       128  -9.7067    245.5382     65.8432   7.1780919879e+01   1.5873710123e+01    0.2806661    0.2083381 -55.71 0.0007405003    1.213    0.176
       129  -9.9920     44.3034     67.5796   1.1948256688e+02   5.7702788084e+01     0.211611    0.1157997  33.34  0.001109704    2.100    0.524
       130  -8.8310    234.8415     66.1840   7.3250407349e+01   1.8253702834e+01    0.1793011    0.1698836  -6.93 0.0005657003    1.310    0.237
       131  -8.3328    176.5370     67.4985   8.3005862208e+01   3.2267351192e+01    0.1489253    0.1434392  75.70  0.000111525    1.020    0.019
       132  -9.5721    214.2095     61.9109   7.5132045720e+01   2.3826767551e+01    0.2232159    0.1816625 -68.58 0.0005914329    1.194    0.163
       133  -9.3444    202.0050     61.5080   7.6911825629e+01   2.6886878666e+01    0.2168275    0.1398373  65.01 0.0004861612    1.521    0.343
       134  -8.8985    174.2468     59.4061   8.1165790472e+01   3.4140673525e+01    0.2030382    0.1387846  72.25 0.0008180578    1.563    0.360
       135  -9.4321    231.6750     58.6815   7.1908208447e+01   2.0153513835e+01     0.133948    0.1101654  27.25 0.0003504082    1.675    0.403
       136  -9.3631    190.6743     53.8143   7.6720393592e+01   3.0889177964e+01    0.2889199    0.1427072 -24.08  0.001094669    2.701    0.630
       137  -8.7195    149.5440     52.4980   8.4099266546e+01   4.1260638070e+01    0.1442824    0.1369249  46.58 0.0001530985    1.015    0.015
       138  -9.2233    194.8268     48.9248   7.4748526879e+01   3.0571321976e+01    0.3476414    0.1704279 -41.41  0.001469995    2.022    0.506
       139  -9.1446    220.4950     44.9996   7.0103667770e+01   2.4824481724e+01    0.1981529    0.1335232 -36.56 0.0006577778    1.526    0.345
       140  -8.7171    189.7684     44.4246   7.4342112309e+01   3.2474400478e+01    0.2011666    0.1220691  52.78 0.0004844843    1.610    0.379
       141  -8.8404    132.4562     43.5368   8.5080622007e+01   4.6560230361e+01    0.1406583    0.1291926  33.42 0.0001126624    1.026    0.025
       142  -9.4726      5.3006     41.4728   1.2648924977e+02   6.5730276070e+01     0.175535    0.1262468 -70.07  0.001198515    1.810    0.448
       143  -9.1948    173.9174     40.3226   7.5811121602e+01   3.6997391704e+01    0.2101267    0.1765367  67.03  0.001157704    1.101    0.092
       144  -9.7131    105.3893     40.1793   9.0770806817e+01   5.2856305213e+01    0.1906879    0.1203553 -41.03 0.0009548704    1.743    0.426
       145  -9.1369     93.4601     40.4580   9.4266282538e+01   5.5128102880e+01    0.1314017    0.1178124   7.70 0.0008076765    1.026    0.025
       146 -10.2020    248.5537     38.0654   6.5274415968e+01   1.9269292261e+01     0.269955    0.2077832 -63.95 0.0008474576    1.119    0.106
       147  -9.2688    242.5914     37.7309   6.5826986677e+01   2.0657857510e+01    0.1759781      0.10901 -49.53 0.0003282836    1.456    0.313
       148  -9.6662    229.5513     37.0582   6.7122439068e+01   2.3767118242e+01    0.2605135    0.1848967  73.06    0.0006234    1.331    0.249
       149  -9.7204    218.3727     34.3944   6.7820522262e+01   2.6786441259e+01       0.2502    0.1524443 -40.60   0.00058806    1.619    0.383
       150  -9.0982    111.0388     35.0155   8.7454198730e+01   5.2391612024e+01    0.2046978    0.1677975 -72.41  0.001131698    1.730    0.422
       151  -8.2849    160.3058     34.3050   7.6463118644e+01   4.1148210695e+01    0.1429047    0.1014293  32.95 0.0004789756    1.603    0.376
       152  -9.1256    104.4873     34.5135   8.9013545354e+01   5.3800561858e+01    0.1329146    0.1191403  19.40 0.0008103669    1.013    0.013
       153  -9.7010    163.9534     31.4827   7.4981583543e+01   4.0601650418e+01    0.4688856    0.1729183 -44.29  0.001721734    3.085    0.676
       154  -8.7336    194.3173     29.6856   6.9766568023e+01   3.3284267837e+01    0.1449061   0.09666976 -70.82 0.0005565838    1.648    0.393
       155  -9.8501    221.1166     23.8524   6.5011497633e+01   2.7471416991e+01    0.1827281    0.1426341  59.72  0.001062737    1.344    0.256
       156  -9.5325     91.1421     23.4168   8.8651668374e+01   5.7771004170e+01    0.2052011     0.149668 -27.36  0.001218124    1.420    0.296
       157  -9.2954    206.2242     20.4671   6.5907334566e+01   3.1467030574e+01    0.2174403    0.1839111 -44.23 0.0005559498    1.267    0.211
       158  -9.8794    224.6250    245.3915   1.1308161331e+02  -9.6554431788e+00     0.247329    0.2077702 -61.46  0.001608777    1.889    0.471
       159 -10.4717    240.9618     18.3352   6.1772284604e+01   2.3529050611e+01    0.2463004    0.2031694  59.70 0.0007417955    1.410    0.291
       160  -8.5826    227.2224     18.0151   6.3030632791e+01   2.6733834154e+01    0.1538838    0.1019691 -37.93 0.0003831289    1.569    0.363
       161  -8.8671    131.6291     13.6913   7.5440892143e+01   5.0260630388e+01    0.1444058    0.0843206  35.39  0.000703415    1.766    0.434
       162  -9.3319    201.7457     11.4680   6.4222552732e+01   3.3563806364e+01    0.1890088    0.1049467  60.13 0.0009457389    1.641    0.391
       163  -8.6682    160.4996     10.5599   6.9432053108e+01   4.3730932232e+01    0.1330972     0.114954  67.10 0.0001659477    1.010    0.010
       164  -9.6930    146.5384    242.7199   1.2719114804e+02   3.9887577904e+00    0.2661221    0.1274922 -56.18  0.001284544    2.555    0.609
       165  -8.7013    201.4577    241.4810   1.1668167553e+02  -5.3227994430e+00    0.1264286    0.1044892  27.95 0.0001151392    1.027    0.027
