#   1 NUMBER                 Running object number                                     
#   2 MAG_AUTO               Kron-like elliptical aperture magnitude                    [mag]
#   3 X_IMAGE                Object position along x                                    [pixel]
#   4 Y_IMAGE                Object position along y                                    [pixel]
#   5 X_WORLD                Barycenter position along world x axis                     [deg]
#   6 Y_WORLD                Barycenter position along world y axis                     [deg]
#   7 A_WORLD                Profile RMS along major axis (world units)                 [deg]
#   8 B_WORLD                Profile RMS along minor axis (world units)                 [deg]
#   9 THETA_WORLD            Position angle (CCW/world-x)                               [deg]
#  10 FWHM_WORLD             FWHM assuming a gaussian core                              [deg]
#  11 ELONGATION             A_IMAGE/B_IMAGE                                           
#  12 ELLIPTICITY            1 - B_IMAGE/A_IMAGE                                       
         1  -9.3789     39.7320      7.4746   8.8210887713e+01   6.7165342258e+01     0.351293    0.2196955  28.11  0.001750828    1.320    0.243
         2 -10.3860     50.7599     36.2976   9.5482647912e+01   6.2215939287e+01    0.6618186    0.5271436 -66.03  0.003942677    2.372    0.578
         3 -10.6156     39.2548     29.7338   9.7419446407e+01   6.4656589804e+01    0.5398445    0.3089829 -40.45  0.003185179    1.919    0.479
         4 -11.8041     44.5687     21.3671   9.2085906414e+01   6.4989632820e+01    0.9536946    0.8694393 -86.25  0.006608292    2.099    0.524
         5 -12.3187    130.2980     17.2571   6.7429843880e+01   4.9222480926e+01     2.105163    0.8700718  60.31  0.009835767    2.002    0.500
         6 -11.3015    131.5063      3.4730   6.3270425671e+01   5.0171860664e+01     1.225299    0.3539566  63.35  0.005111918    2.687    0.628
         7 -12.1810    121.0404      3.8272   6.5134738917e+01   5.2425596326e+01     2.885366    0.3768092  61.27  0.009101152    4.733    0.789
         8 -13.9093    166.3173     11.5625   6.0391821883e+01   4.1642551576e+01     3.581572     1.571156  68.46   0.01754314    1.909    0.476
         9 -10.9490    155.4950     20.8566   6.4249630000e+01   4.3168637997e+01    0.7520044    0.3261864  68.69  0.003300145    2.100    0.524
        10  -9.7709    111.8375     15.7487   7.0572630504e+01   5.3377506899e+01    0.5637433    0.2103054  43.72  0.002467528    2.503    0.601
        11  -9.9011    117.2353     14.9816   6.9229723694e+01   5.2294189922e+01    0.8067896    0.2437589 -23.80  0.003133326    4.204    0.762
        12 -10.1881     71.6477      5.7589   7.6927586926e+01   6.2167372401e+01    0.4729152    0.3841124  44.71  0.002860565    1.191    0.160
        13 -10.8435     79.1590     12.2101   7.7232448602e+01   6.0235191487e+01    0.6556055    0.4622435  18.13  0.004220404    1.389    0.280
        14 -11.5991     84.6406      3.9101   7.2797260304e+01   5.9895405081e+01     1.293867    0.7322226  10.87  0.007190159    2.218    0.549
        15  -9.5034     93.7521     17.5678   7.5311045160e+01   5.6928957901e+01    0.3302823    0.2906042 -50.69  0.001669578    1.457    0.314
        16 -10.8961    248.7420     14.5659   5.2950716351e+01   2.3575018663e+01    0.7699257    0.2063039 -49.00  0.003522029    2.903    0.656
        17  -8.6839     63.5342     15.6173   8.3168051879e+01   6.2680861526e+01    0.3077109    0.2179102  80.91  0.001548419    3.487    0.713
        18  -8.3758     19.9739     14.1894   9.9288768450e+01   6.8897476739e+01    0.4061548    0.1979728 -11.92  0.002173724    2.490    0.598
        19  -9.3524     70.0881     14.3234   8.0632674276e+01   6.1680609860e+01    0.2487537    0.2298696 -74.41  0.001779846    1.630    0.386
        20 -10.0885    230.2638      7.3554   5.3055379672e+01   2.8109134309e+01    0.3625205    0.2009789 -34.92  0.002150529    2.119    0.528
        21  -9.8496     60.6618      2.8287   7.9044931121e+01   6.4325067496e+01    0.5175152    0.3164908  29.87  0.003312099    1.371    0.270
        22  -8.7858     54.7386      7.6253   8.2889294035e+01   6.4886965747e+01    0.3541027    0.2639048  89.27  0.001872828    3.701    0.730
        23  -8.1455     49.6669      6.6717   8.4235837019e+01   6.5772618854e+01    0.1953933    0.1151748   5.66  0.001180834    1.795    0.443
        24  -8.3393     52.1048      1.8778   8.1414109042e+01   6.5809843645e+01    0.2427675    0.1781005  12.66  0.001750801    1.168    0.144
        25  -8.4464     26.6820      3.0430   9.1526100652e+01   6.9339983292e+01    0.2310708     0.139138 -18.71  0.001592501    1.531    0.347
        26 -10.0734    249.9927      6.1718   5.1404545854e+01   2.4304617517e+01    0.5427458    0.1628878 -40.98  0.002662574    2.903    0.655
        27  -9.8018    217.9344      1.8209   5.2992851433e+01   3.1260398567e+01    0.2974608    0.1301289  80.50  0.001564251    1.995    0.499
        28  -8.6462     16.7177      1.7327   9.5310441631e+01   7.0652157513e+01    0.1902408    0.1206934  31.74 0.0009628334    1.603    0.376
        29  -8.5566     40.3522      1.7359   8.5511813418e+01   6.7612904195e+01    0.2787192     0.110157  40.42  0.001525455    2.124    0.529
        30  -8.9492    138.5653     78.0662   8.3206429541e+01   3.9095459394e+01    0.2880736    0.2026515  70.36  0.001179216    1.657    0.396
        31  -9.5534     48.3386     61.6368   1.0507587869e+02   5.8569230273e+01    0.4028327    0.2841282  23.86  0.002400641    1.423    0.297
        32  -8.4149     69.5262     60.9898   9.7406574300e+01   5.5635939087e+01    0.1990597    0.1223937 -39.45 0.0008885131    1.607    0.378
        33  -8.1196     75.7899     60.6017   9.5213136318e+01   5.4675277491e+01    0.1766084    0.1212738  45.93 0.0009428296    1.578    0.366
        34  -8.4756     92.9928     56.9825   8.8731874730e+01   5.2161752832e+01     0.212512    0.1905948  22.47 0.0009578789    1.023    0.023
        35  -9.2871    198.9860     55.3161   6.6341883725e+01   2.8771151838e+01    0.2497195    0.2203251  63.48  0.000557363    1.235    0.190
        36  -8.8793     66.0533     53.6371   9.6152224477e+01   5.7378003965e+01    0.3899843    0.1638087 -48.96  0.001577534    3.206    0.688
        37 -10.1187     84.0213     47.8227   8.8386571283e+01   5.5195364378e+01    0.5937599    0.4757667  68.38  0.003387743    1.734    0.423
        38  -8.0953     23.2070     52.2316   1.1181675567e+02   6.2972426499e+01    0.1419286    0.1343388 -13.86 0.0008909286    1.336    0.252
        39  -7.5108     35.5021     52.5191   1.0700792968e+02   6.1669514479e+01    0.1225347   0.09912429 -15.62 0.0008103617    1.010    0.010
        40  -8.5429     97.5025     43.5165   8.3065956798e+01   5.3218686099e+01     0.217754    0.1249226 -18.08  0.001030493    2.204    0.546
        41 -10.1581      3.2089     40.3443   1.1651553374e+02   6.6572947951e+01    0.3686562    0.3251292   9.87  0.002534583    1.409    0.291
        42  -9.8253    184.2287    246.1237   1.0964059540e+02  -4.8935693303e+00    0.2463348    0.1608965  56.08  0.001245629    2.076    0.518
        43 -10.0673    161.3221    241.4883   1.1359679607e+02  -3.5533488701e-01    0.3665843    0.2173391  65.62  0.001504783    3.083    0.676
        44  -9.0501    200.0058    240.4885   1.0555737527e+02  -6.4149639906e+00    0.2657735    0.1453098 -10.49  0.001033394    3.463    0.711
        45 -10.6128    206.3089    224.4490   1.0151273662e+02  -4.6665267145e+00    0.4685237    0.2718805 -18.58   0.00213049    2.295    0.564
        46  -9.4801    195.9071     36.1113   6.2387279793e+01   3.2123486107e+01    0.2887157    0.2248168   2.01  0.001615026    2.154    0.536
        47  -8.5789     27.6545     35.4190   1.0427637967e+02   6.5224706049e+01    0.1968665    0.1542958 -12.58 0.0008736086    1.028    0.027
        48  -9.1667     12.2374     33.3638   1.1018650485e+02   6.7007488236e+01    0.3344037    0.2022388 -43.72   0.00209881    1.578    0.366
        49 -10.3459    224.8262     29.0527   5.7695388358e+01   2.6676552315e+01    0.4370036     0.343167  87.86  0.001805175    1.111    0.100
        50  -9.7946     86.1842     31.5415   8.2166742475e+01   5.6910922451e+01    0.2853037    0.1937595  25.77  0.001222987    1.448    0.309
        51  -9.8530    123.9983    205.9913   1.1603946871e+02   1.3456273999e+01    0.2048622    0.1929642  66.78  0.001156725    1.005    0.005
        52  -8.4617    238.7572    202.7699   9.1354191446e+01  -5.9334483122e+00    0.1868045    0.1027532  49.00 0.0008797566    2.430    0.589
        53 -12.6826    241.4334    132.9763   7.6976475028e+01   6.3855983925e+00     1.384483      1.23167  54.64  0.005767089    1.302    0.232
        54  -8.9450     40.9952    142.5000   1.2656617130e+02   4.1719867422e+01    0.1889735     0.138598  27.17 0.0005620068    1.597    0.374
        55  -9.5111     17.3534    126.4488   1.3073486242e+02   4.7848130146e+01    0.2930715    0.1648085  77.53  0.001332674    2.656    0.623
        56 -10.1214     75.5919     27.1159   8.3707632376e+01   5.9367920622e+01    0.5988685    0.1930554  45.97  0.002544397    2.691    0.628
        57  -9.0903    104.2322     25.5901   7.5444010889e+01   5.3994635091e+01    0.3747743    0.3540317  -7.06  0.002586682    1.180    0.153
        58  -7.6772      9.2912     26.3181   1.0896242502e+02   6.8302980401e+01    0.1138254   0.06385878 -17.99 0.0006227418    1.600    0.375
        59  -7.9028     22.9682    125.6751   1.2895882882e+02   4.7564809182e+01    0.1974037   0.09500608 -13.22 0.0007045246    4.460    0.776
        60 -11.3670     10.7467    141.4418   1.3475061823e+02   4.4794056573e+01    0.5926635    0.4527769 -45.06  0.003741695    1.345    0.257
        61  -7.8317     87.6608     22.6998   7.8669734818e+01   5.7608021227e+01     0.130128   0.08016725  26.93  0.000703588    1.666    0.400
        62  -9.8692     11.1068    118.5428   1.3132559166e+02   5.0172132966e+01    0.2860129     0.189221  72.35  0.001577387    1.963    0.491
        63  -8.4737     14.6247    114.7467   1.2963113192e+02   5.0793363920e+01    0.1761827    0.1046641 -71.60 0.0006777093    1.554    0.357
        64  -9.5974     17.1024    104.5357   1.2700931377e+02   5.2932832490e+01    0.3247982    0.2507998 -51.61  0.001633008    1.052    0.049
        65  -7.7272     19.5926     22.1628   1.0271094794e+02   6.7926289580e+01     0.154433   0.08224349 -25.76 0.0009373846    1.665    0.399
        66 -10.0578     46.9834    100.4648   1.1628987808e+02   5.0973372492e+01     0.494665    0.2639978 -64.74  0.002226101    2.136    0.532
        67  -8.0784     70.2816    102.3691   1.0918601863e+02   4.7451039370e+01    0.1492453    0.1014949 -24.93 0.0007014534    1.693    0.409
        68  -8.3269      8.4570     16.7615   1.0564795561e+02   6.9698847671e+01    0.2621426    0.1194799  -7.45  0.001280334    3.114    0.679
        69  -9.2479     29.9761    101.8238   1.2224100363e+02   5.2452244477e+01    0.2357828    0.1625858 -52.56 0.0008646134    1.213    0.176
        70  -8.7085     64.0107     98.9754   1.1032645992e+02   4.9104526125e+01    0.2161894    0.1745515  80.44   0.00114177    1.732    0.423
        71  -8.7836      2.2381     89.1985   1.2901818195e+02   5.7281415332e+01    0.2644042    0.1701388 -70.62  0.001493276    1.513    0.339
        72 -11.7484     43.0971     81.4732   1.1279827606e+02   5.5446844782e+01     1.062838    0.7239293   7.86  0.005678507    1.646    0.392
        73  -9.9125     24.8282     65.3775   1.1509618152e+02   6.0453258430e+01     0.542807    0.2027295 -42.29  0.002166033    2.218    0.549
        74 -10.9754      4.9816     76.4894   1.2541211110e+02   5.9765398075e+01     0.645516    0.4320473  44.41  0.003887302    2.095    0.523
        75 -11.5038     14.7648     73.1796   1.2100065990e+02   5.9771386168e+01    0.7033999    0.6681112  62.95  0.005152777    1.432    0.302
        76  -8.1331     77.4956     77.4689   9.9927742243e+01   5.1414604677e+01    0.1374957    0.1247516  -8.42 2.244662e-05    1.017    0.016
        77  -9.4828     66.6377     29.7111   8.7489814246e+01   6.0609748264e+01     0.296756    0.1981288 -14.51  0.001611768    1.544    0.353
        78  -8.7451     97.5848     28.3783   7.8009302220e+01   5.5047254518e+01    0.3814081    0.2093451  -1.91   0.00169957    2.972    0.664
        79 -10.0191     74.0406     68.7010   9.8365735601e+01   5.3582085304e+01    0.4162498    0.3415444  33.47  0.002104159    1.235    0.190
        80  -9.7076     81.9486     38.2149   8.5726501051e+01   5.6877360799e+01    0.3552792    0.2676074 -30.60  0.002164564    1.416    0.294
        81  -8.3516     84.3526     69.6514   9.5364282796e+01   5.1662231981e+01    0.2720613    0.1627679  37.83  0.001329634    1.647    0.393
        82  -8.6525     32.4938     69.2423   1.1327594995e+02   5.8987338255e+01    0.2923847    0.1683788   7.44  0.001535526    2.055    0.513
        83  -9.0193    227.9419     78.7294   6.7560660127e+01   1.8734524950e+01    0.3291845    0.2605581   7.27  0.001719155    2.271    0.560
