#   1 NUMBER                 Running object number                                     
#   2 MAG_AUTO               Kron-like elliptical aperture magnitude                    [mag]
#   3 X_IMAGE                Object position along x                                    [pixel]
#   4 Y_IMAGE                Object position along y                                    [pixel]
#   5 X_WORLD                Barycenter position along world x axis                     [deg]
#   6 Y_WORLD                Barycenter position along world y axis                     [deg]
#   7 A_WORLD                Profile RMS along major axis (world units)                 [deg]
#   8 B_WORLD                Profile RMS along minor axis (world units)                 [deg]
#   9 THETA_WORLD            Position angle (CCW/world-x)                               [deg]
#  10 FWHM_WORLD             FWHM assuming a gaussian core                              [deg]
#  11 ELONGATION             A_IMAGE/B_IMAGE                                           
#  12 ELLIPTICITY            1 - B_IMAGE/A_IMAGE                                       
         1 -13.1124    228.2580      2.4258   3.8497326999e+01   2.7480821973e+01     2.176742    0.4952768  63.89  0.007086668    3.623    0.724
         2 -13.8830    185.0468     44.5243   5.4922526634e+01   3.3202642429e+01     1.292424     1.016057  13.95 0.0009735617    1.600    0.375
         3 -14.1498    195.0633     36.5805   5.1092255017e+01   3.1715132697e+01     1.542114     1.184613 -20.26  0.004568586    1.451    0.311
         4 -14.7050    204.9351     25.5336   4.6717333873e+01   3.0603692115e+01     1.864287     1.371877  25.74  0.002347267    1.811    0.448
         5 -11.8030     42.4947      7.5032   7.8830559327e+01   6.8995491017e+01    0.2557347    0.1474803 -12.41  0.001421236    1.742    0.426
         6 -12.0252     33.6301      4.1773   8.1197285601e+01   7.0592204436e+01    0.2910706    0.2551365 -63.04  0.001952229    2.182    0.542
         7 -11.9715     58.8621      3.1922   6.9843329063e+01   6.7008375459e+01    0.3316493    0.1989141  33.19  0.001909883    1.522    0.343
         8 -10.5599    230.1339    166.2488   7.7950174825e+01   2.4600851329e+00    0.2492162    0.1745513 -55.89  0.001114251    2.081    0.519
         9 -10.8726    139.8444    249.3596   1.0888645020e+02   5.2314073438e+00    0.2294601    0.1944919 -64.13  0.001234903    1.483    0.326
        10 -16.5921     72.6105    150.0306   1.0988441410e+02   3.5309647487e+01     22.41877     10.76651  85.11    0.0147419    5.107    0.804
        11 -10.1302    192.8324    165.1987   8.4863090205e+01   9.8452088936e+00    0.2538989    0.2451552 -63.02 0.0007894842    1.206    0.171
        12  -9.8108    171.2985    162.3596   8.8772075664e+01   1.4733408963e+01    0.2891914    0.2158343  85.74  0.001317973    2.040    0.510
        13  -9.7356    205.3178    167.1834   8.2796751500e+01   7.0264288111e+00    0.3572447    0.2184462  20.94 0.0009476733    2.048    0.512
        14 -12.2761     91.4701    155.5216   1.0609401036e+02   3.1201066886e+01    0.5862046    0.4361616 -27.54  0.002938218    1.950    0.487
        15 -10.5170    188.5277    154.9893   8.3556969150e+01   1.2594998744e+01    0.4673574    0.1878531  45.03  0.001717653    2.433    0.589
        16 -11.0797    209.0654    198.4354   8.8210995790e+01   1.2838756492e+00    0.2231404    0.1880121 -52.83 0.0007273771    1.579    0.367
        17 -11.3306    133.7271    144.6727   9.3628429704e+01   2.6060434973e+01     1.262243    0.3024599 -54.25  0.002955703    6.058    0.835
        18 -10.9950    174.2959    148.7093   8.5182031894e+01   1.6789349942e+01    0.3547679    0.3242476  83.47  0.001501569    1.258    0.205
        19 -10.4745    144.4209    146.3364   9.1429395433e+01   2.3537328419e+01    0.3489614    0.2238545  75.62  0.001337314    2.596    0.615
        20 -10.1674     82.3301    195.1442   1.1375038203e+02   2.3860825192e+01    0.2655874     0.225891  37.44  0.001692564    1.365    0.267
        21 -10.6680     87.4892    146.2439   1.0549958780e+02   3.3989828995e+01    0.3296882    0.2228482  75.02  0.001099844    1.761    0.432
        22 -11.2368    104.8413    139.7809   9.9836384211e+01   3.2615542173e+01    0.6214127    0.3772767 -29.77  0.002485781    2.607    0.616
        23 -12.4848     92.1118    140.5191   1.0327034598e+02   3.4598412278e+01    0.2825244    0.2445225 -53.46 0.0004163723    1.174    0.148
        24  -9.9216     38.8628    137.9113   1.1670474467e+02   4.2283046132e+01    0.1825142    0.1484186 -62.59  0.000300762    1.199    0.166
        25 -10.5944    106.0206    130.8206   9.7665802708e+01   3.4494010055e+01    0.3504403    0.2912729 -66.36  0.001466225    1.177    0.151
        26 -11.3482    119.5480    123.7065   9.2494292069e+01   3.3593030299e+01      0.58055     0.362127 -20.92  0.002147381    2.831    0.647
        27 -10.5425    112.9883    130.5726   9.5781215560e+01   3.3272808177e+01    0.3332119    0.2727917  14.34 0.0008465214    1.540    0.351
        28 -10.8178    135.9764    128.9819   8.9546122220e+01   2.9080134169e+01    0.3331799    0.2096314 -47.68  0.001447092    1.579    0.367
        29 -11.2111    100.2277    127.1084   9.8409906186e+01   3.6389433219e+01    0.3981372    0.2319023 -42.47 0.0007949987    1.844    0.458
        30 -10.1136    160.1767    127.6441   8.3416220196e+01   2.4152474694e+01    0.3383366    0.2505139 -71.55  0.001491959    1.771    0.435
        31 -15.3913     10.8960    206.5531   1.2865619994e+02   3.0064650284e+01    0.6031953    0.5739363  61.27  0.002875177    1.544    0.352
        32 -16.2798     54.4091    200.4518   1.2001704614e+02   2.6537451993e+01     3.695603     2.480488 -69.79   0.02335173    1.468    0.319
        33 -11.5103     25.8822    120.9548   1.1788546393e+02   4.7501590766e+01    0.2751228    0.1638938  42.41  0.001560832    1.876    0.467
        34 -10.0767    108.9081    119.4158   9.4318982389e+01   3.6616925365e+01    0.2223832    0.1972886 -67.61 0.0003556916    1.112    0.101
        35 -12.3376     19.7942    111.8186   1.1833728685e+02   5.0136254000e+01    0.6142859    0.2376979  45.73  0.002802965    3.040    0.671
        36 -10.0946    167.5585    112.3921   7.7858411974e+01   2.5617389402e+01    0.3491912    0.2483013 -74.54  0.001264939    2.038    0.509
        37 -11.8907    118.3276    109.2349   8.9238949923e+01   3.7117480158e+01    0.6476688    0.5667541 -69.85  0.003344194    1.203    0.168
        38 -10.1033    205.6138    110.1367   6.9459083964e+01   1.7196336246e+01    0.2789515    0.2189667  41.47 0.0006079482    1.329    0.248
        39 -10.5063     96.8488    200.6727   1.1138503182e+02   2.0544079592e+01    0.2968899    0.2521812   1.86  0.001101776    1.788    0.441
        40 -10.5131    134.5404    105.2862   8.3903100302e+01   3.4590855730e+01    0.3929395    0.1513449 -42.00  0.001301116    2.593    0.614
        41 -16.0936     62.9053    247.9928   1.2227242472e+02   1.6542666755e+01     3.897206    0.9778388  36.50   0.01200573    4.476    0.777
        42 -11.1294    149.5816    188.0367   9.8321143526e+01   1.3995165719e+01    0.4569632    0.2926725 -71.84  0.002087046    2.303    0.566
        43 -14.8829     86.4689    227.9129   1.1641939777e+02   1.6875045972e+01     2.279709     1.130302  53.03  0.005143297    1.687    0.407
        44 -11.6784     42.1932     91.8044   1.0801539684e+02   5.2843164336e+01    0.2999574    0.2566049  13.80  0.001010722    1.409    0.290
        45 -12.1716     72.8541    176.9695   1.1359525264e+02   2.9119115881e+01    0.4002382     0.271402 -41.95   0.00212379    2.027    0.507
        46 -12.1189     77.0481    171.8687   1.1198117110e+02   2.9660194377e+01    0.3365898    0.2620272 -52.22 0.0007998128    1.455    0.313
        47  -9.4947    156.7833     80.7775   7.1418730146e+01   3.4401141291e+01    0.2141892    0.1841993 -68.82 0.0005423462    1.303    0.232
        48  -8.8606    184.3507     77.3097   6.4629629543e+01   2.8192320159e+01    0.1613752    0.1203888  20.82 0.0007044408    1.716    0.417
        49 -10.1567     62.4972     69.2960   9.5304257083e+01   5.5488055717e+01    0.2360245    0.2180261 -50.43 0.0002151978    1.131    0.116
        50 -11.5346    153.6893     56.5452   6.4555419202e+01   3.9412219093e+01    0.4301858    0.3116625 -79.36 0.0008384319    1.886    0.470
        51 -11.6888     47.7751    173.9459   1.1881504878e+02   3.3016095758e+01    0.4497837    0.2214458 -64.07  0.002334824    1.852    0.460
        52  -9.7565    130.2860    212.7186   1.0611939063e+02   1.2803004929e+01    0.1973089    0.1612301 -85.71 0.0006288445    1.382    0.277
        53 -10.6757    171.9695    240.0654   1.0186721770e+02   1.4617258011e+00    0.3064078    0.2249965 -87.48  0.001759087    2.421    0.587
        54  -9.2202    182.4453    241.2270   1.0011713512e+02  -3.8386768690e-01    0.1369609    0.1182902 -62.18 0.0008057602    1.624    0.384
        55 -11.0963    156.2370     50.6944   6.2123600478e+01   3.9690833927e+01     0.331876    0.2767852 -86.37 0.0008883228    1.377    0.274
        56 -10.6685     53.6040    172.9476   1.1741776992e+02   3.2539223037e+01    0.2418759    0.1957415 -86.74 0.0003580385    1.069    0.064
        57 -12.2764    193.5510    195.3928   9.0632028211e+01   4.5371526197e+00     1.041123    0.5955622 -66.62  0.003436781    5.449    0.816
        58 -11.5825    142.9195    171.7648   9.6876825878e+01   1.8474444456e+01    0.4619848    0.3362021  32.45  0.002328123    1.439    0.305
        59  -8.7006    115.4961     31.4358   6.4721577496e+01   5.2345754085e+01    0.1415141    0.1308682  24.21 0.0001300865    1.015    0.015
        60  -9.4897    162.5543    167.7574   9.1765715820e+01   1.5439367698e+01    0.1908265    0.1408094 -60.19  0.000930629    1.590    0.371
        61 -11.1089     33.0324     16.4932   8.7613826035e+01   6.8899822897e+01    0.1684397     0.108465  23.15  0.001039433    1.610    0.379
        62 -18.0139      7.6473    240.0550   1.3079335709e+02   2.4174713897e+01     6.370241     1.652457 -76.84   0.03278611    3.331    0.700
        63  -9.8205    189.6520     14.9786   4.5632669422e+01   3.5690727968e+01     0.191291    0.1743366 -48.84 0.0005891778    1.131    0.116
        64 -10.3286    159.8541     14.8160   4.9716091187e+01   4.3374811379e+01    0.1965248    0.1605483 -72.37 0.0008276512    1.324    0.245
        65 -10.3788    198.6176    222.7565   9.4357889582e+01  -4.7659930122e-01    0.2240714    0.1450213  36.67 0.0004847586    1.300    0.231
        66 -10.0618    111.8079    217.6796   1.1043908523e+02   1.4919342203e+01      0.19887    0.1664335  85.55 0.0004676828    1.214    0.176
