#   1 NUMBER                 Running object number                                     
#   2 MAG_AUTO               Kron-like elliptical aperture magnitude                    [mag]
#   3 X_IMAGE                Object position along x                                    [pixel]
#   4 Y_IMAGE                Object position along y                                    [pixel]
#   5 X_WORLD                Barycenter position along world x axis                     [deg]
#   6 Y_WORLD                Barycenter position along world y axis                     [deg]
#   7 A_WORLD                Profile RMS along major axis (world units)                 [deg]
#   8 B_WORLD                Profile RMS along minor axis (world units)                 [deg]
#   9 THETA_WORLD            Position angle (CCW/world-x)                               [deg]
#  10 FWHM_WORLD             FWHM assuming a gaussian core                              [deg]
#  11 ELONGATION             A_IMAGE/B_IMAGE                                           
#  12 ELLIPTICITY            1 - B_IMAGE/A_IMAGE                                       
         1 -12.9340    239.7233    126.9036   4.8651729258e+01   1.0187378523e+01     1.213588     1.026775 -53.54  0.007803525    1.355    0.262
         2 -12.1238     43.4879     81.3872   8.8017514311e+01   5.6581301477e+01      1.23058    0.6807857 -35.29  0.005499124    1.876    0.467
         3 -10.3799     39.4115      8.0968   5.9995271792e+01   7.0834064745e+01    0.5250008    0.2776635 -14.46  0.002604074    2.182    0.542
         4  -9.9987     40.2595     14.9627   6.3426759235e+01   6.9817730148e+01    0.3397908    0.2120126  22.54  0.001422899    1.518    0.341
         5 -12.3587     44.8517     22.6865   6.5170977683e+01   6.7984922237e+01     1.069055    0.8712599 -47.80  0.006438585    1.651    0.394
         6 -10.8623     90.2463     28.1376   5.0158397685e+01   5.8305423614e+01    0.3721085    0.3140351 -33.56  0.002155246    1.308    0.235
         7 -11.8338     83.6718      3.7978   4.1293437865e+01   6.2302375873e+01    0.9675175    0.3927741  60.42  0.003691008    2.132    0.531
         8 -11.5440     78.1484     13.6398   4.7423991873e+01   6.2637375061e+01     1.457167    0.5278477 -13.26   0.00466365    4.980    0.799
         9 -12.0718    144.3236      3.8334   3.0335335979e+01   4.7667485726e+01     1.132052    0.4708397  75.92  0.004898925    2.258    0.557
        10 -12.0825    173.7048     18.8422   3.1264617864e+01   3.9168588545e+01    0.7768851    0.4455242  41.84  0.003797983    2.178    0.541
        11 -13.5102    166.3554      8.0792   2.9074364980e+01   4.1959914551e+01     2.151024     1.279926  62.84   0.01163813    1.543    0.352
        12 -10.1925    116.8385     17.8310   3.9516240228e+01   5.3174235487e+01    0.6008149    0.2432024 -34.93  0.002518625    2.584    0.613
        13  -9.8127    128.2644     18.0414   3.7442842210e+01   5.0349151039e+01    0.3394971    0.3101171  30.53  0.001540501    1.166    0.143
        14  -9.5224    129.7554     13.0946   3.5475744949e+01   5.0454111750e+01    0.3599029    0.2085574  45.36  0.001494828    1.710    0.415
        15  -9.4310    228.6164     15.1952   2.5544048111e+01   2.7424176028e+01    0.3630419   0.07686199 -38.51  0.001495225    3.146    0.682
        16  -9.1099    104.8183     12.8172   4.0104529593e+01   5.6564818300e+01    0.3226046    0.1887312 -18.64   0.00160789    1.946    0.486
        17 -10.6229    249.3417      5.5436   2.2340832385e+01   2.4395630561e+01     0.563205     0.160718 -41.11  0.002817749    2.418    0.586
        18  -9.4778     20.7005     14.0542   7.4222889884e+01   7.2716139872e+01    0.4667123    0.2232267 -21.32  0.002148642    2.531    0.605
        19 -10.8756    131.0995      3.8800   3.2118152857e+01   5.0911540267e+01    0.7785596     0.237638  59.11  0.003100605    2.534    0.605
        20 -11.2605    121.3738      4.1958   3.3709683810e+01   5.3275957612e+01    0.9020141    0.4113065  74.61  0.003985071    2.135    0.532
        21 -10.2863    111.9893      5.3651   3.5757638066e+01   5.5475423592e+01     0.438194    0.2404702  61.40  0.002203724    1.536    0.349
        22 -11.2487    106.0013      4.6570   3.6617062437e+01   5.6981440153e+01    0.5656912    0.3672962  81.06  0.002715828    1.649    0.394
        23  -8.4791    229.9751      6.7316   2.3660109720e+01   2.8007403668e+01    0.1405986   0.08908476  83.35 0.0008870286    1.512    0.339
        24  -9.9689    223.3233      4.4084   2.3571170103e+01   2.9577639174e+01    0.4442897    0.1355375 -47.33  0.002056428    2.581    0.612
        25  -9.8021    111.6437     16.8218   4.0202616150e+01   5.4537095148e+01    0.3766008    0.2182413  39.55   0.00182226    1.747    0.428
        26  -9.6825    212.1679      5.3283   2.4494063503e+01   3.1815554635e+01     0.226938   0.08474544  67.26  0.001082414    2.507    0.601
        27 -10.1818    203.9075      4.1083   2.4789155910e+01   3.3708304698e+01    0.3406633    0.2010536 -66.91  0.001966392    1.558    0.358
        28 -10.5288     71.5540      5.7366   4.5691025647e+01   6.4832568921e+01    0.4738048    0.3585887  76.02  0.002720757    1.663    0.399
        29 -10.2221     60.9915      2.3925   4.7509189102e+01   6.7361944485e+01    0.5010288    0.1845191  43.73  0.002197239    2.246    0.555
        30  -9.2026    217.3275      1.9007   2.3396624180e+01   3.1052746694e+01    0.2125705    0.1331216 -81.10  0.001314732    1.438    0.305
        31  -8.3229     17.4872      1.5475   6.8898714023e+01   7.4925370560e+01    0.1217633   0.09248054   1.16 0.0002116822    1.028    0.027
        32 -11.1643    205.4852    219.5057   7.2420870053e+01   9.2038851295e-01    0.2398992    0.1575873 -12.00  0.001414672    1.432    0.301
        33  -9.0983    194.1884     87.4051   4.6578003738e+01   2.5154747437e+01    0.1883686     0.135805  73.46 0.0007271772    1.672    0.402
        34  -8.7341    101.2470     84.0006   6.7171348081e+01   4.6481658063e+01    0.2028066    0.1287438 -42.46  0.000881349    1.575    0.365
        35  -9.0985    144.6647     80.9308   5.4421944576e+01   3.7445380926e+01    0.2805682    0.2023153  41.00  0.001015381    1.428    0.300
        36 -11.4851     12.0007    123.8292   1.0788150595e+02   4.8677015295e+01    0.4763939    0.2613748 -79.76  0.002342737    1.668    0.401
        37  -8.9290    169.9968     76.5056   4.7920583470e+01   3.2327403972e+01     0.237895    0.1912734 -36.37  0.001248772    1.217    0.178
        38  -9.7187     74.9195     69.5042   7.1555605697e+01   5.4551311132e+01    0.3661783    0.2830693  45.71  0.001866494    1.405    0.288
        39  -9.2297     83.5121     68.9829   6.8213864385e+01   5.3060778859e+01    0.2359524    0.1991276  31.34 0.0007663082    1.161    0.139
        40 -10.4072     25.5193     65.2898   9.1737487790e+01   6.2173431354e+01    0.4386012    0.2462379 -51.89  0.001571081    1.531    0.347
        41  -8.2673    132.5044     63.4820   5.1896267814e+01   4.3306397521e+01    0.1461944    0.1428468  52.15 0.0001357888    1.016    0.016
        42  -9.5662    197.5887     55.5275   3.8025200857e+01   2.9204246813e+01    0.2709535    0.1845866  42.54  0.001299688    1.770    0.435
        43  -9.1344    165.3158     53.3353   4.2211929329e+01   3.6977223076e+01    0.1431862    0.1078448  25.15 0.0007047512    1.693    0.409
        44  -9.0588     35.1271     52.7986   8.3070566531e+01   6.3930326189e+01    0.1941193    0.1862365   7.61   0.00111984    1.221    0.181
        45  -9.5653     36.4670     80.4939   9.0792100585e+01   5.7568726220e+01    0.2849418    0.2312539 -36.14  0.001034834    1.118    0.106
        46 -10.0912     85.2121     48.4036   6.0035991290e+01   5.6465119506e+01    0.6918548    0.3524559  53.05  0.002875771    2.154    0.536
        47 -10.6771     81.7265     41.1111   5.8319330009e+01   5.8348177693e+01    0.6826361    0.3016868 -35.82  0.002805866    2.339    0.573
        48 -10.8100      3.0381     40.7280   9.6624727676e+01   6.9179766447e+01    0.4690455    0.3984769 -76.85  0.002626575    1.436    0.304
        49  -9.9705      5.7455     35.4126   9.3297963775e+01   7.0139892682e+01    0.2951227     0.199511   3.73  0.001795521    1.486    0.327
        50  -8.5334    197.2899     43.6410   3.5059948909e+01   3.0842045323e+01    0.1416387   0.08695086 -60.29 0.0007026692    1.689    0.408
        51 -10.1701    181.2966     40.1103   3.6135209703e+01   3.4950680303e+01    0.3902724    0.1763209 -52.63  0.001618654    2.455    0.593
        52 -10.5828     51.9774     39.2797   6.9535160624e+01   6.4179298300e+01    0.7158484    0.5465021  86.43  0.003359776    2.853    0.650
        53 -10.4505    214.6929    218.9790   7.0619200882e+01  -2.1462023509e-01    0.1790136    0.1374598 -11.06  0.001000422    1.104    0.095
        54  -9.8895    188.0091    218.5169   7.5647641590e+01   3.4610382103e+00    0.1685016    0.1014341  49.51 0.0008101722    2.542    0.607
        55 -11.1382     40.0638     29.6575   7.1006998575e+01   6.7636383609e+01    0.5586882    0.3287554 -38.88   0.00264278    1.675    0.403
        56 -10.1131    123.9945    206.0062   8.7609103071e+01   1.5201252062e+01    0.1915879     0.170562  24.79            0    1.004    0.004
        57 -10.3101    196.6487     34.3193   3.2784632556e+01   3.2131370187e+01    0.3138939     0.159164  56.18  0.001522823    2.045    0.511
        58 -10.9301     86.1068     31.5246   5.2859952434e+01   5.8786718045e+01    0.3527981    0.2508764 -20.29  0.001857796    1.500    0.333
        59 -10.4674    242.7660    200.7578   6.2561241133e+01  -1.2407189469e+00    0.3347889    0.2311681   1.72  0.002170892    1.267    0.211
        60  -9.3979    226.8477     28.8465   2.8645187905e+01   2.6296985282e+01    0.1756961      0.11738 -60.45 0.0009785495    1.323    0.244
        61  -8.4921    202.6645    197.3289   6.9086854648e+01   4.7079859305e+00    0.1139219    0.1072963  78.02  0.000705199    1.726    0.421
        62  -9.1035    196.9761    186.4794   6.8176185066e+01   7.3402339392e+00    0.1720516    0.1155019  56.74 0.0008100042    2.528    0.604
        63 -10.2651    220.0851    156.2727   5.7884098364e+01   8.7057411683e+00    0.2789561    0.2544033  52.10  0.001763555    1.460    0.315
        64 -11.4185    178.0733     23.9658   3.2165275557e+01   3.7593812574e+01    0.4562327    0.3515154  59.66  0.002635976    1.310    0.237
        65  -8.8051     20.1776    155.8181   1.0864885988e+02   4.0000575417e+01    0.1831144    0.1459907 -49.20  0.001084776    1.338    0.253
        66 -12.1323     10.8087    141.0912   1.1003283189e+02   4.4384722867e+01    0.6749794    0.5605313 -55.61  0.004123749    1.206    0.171
        67  -9.4127     39.8939    141.1223   1.0100211805e+02   4.1918955750e+01    0.2851098    0.1848466  30.63  0.001433496    1.605    0.377
        68 -10.1009    134.8694     19.2864   3.6735260885e+01   4.8594530733e+01    0.2596832    0.1630391  25.55  0.001237147    2.088    0.521
        69  -9.0759    102.5595     25.9848   4.5886967279e+01   5.5728888377e+01    0.2883348    0.1633714  42.78  0.001353574    1.663    0.399
        70  -8.8923     53.5897    143.7363   9.7081287457e+01   3.9734831620e+01    0.2035528    0.1329719 -80.57  0.000951065    1.655    0.396
        71 -11.5804    243.9130    110.1563   4.4554986736e+01   1.2038687727e+01     1.098634    0.5567591 -55.78  0.004884614    2.782    0.640
        72  -9.7238     94.3483     17.2834   4.4439317669e+01   5.8601760157e+01    0.4069059    0.2505528  81.06   0.00185802    2.291    0.563
        73  -8.5493    249.0244    223.5237   6.5445597659e+01  -4.9661669715e+00     0.132934   0.09508324  46.13 0.0008102189    2.616    0.618
        74  -9.4339    224.8544     15.1358   2.5791544317e+01   2.8193457825e+01    0.2183875    0.1384352  62.45   0.00133248    1.728    0.421
        75  -9.8930    248.0000     16.3164   2.4534947704e+01   2.3545620388e+01    0.1592545    0.1241958 -69.97 0.0007165464    1.108    0.097
        76  -9.9228     66.8186     29.2690   5.8684636836e+01   6.3096009126e+01    0.2865985     0.181379 -17.85   0.00143554    1.730    0.422
        77 -10.0995     64.6308     16.3082   5.3342649230e+01   6.5195687536e+01    0.2462008    0.1927626  65.16  0.001404805    1.620    0.383
        78  -9.5219     97.4897     36.5003   5.1441932267e+01   5.5576327230e+01    0.2408126    0.1240682 -42.13 0.0009488285    2.200    0.545
        79  -8.6396     23.6511    125.6676   1.0419548790e+02   4.7367070671e+01     0.147672    0.0887078 -40.19 0.0007048359    1.771    0.435
        80  -9.5290     70.0013     12.9498   4.9752553725e+01   6.4460494889e+01     0.225481     0.136211  25.98  0.001137352    1.718    0.418
        81 -10.2405      4.7362    124.8496   1.1039050826e+02   4.8854786277e+01    0.2669674     0.134286  50.69  0.001267096    2.197    0.545
        82  -9.9717    189.7919    115.8601   5.4356160623e+01   2.1194564050e+01    0.5144055    0.2714543 -17.81  0.001800773    3.283    0.695
        83  -9.0319      2.4048    116.1784   1.1029497782e+02   5.1166239963e+01    0.1931003     0.107933  89.85 0.0009557346    1.743    0.426
        84 -10.3644     18.8182    106.2592   1.0314332198e+02   5.2693294608e+01    0.8143466    0.4103021  65.14  0.003305472    2.925    0.658
        85 -11.0145    249.7276    126.9606   4.7270223873e+01   8.5790774918e+00    0.6811603    0.2308323 -40.94  0.002898409    2.495    0.599
        86 -10.6239     17.6645    127.7305   1.0645331614e+02   4.7294778397e+01    0.2785311    0.2287645 -67.34    0.0016655    1.079    0.073
        87  -9.7087     30.4986    102.0104   9.7970277530e+01   5.2838045980e+01    0.3146925    0.1914842 -42.44  0.001538513    1.573    0.364
        88  -9.6163     46.4699    100.1646   9.1413754814e+01   5.1666590956e+01    0.3913406    0.2181032 -58.71  0.001764264    1.652    0.395
        89  -8.5939    208.5954     94.7575   4.6096296422e+01   2.0970383416e+01    0.2006521    0.1134866 -44.74  0.000749626    1.642    0.391
        90  -8.6162    178.5155     93.4923   5.0877929094e+01   2.7534575384e+01    0.1446225    0.1369984 -43.87 0.0008103307    1.023    0.023
        91  -9.7222     12.7834     89.7917   1.0285096479e+02   5.7228583983e+01    0.1806759    0.1506969  75.41  0.001078078    1.362    0.266
        92 -10.4083      2.4161     86.8662   1.0666626456e+02   5.8493739212e+01    0.7189194    0.2198422 -71.87  0.002786325    2.761    0.638
        93 -11.7631      4.8528     76.7391   1.0398078424e+02   6.0853722355e+01    0.7641984     0.508889  55.72  0.004161636    1.919    0.479
        94 -12.2146     15.1162     73.4072   9.8662364837e+01   6.1075067618e+01    0.9639109     0.672873  31.90  0.005437397    1.647    0.393
        95  -9.6006     12.0911     34.1702   8.8960986694e+01   6.9952155740e+01    0.3992954    0.1795709 -52.50  0.001967868    1.949    0.487
