#   1 NUMBER                 Running object number                                     
#   2 MAG_AUTO               Kron-like elliptical aperture magnitude                    [mag]
#   3 X_IMAGE                Object position along x                                    [pixel]
#   4 Y_IMAGE                Object position along y                                    [pixel]
#   5 X_WORLD                Barycenter position along world x axis                     [deg]
#   6 Y_WORLD                Barycenter position along world y axis                     [deg]
#   7 A_WORLD                Profile RMS along major axis (world units)                 [deg]
#   8 B_WORLD                Profile RMS along minor axis (world units)                 [deg]
#   9 THETA_WORLD            Position angle (CCW/world-x)                               [deg]
#  10 FWHM_WORLD             FWHM assuming a gaussian core                              [deg]
#  11 ELONGATION             A_IMAGE/B_IMAGE                                           
#  12 ELLIPTICITY            1 - B_IMAGE/A_IMAGE                                       
         1 -12.9387      2.8504     40.6397   1.4006866344e+02   6.7827648170e+01     1.189183    0.2989065 -66.09  0.004802233    2.718    0.632
         2 -12.3535      2.6132     18.2117   1.3424827459e+02   7.2949155322e+01     1.283844     0.255435 -66.66  0.004224399    4.442    0.775
         3 -13.0771      2.4956      5.6597   1.2939071634e+02   7.5641861785e+01     1.397546      1.12533  88.79   0.00921349    1.702    0.412
         4 -13.6749    205.6639      7.7493   6.6359562687e+01   3.2506513134e+01     1.596577     1.017348  39.81  0.008136177    1.780    0.438
         5 -13.5095    191.5515     26.4454   7.3476163133e+01   3.4139717197e+01     1.378286     1.259726  46.59  0.005813011    1.134    0.118
         6 -10.9655      1.9078    241.6957   1.5417335595e+02   2.6080886732e+01      0.41282    0.1059943 -80.68  0.002314465    3.903    0.744
         7 -10.2504    174.8722    250.1493   1.2511051110e+02   6.1061764281e+00    0.1577685     0.113209  36.54  0.001106758    1.266    0.210
         8 -11.3333    140.4849    250.0003   1.3092060855e+02   1.0398641736e+01    0.4759545    0.1184293  33.06  0.002045455    3.478    0.712
         9 -11.2880    125.7679    249.9998   1.3345816124e+02   1.2197975819e+01    0.4539134    0.0980786  36.77   0.00200589    3.250    0.692
        10  -9.1188     67.1270    250.5319   1.4362390024e+02   1.8793778041e+01    0.1457545   0.07250509  37.06 0.0007957533    1.505    0.336
        11 -14.0521    109.5617    229.8795   1.3449753503e+02   1.6885224210e+01     8.273485          nan  39.65     0.016882   14.198    0.930
        12 -13.1275      8.6191    206.3241   1.5203954091e+02   3.1261736704e+01    0.9536135    0.6546063  55.68  0.005536515    1.096    0.088
        13  -9.2408     32.6197    228.2110   1.4850542751e+02   2.5550338585e+01    0.1450438   0.09357184  68.48 0.0006086808    1.332    0.249
        14  -9.5177    244.3317    246.3281   1.1362102256e+02  -1.9217113121e+00    0.1071272    0.0547095  11.61 0.0007051587    1.715    0.417
        15 -14.9907      9.8896    157.0384   1.4971038719e+02   4.0563650584e+01     7.392056     2.526036  82.19   0.03291979    3.146    0.682
        16  -9.8182     13.1386    241.6824   1.5233647051e+02   2.5175380205e+01    0.2201062    0.1078752  81.96   0.00162084    1.947    0.486
        17 -10.3102    172.2164    222.3138   1.2216227121e+02   9.6405292501e+00    0.2240903    0.1415693  16.08  0.001430644    1.557    0.358
        18  -8.3955    221.5297    213.5347   1.1244100011e+02   3.9352963221e+00     0.112798   0.08233678  14.41 0.0001201659    1.008    0.008
        19  -9.0013    152.4990    212.9490   1.2454651458e+02   1.3589674373e+01    0.1367694    0.1136165 -35.81 0.0003081583    1.453    0.312
        20 -13.9911     45.9054    229.1680   1.4616567340e+02   2.4131789285e+01    0.8098239    0.5400297  55.04  0.003808642    1.159    0.137
        21 -11.4893     64.9827    201.1313   1.4065156668e+02   2.6809693603e+01    0.2443685    0.2062038 -47.74  0.000523764    1.526    0.345
        22 -11.7457     21.9175    200.7880   1.4927552506e+02   3.1136578682e+01    0.3659852    0.1384166  46.54  0.001144886    1.970    0.492
        23 -10.7571     14.0755    197.4181   1.5066701263e+02   3.2399303965e+01    0.3447917    0.1322321  38.73  0.001816689    2.012    0.503
        24  -8.3294     51.3324    197.2472   1.4315550018e+02   2.8976300555e+01   0.09401873   0.08320207  -1.71 0.0002585559    1.550    0.355
        25  -9.7285    191.9801    193.0039   1.1427674949e+02   1.0510852486e+01    0.3949591    0.2548673 -63.65  0.001718104    4.686    0.787
        26 -11.8502     70.8140    192.6774   1.3871356010e+02   2.7657120613e+01    0.2254014    0.2144445 -43.37 0.0004918572    1.320    0.242
        27  -8.7500     44.3528    191.9340   1.4423039555e+02   3.0661179648e+01    0.1403185     0.117439  76.27 0.0003735993    1.113    0.101
        28 -13.3039     67.5110    177.5810   1.3799647608e+02   3.0877218394e+01    0.4435408    0.2601044 -42.97  0.002227901    2.326    0.570
        29 -10.8704     80.4218    179.5152   1.3530217039e+02   2.8940529228e+01    0.2081321    0.1913684  53.18 0.0003374097    1.071    0.067
        30 -11.7957     87.5353    169.8536   1.3254574480e+02   2.9880685188e+01    0.5503277    0.5155842 -23.25  0.003799842    1.267    0.211
        31  -9.1430    101.6565    246.6739   1.3737567503e+02   1.5500402739e+01    0.0963074   0.07189749   9.25 0.0007050856    1.740    0.425
        32  -9.8830     99.3343    153.5701   1.2745461076e+02   3.1465200441e+01    0.2345781    0.2286173  60.49 0.0007254151    1.046    0.044
        33 -12.0100     88.2052    152.9235   1.3009297681e+02   3.3186248957e+01    0.2532509    0.2305699 -19.86 0.0005543322    1.292    0.226
        34  -8.6435     75.9835    244.5050   1.4172096146e+02   1.8699327769e+01    0.1489955    0.0512794  49.16 0.0006124487    2.393    0.582
        35 -12.4627     67.0668    143.8170   1.3419856730e+02   3.7886435428e+01    0.6766325    0.4363244  63.64  0.003475292    1.684    0.406
        36  -9.0900    102.1572    149.1506   1.2605670305e+02   3.1939550572e+01    0.1886146    0.1719957  -9.86 0.0003904779    1.241    0.194
        37 -11.5193    185.5706    238.7281   1.2195524555e+02   5.9774942553e+00    0.3554961    0.2790418 -71.35  0.001949595    2.900    0.655
        38  -9.6605    110.5493    137.9756   1.2200101981e+02   3.2907606492e+01     0.338967    0.2232013 -23.58  0.001531984    2.167    0.539
        39  -9.7246     95.0947    241.1480   1.3809855017e+02   1.7022823194e+01    0.1685506     0.135313 -62.32 0.0009459821    1.606    0.377
        40 -10.5315     97.8939    135.4351   1.2478540639e+02   3.5436786001e+01    0.2314951    0.2104129 -36.09 0.0005598986    1.178    0.151
        41 -11.0519     56.7933    132.2521   1.3540213173e+02   4.1668023354e+01    0.4190724    0.2294085  58.04  0.002040405    2.046    0.511
        42 -10.3533     33.3764    132.2631   1.4187975234e+02   4.4054252766e+01    0.2242564    0.1399526 -88.60 0.0009116704    1.515    0.340
        43  -9.1676     87.1114    136.8513   1.2786822320e+02   3.6733918874e+01    0.2040871    0.1612584  65.29 0.0007917997    1.346    0.257
        44  -8.2403    192.2675    144.2746   1.0514173469e+02   1.7292042470e+01    0.1314825   0.09298417   6.92 0.0002710833    1.478    0.323
        45  -9.3010    107.4046    124.5282   1.2017086629e+02   3.6226065898e+01     0.164418    0.1340175  25.16 0.0008888916    1.292    0.226
        46  -9.9907    167.9527    112.9812   1.0286472076e+02   2.6999371283e+01    0.2919196    0.2653461 -70.71  0.000891896    1.410    0.291
        47  -9.3651    203.3250    111.3793   9.5596300053e+01   2.0105486715e+01     0.217065    0.1481329  10.56 0.0006293471    1.639    0.390
        48  -8.7155    184.5286     77.4953   9.0010720130e+01   2.9179135247e+01    0.1492226    0.1340874  -0.79 5.127336e-05    1.053    0.050
        49  -9.2963    156.4745     75.4911   9.4999854786e+01   3.5920344536e+01     0.151364    0.1419354  -5.80 0.0001769429    1.001    0.001
        50 -11.4720      9.1381     63.8815   1.4138793757e+02   6.2012742854e+01    0.6962914    0.2015247  31.63  0.002898942    3.601    0.722
        51 -10.3260     29.1291     60.8097   1.3220134269e+02   6.1376163910e+01    0.2441473     0.207904  43.93 0.0004852413    1.367    0.268
        52  -9.3350     20.0113     57.5051   1.3545612899e+02   6.2874091085e+01    0.1763885   0.08829082  48.61 0.0008106245    2.595    0.615
        53 -12.8485     39.8508    236.2388   1.4759116770e+02   2.3620410574e+01    0.2721799    0.2373366 -63.94 0.0008051202    1.559    0.359
        54  -9.1794     82.0260    249.0347   1.4096984195e+02   1.7403725109e+01    0.1681549   0.08720739  54.76 0.0009609743    1.752    0.429
        55 -11.3740    138.4399    245.0335   1.3078092081e+02   1.1256087411e+01    0.2986656    0.1387293  46.68  0.001513852    2.025    0.506
        56 -10.1960    237.5966    246.7719   1.1469017508e+02  -1.1843648404e+00    0.1164926   0.08491869 -20.06 0.0009533715    1.654    0.395
