#   1 NUMBER                 Running object number                                     
#   2 MAG_AUTO               Kron-like elliptical aperture magnitude                    [mag]
#   3 X_IMAGE                Object position along x                                    [pixel]
#   4 Y_IMAGE                Object position along y                                    [pixel]
#   5 X_WORLD                Barycenter position along world x axis                     [deg]
#   6 Y_WORLD                Barycenter position along world y axis                     [deg]
#   7 A_WORLD                Profile RMS along major axis (world units)                 [deg]
#   8 B_WORLD                Profile RMS along minor axis (world units)                 [deg]
#   9 THETA_WORLD            Position angle (CCW/world-x)                               [deg]
#  10 FWHM_WORLD             FWHM assuming a gaussian core                              [deg]
#  11 ELONGATION             A_IMAGE/B_IMAGE                                           
#  12 ELLIPTICITY            1 - B_IMAGE/A_IMAGE                                       
         1 -12.7113     10.5749     35.5005   9.4994700449e+01   7.1193618179e+01     0.484151    0.3453646  89.84  0.002693625    1.516    0.340
         2 -12.8310     84.2119     23.7078   4.8431861973e+01   6.1688534828e+01    0.6547669    0.3961154 -69.84  0.002448425    2.968    0.663
         3 -11.2232     85.4036     11.1972   4.1505723376e+01   6.3084917677e+01    0.2065677    0.1285696 -39.32 0.0007459139    1.698    0.411
         4 -12.1499    210.4822      8.0147   2.2475502424e+01   3.0895436338e+01    0.3617757    0.1581632 -41.65  0.001718917    1.864    0.463
         5 -11.6260    144.8195      6.7157   2.7880888447e+01   4.7556669578e+01    0.3549968    0.2952305 -63.58  0.001951367    1.159    0.137
         6 -10.4358    223.3592      6.2811   2.1262742087e+01   2.8214952898e+01    0.1164015   0.09058294  38.75 0.0007015269    1.669    0.401
         7 -10.5684     67.3092      1.9147   4.2043784824e+01   6.8628575749e+01    0.1891878    0.1765836  14.65 0.0005027746    1.065    0.061
         8 -10.3171     35.9403      1.7832   5.8091912256e+01   7.5343637186e+01      0.17246    0.1017674  41.35 0.0005142247    1.654    0.395
         9  99.0000     17.5096    242.5214   1.0880875239e+02   2.3454889952e+01     0.340792    0.1505923  49.04  0.002208872    1.547    0.354
        10 -11.2863    102.6194    242.5931   9.1634672037e+01   1.4474168366e+01    0.2184889    0.1725873  79.32  0.001151761    1.710    0.415
        11 -11.0990     97.6329    249.7218   9.3205726523e+01   1.4039992547e+01    0.1509519    0.1247644  71.68 0.0002523394    1.528    0.346
        12 -11.4428     97.2508    245.1853   9.2923982612e+01   1.4733514191e+01    0.3795262    0.1668753  30.36  0.002092242    1.700    0.412
        13 -12.3452     92.8992    248.1646   9.4023000935e+01   1.4808820064e+01    0.2093989    0.1564226 -78.37  0.001562379    1.864    0.464
        14 -12.0403     87.7847    250.6202   9.5216346102e+01   1.5039263753e+01    0.3668145   0.08275928  29.83  0.001477115    3.463    0.711
        15 -15.9202     27.9804    146.2166   1.0197021694e+02   4.1797901689e+01     2.645016     2.418216 -56.67   0.01372748    1.283    0.220
        16 -11.2916    108.4557    237.0251   8.9965200601e+01   1.4580109547e+01    0.2293765    0.1674829 -33.87  0.001593432    1.847    0.459
        17 -16.7287     93.0771    199.1973   8.9578171096e+01   2.2764039670e+01     2.213969     1.457523 -37.27   0.01251357    2.061    0.515
        18 -11.1904    157.3813    234.1373   8.0019919961e+01   8.8434437747e+00    0.1973746    0.1232313  20.40  0.001294408    1.312    0.238
        19 -10.4841    117.4942    233.3428   8.7776502997e+01   1.3997433028e+01    0.3150861    0.1882456   1.55   0.00168079    2.624    0.619
        20 -10.8231    132.1501    232.2684   8.4712438819e+01   1.2296447402e+01    0.2157289    0.1072373  29.03 0.0008019013    1.565    0.361
        21  -9.1880     21.0142    239.4963   1.0803267302e+02   2.3638663126e+01    0.2408456     0.133143 -70.91  0.001629564    2.280    0.561
        22 -12.2274    112.9945    228.2294   8.8191694227e+01   1.5324162280e+01    0.2899533    0.2425268  43.69  0.001836365    1.201    0.167
        23 -11.9334    178.0765    229.1827   7.5564252834e+01   6.8513165614e+00    0.1702468    0.1460927  18.86 0.0008293202    1.289    0.224
        24 -11.3355    155.1879    230.0688   7.9950105982e+01   9.6452344094e+00    0.1809235    0.1257328  12.97 0.0009233448    1.301    0.231
        25 -12.3188    150.4401    228.4054   8.0666597488e+01   1.0475725575e+01    0.2964343    0.2054234  16.57  0.001027312    1.257    0.204
        26 -12.9945    187.1380    226.5647   7.3589768664e+01   6.0290105225e+00    0.3125649    0.2039469 -10.40  0.001317579    1.583    0.368
        27 -16.1021     61.9887    206.3403   9.7502430006e+01   2.5311923846e+01     1.867702    0.5220588  39.73   0.00815564    2.448    0.592
        28 -11.0590    232.0309    227.0577   6.6198432674e+01   6.8462575310e-01    0.1628895    0.1136358   7.48 0.0006545889    1.022    0.021
        29 -10.9124    138.2219    226.1412   8.2812385141e+01   1.2374478205e+01    0.1842321    0.1691982 -76.33  0.001167084    1.583    0.368
        30 -10.3090    215.4753    226.5268   6.8751919694e+01   2.6145673112e+00    0.1068324   0.07719289  12.03   0.00020131    1.050    0.048
        31 -12.1661    171.0629    224.9904   7.6309021491e+01   8.2559735257e+00    0.2421658    0.1843872  48.79 0.0003347038    1.785    0.440
        32 -13.0292    173.3650    219.5462   7.5156235576e+01   8.6460620832e+00    0.3384611    0.2109578  15.08  0.001440508    1.451    0.311
        33 -10.9194    144.6079    225.1340   8.1420410808e+01   1.1680216727e+01    0.1766499    0.1152977 -50.06  0.001133779    2.047    0.512
        34 -17.7523     68.5095    187.9357   9.4388114430e+01   2.8096098659e+01     3.031841     2.565931  48.20   0.01996306    1.036    0.035
        35 -12.2231    125.4891    222.2581   8.4967063323e+01   1.4608785637e+01    0.3313739    0.2963653  86.98   0.00175584    1.546    0.353
        36 -12.3149    115.7560    218.3008   8.6577016476e+01   1.6499114273e+01     0.439267    0.2292886  44.05  0.002441134    1.687    0.407
        37 -11.9552    119.0445    216.0331   8.5625619433e+01   1.6419897840e+01    0.3256834    0.2104294  77.38  0.001713461    2.882    0.653
        38 -10.2655    118.7845    224.9912   8.6655951393e+01   1.5071794924e+01    0.1188522   0.09799371 -52.89 0.0003332047    1.588    0.370
        39 -11.0722    179.5444    224.4986   7.4680587806e+01   7.2314725380e+00    0.1136193   0.08482224  18.39 0.0001522553    1.019    0.019
        40 -11.4029    159.6455    222.1297   7.8104151207e+01   1.0111980010e+01    0.2026736    0.1249059  35.12 0.0008688721    1.346    0.257
        41 -11.1229    106.2582    220.6555   8.8853194036e+01   1.7363254769e+01    0.2163412    0.1828361 -29.89  0.001510168    1.504    0.335
        42 -12.5129    193.5719    218.5471   7.1344964756e+01   6.1615739333e+00    0.2402809     0.176299 -49.82  0.001606711    2.281    0.562
        43 -13.2536    157.7910    212.6201   7.7215463671e+01   1.1657902719e+01    0.3403837     0.232234   7.59  0.001240042    1.496    0.331
        44 -13.5898    154.5973    209.9002   7.7483306231e+01   1.2482574217e+01    0.6998488    0.3384118  15.01  0.003032308    3.102    0.678
        45 -11.5198    144.8626    216.6301   8.0325683081e+01   1.2848761302e+01    0.2600907    0.1642779  43.63 0.0008807565    1.553    0.356
        46 -11.4161    143.0015    211.5924   8.0062766475e+01   1.3840135602e+01    0.3178158    0.2051781 -35.00  0.001638634    1.865    0.464
        47 -13.3404    146.8679    203.4590   7.8179243838e+01   1.4518850893e+01     0.445071    0.3700682   3.60  0.002056221    1.197    0.164
        48 -10.7229    129.9653    216.3341   8.3354010159e+01   1.4907123014e+01    0.1755207    0.1264455  28.66 0.0005334507    1.090    0.082
        49 -10.2715      2.4486    215.5315   1.1130504544e+02   2.9359151869e+01    0.1096483   0.07933322  50.42 0.0008075409    1.014    0.014
        50 -10.5652      1.5573    212.2673   1.1143815697e+02   3.0026489506e+01    0.1424744   0.09292103  85.29   0.00054373    1.539    0.350
        51 -13.3243    183.9343    212.9982   7.2287790408e+01   8.0841886681e+00    0.3098555    0.2245127 -14.97  0.002146641    1.397    0.284
        52 -11.9877    124.1885    206.0171   8.3337978666e+01   1.7320653583e+01    0.3460432    0.2119933  17.19     0.001695    1.750    0.429
        53 -11.7623    121.4755    200.5286   8.3248885396e+01   1.8608243865e+01    0.2160814    0.1739528  38.37 4.849695e-05    1.101    0.092
        54 -13.4769    123.9816    197.0428   8.2242570347e+01   1.8837168721e+01    0.4883814    0.4155959  43.93  0.003182748    1.175    0.149
        55  -9.6660     14.0849    211.6254   1.0869118756e+02   2.9125419213e+01    0.4257427    0.1296956  65.12  0.001967339    3.058    0.673
        56 -10.4729     13.4561    207.4694   1.0871087522e+02   2.9958226228e+01    0.1482852   0.08009376  39.37 0.0002661286    1.374    0.272
        57 -13.0668    124.8868    212.0619   8.3919599650e+01   1.6257262969e+01    0.6496203    0.3610843 -30.58  0.003369037    2.653    0.623
        58 -10.7499    137.3271    211.3350   8.1204816256e+01   1.4661906100e+01    0.1223486   0.08350023   3.68 0.0005807729    1.720    0.419
        59 -11.9410    229.5090    206.9290   6.3621104432e+01   3.0169194666e+00    0.2306696    0.1609389 -14.19  0.001186009    1.279    0.218
        60 -11.3388    193.7870    208.6021   6.9864980328e+01   7.3298349658e+00     0.150167   0.09054011  35.61  0.000428446    1.528    0.345
        61 -13.3183    168.6051    205.6487   7.4121762065e+01   1.1133237913e+01    0.3213574    0.2764438  26.05  0.001416629    1.215    0.177
        62 -10.9779    137.6594    207.8079   8.0683966677e+01   1.5154697346e+01    0.3007655    0.1427587  21.55  0.001390568    2.378    0.580
        63 -11.3275    219.9814    206.2056   6.5033172639e+01   4.2560469725e+00    0.1830536    0.1406378  17.65 0.0004308269    1.195    0.163
        64 -10.7954      6.2421    207.3181   1.1031487181e+02   3.0580401818e+01    0.1405093    0.1237552   4.86  0.001073717    1.518    0.341
        65 -10.4693    247.6759    206.3394   6.0774932321e+01   9.6747043588e-01   0.08671474   0.07828687  -4.98 0.0007051101    1.724    0.420
        66 -15.4223     88.4054    185.6890   8.9207181926e+01   2.5947595910e+01     1.157101    0.7173519 -72.58  0.006238859    1.993    0.498
        67 -12.1564    113.6018    205.8710   8.5646598357e+01   1.8810043050e+01    0.2829648    0.1741487  39.73  0.001379691    1.332    0.249
        68 -12.0015    109.4987    206.4564   8.6626838109e+01   1.9271853416e+01     0.239941    0.1686482  16.36 0.0007423076    1.476    0.323
        69 -10.7797     18.7271    205.3810   1.0745412363e+02   2.9900687877e+01    0.1939951    0.1295627  74.27  0.001305691    1.394    0.283
        70 -11.7789    214.0051    201.3532   6.5264952474e+01   5.5594741814e+00    0.3077039    0.1991049  48.63  0.001835624    2.456    0.593
        71 -10.9737     13.6552    202.0766   1.0850490751e+02   3.0973106958e+01    0.2473949   0.09373941  40.22  0.001327867    1.824    0.452
        72 -12.2940    225.2469    198.8702   6.3036683373e+01   4.4141998785e+00    0.2708623     0.188842 -36.23   0.00149011    1.835    0.455
        73 -13.2618    136.5055    176.5405   7.6455937727e+01   2.0481926680e+01     0.459309     0.366706 -48.16  0.002767202    1.465    0.317
        74 -14.0046    127.0126    185.6008   7.9987815459e+01   2.0361120837e+01    0.6869983    0.4789178  -4.68  0.002716587    1.919    0.479
        75 -12.9547    135.9460    185.5165   7.7959740597e+01   1.9017278697e+01    0.3645624    0.2928732  74.63 0.0009999322    1.782    0.439
        76 -13.5963    143.1206    181.9650   7.5830177582e+01   1.8511773158e+01    0.6504917    0.2613984  30.57  0.002723536    2.404    0.584
        77 -15.9310    139.4754    168.5300   7.4469919891e+01   2.1421334803e+01     1.687945     1.120291 -86.36  0.007090323    3.487    0.713
        78 -12.8678    134.3004    198.2238   8.0129688583e+01   1.7148890502e+01     0.342492     0.205282  28.09 0.0006398432    1.431    0.301
        79 -15.4947    139.4657    195.5727   7.8645366560e+01   1.6824047808e+01     1.704311    0.4975291  36.20  0.006727233    2.785    0.641
        80 -12.5238    114.1125    199.5542   8.4777316688e+01   1.9813770913e+01    0.2568084    0.1891006  30.33  0.001585757    1.127    0.113
        81 -11.2560     16.3183    197.9884   1.0775563694e+02   3.1544538652e+01    0.2337201    0.1334176  52.87  0.001100611    1.348    0.258
        82 -10.7399     18.7240    194.2597   1.0705265200e+02   3.2076571407e+01    0.1838754     0.130218 -13.56 0.0008863808    2.177    0.541
        83 -13.8696    189.5562    195.0589   6.8552907987e+01   9.6279996259e+00     0.575552    0.2736688  37.94  0.002555864    1.906    0.475
        84 -11.1908     26.6098    195.2744   1.0520877636e+02   3.1162599650e+01    0.2030861    0.1528341 -64.93  0.001245351    1.617    0.382
        85 -10.1066    238.5157    196.5122   6.0594270012e+01   3.0386072361e+00    0.1096655   0.08020759   3.16 8.483994e-05    1.011    0.011
        86 -11.3079    212.9574    194.4488   6.4342167226e+01   6.5070641604e+00    0.2186741    0.1544012 -41.30 0.0009083914    1.939    0.484
        87 -12.9773    159.1451    190.8495   7.3803786919e+01   1.4645114802e+01    0.3750166    0.1994567 -44.02  0.001980506    2.192    0.544
        88 -14.0043    165.4639    193.5511   7.2938897010e+01   1.3305251243e+01    0.5209039    0.3107275  43.51  0.001818337    1.715    0.417
        89 -12.9871    172.9828    188.6321   7.0675945026e+01   1.2912393206e+01    0.3015376    0.2200757  49.22  0.001050731    1.710    0.415
        90  -9.6311      5.2717    190.7169   1.1014493819e+02   3.3894143619e+01    0.1198858   0.06069783  53.45 0.0003183383    1.499    0.333
        91 -12.1818    179.9130    188.7812   6.9356115273e+01   1.1867628443e+01    0.2008521    0.1715052 -77.44  0.001251114    2.123    0.529
        92 -12.0834    112.1695    187.3094   8.3668270583e+01   2.2266765610e+01    0.4332352    0.2704795   2.34  0.002015655    2.558    0.609
        93 -12.0927    143.6948    188.2914   7.6672341135e+01   1.7375479826e+01    0.2571957    0.1357137  18.43  0.001086293    2.381    0.580
        94 -11.0529    248.2898    186.0279   5.7434359766e+01   2.9661787227e+00    0.1972275    0.1167866   9.42 0.0007392806    1.528    0.346
        95 -11.0050    208.6365    185.8631   6.3662650018e+01   8.1419583325e+00    0.1487426    0.1017899 -37.15 0.0005578197    1.717    0.418
        96 -12.6742    186.8844    185.8676   6.7560097964e+01   1.1250272490e+01    0.3888007    0.1691393  40.66   0.00165693    2.196    0.545
        97 -10.8373    213.5306    184.5387   6.2609576468e+01   7.6299072420e+00    0.1166848   0.09234467   6.43 -2.048251e-05    1.036    0.035
        98 -15.8888    125.5689    168.0235   7.7646228832e+01   2.3784806820e+01     1.423261    0.9919155  36.86  0.007450941    1.255    0.203
        99 -12.9819    177.6457    182.4419   6.8752400163e+01   1.3111717432e+01    0.3981627    0.2065562  22.27  0.001948915    2.066    0.516
       100 -13.5179    117.9109    179.6319   8.1249708728e+01   2.2820972256e+01    0.4563071    0.4407322  40.34  0.002170339    1.145    0.127
       101 -10.9940     23.1470    181.5346   1.0542335367e+02   3.4299220976e+01    0.1634753    0.1038601  30.33 0.0003729647    1.426    0.299
       102 -13.0256    164.3401    180.1212   7.1023240064e+01   1.5502787916e+01    0.4750853    0.1637091  28.80  0.001684183    3.613    0.723
       103 -12.4212    191.3335    178.0464   6.5410199508e+01   1.1672186862e+01    0.2524868    0.2006147 -26.37 0.0009051631    1.323    0.244
       104 -13.2155    154.4344    177.8964   7.2726882574e+01   1.7410142165e+01    0.3275698    0.2600127  24.50  0.001956906    1.078    0.073
       105 -11.7163    159.0574    178.4810   7.1846285907e+01   1.6586995902e+01    0.2612963    0.1115009  32.29  0.001150846    2.160    0.537
       106 -11.4434     28.8738    177.7687   1.0375804984e+02   3.4571959787e+01      0.23051    0.1468114  69.87 0.0007860107    1.441    0.306
       107 -11.7681      8.5660    182.2178   1.0911113888e+02   3.5380097923e+01    0.2113826    0.1691724   4.33  0.001233942    1.600    0.375
       108 -17.2002    106.6673    143.6754   7.8324343391e+01   3.1844654392e+01     3.386628     2.786248 -65.45   0.01856182    1.355    0.262
       109 -12.6640    174.8991    173.2269   6.7718089883e+01   1.4904349762e+01    0.2594285    0.1864982 -54.56  0.001457501    1.999    0.500
       110 -14.7146    154.1834    167.1333   7.0948993777e+01   1.9237048110e+01     0.805395    0.5021452 -18.76  0.003618718    2.124    0.529
       111 -12.6478    160.1835    169.5438   7.0086737806e+01   1.7850150445e+01    0.3210299    0.2190708 -50.09  0.001111807    1.810    0.448
       112 -13.8407    158.5801    157.3251   6.8212807183e+01   2.0160567675e+01    0.5485852    0.2794289  35.64  0.002545657    1.814    0.449
       113 -10.3077     31.6556    172.3048   1.0270239657e+02   3.5488341623e+01    0.1819443   0.09508307  44.44 0.0009578324    1.546    0.353
       114 -11.1231     27.7950    171.5719   1.0368967546e+02   3.6015145629e+01    0.2679597    0.1543671  36.35  0.001497484    1.460    0.315
       115 -10.9234    197.3533    170.3241   6.2949570006e+01   1.1831066482e+01    0.1322758   0.08340058   6.05 0.0007047246    1.760    0.432
       116 -13.2512    171.6653    168.3828   6.7508470765e+01   1.6167130002e+01     0.406976    0.2082886 -31.36  0.001506398    2.182    0.542
       117 -12.5419    167.9076    167.4888   6.8113495954e+01   1.6919651722e+01    0.3101417    0.1976624   4.45  0.001197516    2.021    0.505
       118 -12.6708    201.7239    167.3004   6.1621268015e+01   1.1579552263e+01    0.2834174    0.2139117  61.44  0.001614136    2.272    0.560
       119 -10.5878    159.0525    241.7209   8.0591762244e+01   7.6942227517e+00    0.1787164    0.1387832  72.37  0.001182625    2.606    0.616
       120 -10.1293    200.2613    247.2896   7.4006898265e+01   2.2242098430e+00    0.1006771   0.05960854   7.13 0.0006890883    1.493    0.330
       121 -10.1762    222.5149    164.4874   5.7603664674e+01   8.8548343262e+00    0.1213501   0.09423018   1.24 -6.138842e-05    1.052    0.049
       122 -11.1674    186.5866    243.2961   7.5837055892e+01   4.2101400701e+00    0.1622481    0.1007096 -39.37  0.001138476    2.139    0.532
       123 -13.5917    171.0130    160.1363   6.6131426129e+01   1.7579477245e+01    0.4225748    0.3326391  46.37  0.002485544    1.404    0.288
       124 -10.7096      3.3195    161.8963   1.0985767986e+02   4.0150141586e+01    0.2494919    0.1220266  58.81   0.00134071    1.676    0.403
       125 -11.6420    116.1923    240.1816   8.8700254041e+01   1.3178026709e+01    0.1797077    0.1308566  29.14 0.0003580804    1.046    0.044
       126 -11.6516    184.4236    156.3116   6.2751394193e+01   1.5930400941e+01    0.2075102     0.155855  54.56 0.0007246333    1.742    0.426
       127 -11.3626      3.5437    154.2168   1.0955771333e+02   4.1864031180e+01    0.3039102    0.1369145  59.29  0.001077193    1.858    0.462
       128 -12.0306    212.2484    154.0675   5.7328995187e+01   1.1750350076e+01    0.2177851    0.1731265  37.23 0.0006942229    1.376    0.273
       129 -14.3577    169.2404    150.5667   6.4656915578e+01   1.9442187416e+01    0.6907459    0.4255711  47.54  0.003475858    1.731    0.422
       130 -12.2361    170.5153    145.6890   6.3419135512e+01   2.0024742967e+01    0.2995246    0.2010341  -2.23  0.001464785    1.913    0.477
       131 -14.3271    146.9010    148.8913   6.9199835613e+01   2.3703484050e+01    0.5962236    0.5516108  44.66 0.0007427644    1.153    0.133
       132 -12.0304    179.9608    150.3148   6.2447732256e+01   1.7616569196e+01    0.1903942    0.1587597  21.04 0.0005865074    1.087    0.080
       133 -10.7954    165.9571    240.2849   7.9152507259e+01   7.0232108081e+00    0.1546507    0.1106426  20.65  0.001025299    1.023    0.022
       134 -12.6906    156.4088    145.1321   6.6313324795e+01   2.2664993484e+01    0.3632492    0.1836012  44.28  0.001027098    1.921    0.479
       135 -13.5973    127.7948    147.2250   7.3459465676e+01   2.7431907271e+01    0.5158406    0.2869702  50.70  0.001433783    1.952    0.488
       136 -14.4975    132.6599    148.8957   7.2574234762e+01   2.6242338249e+01    0.8373783    0.5336202 -13.83  0.003586696    2.536    0.606
       137 -12.5649     17.5012    143.5523   1.0498138075e+02   4.3329078720e+01    0.3958138    0.2342435  21.05  0.001248744    1.768    0.434
       138 -11.4020    202.9984    143.4777   5.6815689069e+01   1.4717995178e+01     0.184875    0.1182461  38.10 0.0005309844    1.548    0.354
       139 -11.4064    151.1766    142.0528   6.6858562595e+01   2.4175778415e+01    0.2183728    0.1800147   6.34  0.000547605    1.273    0.215
       140 -10.8438    224.5602    148.4746   5.4260168231e+01   1.0585711215e+01    0.2146746    0.1602334 -53.58  0.001017347    2.104    0.525
       141 -13.0378    140.2129    134.5739   6.7866611232e+01   2.7632182747e+01    0.5153114    0.2592795  31.27  0.002075709    2.212    0.548
       142 -10.9512    168.5410    138.4726   6.2337224392e+01   2.1595174991e+01    0.1364711    0.1253721  11.68 0.0001388858    1.027    0.026
       143 -12.4001    159.7929    136.1747   6.3713861712e+01   2.3626112311e+01    0.3909922    0.2123408 -26.32  0.001400044    2.353    0.575
       144 -12.6241      4.7319    136.0785   1.0854144215e+02   4.6028944760e+01    0.3741485    0.1709199  79.06  0.001236417    2.016    0.504
       145 -11.8802      3.0299    130.9841   1.0886964501e+02   4.7360524984e+01    0.2593963    0.1601971 -87.85  0.001449192    1.461    0.316
       146 -17.3308     54.5569    118.6969   9.0181915915e+01   4.5696439491e+01     5.506652     2.939696  38.61   0.02481098    1.741    0.426
       147 -13.1400    131.9190    132.3515   6.9439851244e+01   2.9644469538e+01    0.3649536    0.3031681 -47.80  0.001519653    1.291    0.225
       148 -12.4454    114.6676    120.0590   7.1336674734e+01   3.5514084043e+01    0.2671846      0.20053  29.03 0.0005107438    1.383    0.277
       149 -14.4363    154.8476    127.6480   6.2947170607e+01   2.6111029759e+01     1.019244    0.6031336  42.52  0.004742252    1.628    0.386
       150 -12.9246     93.0948    114.4134   7.6489837653e+01   4.0799956300e+01    0.3499408    0.2628155  85.64  0.001648363    1.672    0.402
       151  99.0000     16.3924    228.8527   1.0867775342e+02   2.5839363936e+01     1.447446    0.4354507  38.44  0.007838544    2.018    0.504
       152 -10.6651    189.1324    121.8526   5.4668980855e+01   2.0443106191e+01      0.18923    0.1880953 -62.81 0.0005858313    1.217    0.178
       153 -10.8837    205.5385    120.4035   5.1495769549e+01   1.7611725562e+01    0.3031748    0.1160973 -35.53  0.001259833    2.412    0.585
       154  -9.9291    250.6961    119.3316   4.4766507446e+01   1.0210537457e+01    0.1120271   0.08224379 -46.28 0.0005083005    1.657    0.396
       155 -14.1877    120.5973    123.1389   7.0393049875e+01   3.3712629300e+01    0.9004185    0.4427913 -62.08  0.003204804    3.058    0.673
       156 -11.6947    137.7822    131.0304   6.7699458439e+01   2.8786385387e+01     0.270771    0.1997701  32.78 0.0005876721    1.315    0.239
       157 -13.8238     82.8863    113.9440   7.9672120160e+01   4.2677996841e+01    0.5834557    0.4081624 -83.86  0.002318331    1.767    0.434
       158 -13.6572     88.5440    110.3662   7.7050771886e+01   4.2559141035e+01    0.5700724    0.3571402 -37.96  0.001447395    1.933    0.483
       159 -11.5721    144.8671    115.5140   6.2442025442e+01   3.0393737238e+01     0.241333    0.2134051 -73.29  0.001288472    1.343    0.256
       160 -12.5458    105.3226    114.6486   7.2804479807e+01   3.8493116271e+01     0.352057    0.3053635  16.71 0.0006133164    1.269    0.212
       161 -12.5930    108.4913    111.5156   7.1138618683e+01   3.8584682451e+01    0.3159653     0.236118  50.36  0.001311904    1.324    0.245
       162 -12.4216    114.9993    110.4668   6.9004595853e+01   3.7531291371e+01    0.3732877    0.2643334 -46.59  0.001054486    1.469    0.319
       163 -11.4482     99.1830    114.4408   7.4607468415e+01   3.9688665270e+01    0.3725742    0.1362808  41.13  0.001278978    2.566    0.610
       164 -11.8004    121.5790    111.3050   6.7372213434e+01   3.6025623950e+01    0.4034337    0.2410291 -32.79  0.001672109    2.055    0.513
       165 -11.7793    164.9911    109.9898   5.6598456660e+01   2.7227674957e+01     0.225589    0.1819095 -77.28  0.001134451    1.703    0.413
       166 -11.4673     18.9609    105.9822   1.0163572745e+02   5.2567931307e+01    0.2868187    0.1835827 -56.04  0.001122916    1.584    0.369
       167 -13.2563     14.9823    105.2777   1.0309762658e+02   5.3031742964e+01    0.5773913    0.2211135 -57.64  0.002391404    2.502    0.600
       168 -11.6856    140.8840    108.2122   6.1607100299e+01   3.2640028992e+01      0.36741     0.200638  59.31  0.001413864    2.388    0.581
       169 -10.7180    134.0261    127.6249   6.7888002620e+01   3.0186648608e+01    0.2039908     0.174919  36.36 0.0005431225    1.102    0.093
       170 -13.1076    105.3412    104.0129   7.0252014017e+01   4.0878276418e+01    0.5414941    0.3465656  60.07   0.00211982    1.876    0.467
       171 -11.1889    174.9659    106.3017   5.3678293210e+01   2.5780592150e+01    0.1908327     0.176603  28.28 0.0002906313    1.077    0.071
       172 -17.4169     51.4503    229.2568   1.0132089113e+02   2.2393264064e+01     4.024405      1.89994  38.07   0.02396907    1.495    0.331
       173 -10.5719    117.0093    103.6634   6.6736278442e+01   3.8591525459e+01    0.2165037    0.1962357  40.56 0.0005687267    1.073    0.068
       174 -12.1390      1.9361    102.4653   1.0790423865e+02   5.4503789388e+01     0.419559    0.1577572 -89.45  0.001531017    2.439    0.590
       175 -15.2011     89.7789    100.2709   7.4275150782e+01   4.4722362268e+01     1.917212    0.6941634  43.41  0.006491099    2.677    0.626
       176 -14.1382     72.7389     97.6074   7.9588666113e+01   4.8338355993e+01     0.720606    0.4933563  51.15    0.0020267    1.495    0.331
       177 -13.0004     58.1241     99.8098   8.5531515180e+01   5.0001261969e+01    0.5014018    0.4251928 -23.22  0.002666443    1.399    0.285
       178 -13.0782     60.1835     93.6584   8.3437834944e+01   5.1265794634e+01    0.5548563    0.3390968 -68.52  0.002490674    1.694    0.410
       179 -11.2381    179.0269    100.0261   5.1342481511e+01   2.5964686922e+01    0.2119268    0.2027834 -17.44 0.0004822203    1.032    0.031
       180 -11.1715    162.8210    100.6098   5.4694417247e+01   2.9334656164e+01    0.2049655    0.1391578  61.41 0.0009440987    1.720    0.419
       181 -10.4409    174.7329    243.5923   7.7958578238e+01   5.5787658319e+00    0.1460531   0.07715331  34.40 0.0006374443    1.516    0.341
       182 -12.3390     39.1744     95.6302   9.2247291323e+01   5.3423582760e+01    0.3328116    0.2322456   8.08  0.001645416    1.737    0.424
       183 -13.6371     35.5324     93.6646   9.3422230510e+01   5.4316126218e+01     0.706479    0.3550224   1.88  0.001497459    3.221    0.690
       184 -11.1139    237.9244     98.9081   4.2056158365e+01   1.4773747419e+01    0.1830623    0.1538859 -25.85 0.0004285423    1.063    0.059
       185 -10.3924    191.6718     98.6925   4.8756726871e+01   2.3543489808e+01    0.1416134    0.1033786  11.98 0.0007038311    1.657    0.396
       186 -10.8272    150.3572     96.2766   5.6269357169e+01   3.2850505384e+01    0.1531122    0.1149922  16.95 0.0005581985    1.655    0.396
       187 -10.2116    107.3161     96.3099   6.7653229585e+01   4.2194694808e+01    0.1537786     0.123152  -1.41 0.0002886947    1.635    0.388
       188 -11.6557     65.6654     95.1610   8.1661555304e+01   5.0067892456e+01    0.3539897     0.195328  37.25 0.0007631673    1.766    0.434
       189 -10.8620    214.1672     92.7942   4.3824424555e+01   1.9912797998e+01    0.1825186    0.1445026  -0.57 0.0005736801    1.336    0.252
       190 -10.6496    196.4950     92.4867   4.6423672027e+01   2.3489481296e+01    0.1365507    0.1257651 -19.92 0.0004674439    1.001    0.001
       191 -12.0995      2.5724     90.9375   1.0694978921e+02   5.7416603451e+01    0.2428724    0.2136514 -81.54 0.0004512068    1.060    0.057
       192 -10.3270    197.9945    242.7823   7.3821984622e+01   2.9429109860e+00    0.1369687   0.06381457  29.40 0.0003671035    1.612    0.380
       193 -11.5785     21.4898     91.2543   9.8986318991e+01   5.6196027826e+01    0.2345944    0.1840889  24.94 0.0007717618    1.361    0.265
       194 -13.5956     79.1116    100.2959   7.7934469019e+01   4.6615004563e+01    0.5683362    0.3400275 -60.66  0.001655572    1.733    0.423
       195 -12.2310     11.7848     88.2377   1.0281029128e+02   5.7638571316e+01    0.4711762    0.2416915 -89.41  0.002132922    1.864    0.464
       196 -12.5943     62.6242     82.5680   7.9808534908e+01   5.3678475254e+01    0.3175606    0.2894523  73.42  0.001121197    1.118    0.105
       197 -12.8819     72.6904     87.9645   7.7240479832e+01   5.0712150947e+01    0.4276277    0.2959144  78.50  0.001861264    1.956    0.489
       198 -12.3548     66.0148     86.9814   7.9572293221e+01   5.2050225159e+01    0.3150758    0.2228625 -69.90 0.0008946414    1.497    0.332
       199 -12.8777     68.4954     83.6244   7.7727122289e+01   5.2475482241e+01    0.4078877    0.2587459  37.92  0.001430491    1.566    0.361
       200 -12.2101     78.4941     88.7891   7.5288851674e+01   4.9504915089e+01    0.2952846    0.2128522  39.13  0.001180897    1.372    0.271
       201 -11.2007    170.9144     88.1244   4.9783025417e+01   2.9681675257e+01    0.2178163    0.1945335 -66.34 0.0004395815    1.245    0.197
       202 -11.2800    148.5090     87.9628   5.4405459224e+01   3.4793914182e+01    0.2290753    0.1957196  49.56 0.0004487668    1.168    0.144
       203 -13.9309     54.0833     85.0850   8.3959876462e+01   5.4303488351e+01    0.7865629    0.5195024  53.00  0.003688299    1.625    0.385
       204 -11.9313     50.7991     78.6080   8.3820239110e+01   5.6395093054e+01     0.271324    0.1880085  62.81 0.0008718192    1.676    0.403
       205 -12.9979     31.4272     87.7295   9.4197115472e+01   5.6265515789e+01    0.4105232    0.2441165   9.93  0.001896355    2.045    0.511
       206 -11.6657    177.8594     86.9969   4.8191002064e+01   2.8321187346e+01    0.2268056    0.2050208  48.05 0.0003735737    1.147    0.128
       207 -11.4461     45.9212     86.6616   8.7752770189e+01   5.4966812969e+01    0.1977384     0.180987  47.03 0.0004723259    1.104    0.094
       208 -13.1456    106.9149     80.9671   6.3385052315e+01   4.5618021157e+01    0.5570189    0.4036959 -67.48  0.002492483    1.689    0.408
       209 -10.0741    222.4242     82.1665   4.0188890004e+01   1.9746910860e+01    0.1769396    0.1043365 -39.27 0.0003157906    1.529    0.346
       210 -11.6676    206.6577     81.4900   4.2144270136e+01   2.2979820540e+01    0.2544237    0.2171409 -59.96  0.001191617    1.300    0.231
       211 -11.9857    152.1330     80.6332   5.1509665550e+01   3.5267382016e+01     0.387003    0.2630162  33.62  0.001241805    1.698    0.411
       212 -12.6263     77.5919     81.7117   7.3684140149e+01   5.1359402404e+01    0.4387258    0.2235635  53.35  0.001638744    2.363    0.577
       213 -11.8160    183.1414     78.0016   4.4862786428e+01   2.8549197815e+01    0.4738437    0.2535237 -30.01   0.00207918    1.829    0.453
       214 -12.7186     87.6080     79.0024   6.9207654039e+01   5.0087875103e+01     0.406297    0.3633713  -8.75  0.001338696    1.285    0.222
       215 -12.6721     28.0635     79.7634   9.4361017707e+01   5.8651292700e+01    0.3229472    0.2010522  54.77  0.001331644    1.724    0.420
       216 -10.2319    214.4587     78.9624   4.0449471873e+01   2.1739548377e+01    0.1832411   0.09245227 -49.21 0.0004843221    2.238    0.553
       217 -10.5005    199.6653     79.6796   4.2702223288e+01   2.4695531944e+01    0.1403901    0.1027407  15.13 0.0007049665    1.703    0.413
       218 -11.1211    120.4403     78.6386   5.8698706104e+01   4.3061756185e+01    0.2892649     0.187016  46.28 0.0006614979    1.523    0.343
       219 -10.6294    112.4929     76.4733   6.0302608732e+01   4.5317104250e+01    0.3511201    0.1457013 -50.07  0.001178041    2.699    0.629
       220 -11.9312    115.9433     74.5368   5.8681841784e+01   4.4920642649e+01    0.3220266    0.2708752   1.71  0.000987357    1.455    0.313
       221 -10.8137    189.9725     77.4991   4.3618340646e+01   2.7106879828e+01    0.2025558    0.1382957  55.60 0.0005412629    1.552    0.356
       222 -13.0098     74.8370     75.7746   7.3009246110e+01   5.3266211957e+01     0.496492    0.3456023  30.39  0.001208068    1.540    0.351
       223 -11.2026    158.0513     75.9773   4.8915203907e+01   3.4673333296e+01    0.2164338    0.2145646  19.50            0    1.022    0.022
       224 -12.9307     51.6287     74.2217   8.2338457582e+01   5.7386137129e+01    0.4218079    0.2759061  64.82  0.001881927    1.931    0.482
       225 -11.4304     23.0547     76.4839   9.6156044398e+01   5.9927452619e+01    0.1989647    0.1364694  19.43  0.001030452    1.584    0.369
       226 -10.4659    177.6105     75.1566   4.5022988010e+01   3.0239362279e+01     0.197388    0.1345061 -19.94 0.0003968501    1.607    0.378
       227 -12.1326     31.8779     74.7495   9.1634138608e+01   5.9596993831e+01    0.4049503    0.2491383   2.12  0.001626257    2.095    0.523
       228 -10.6036    232.1665     73.4846   3.6973795593e+01   1.8993855319e+01    0.1597162    0.1265322  59.66  0.000560655    1.478    0.323
       229 -10.7467    125.0167     73.3512   5.5795890590e+01   4.3030414226e+01    0.2218468    0.1949427  50.42 0.0005458141    1.121    0.108
       230 -10.9580     94.4998     73.0173   6.4923439468e+01   5.0008711861e+01    0.2337376     0.152574 -47.58 0.0004264796    1.554    0.357
       231 -10.7586    219.7825     72.5927   3.8213620280e+01   2.1512667167e+01    0.1633901    0.1266827  84.67 0.0005111883    1.622    0.383
       232 -11.3397      4.0131     72.5174   1.0482421503e+02   6.2101453934e+01    0.1777646    0.1306198  12.34 0.0004745575    1.536    0.349
       233 -12.1001    188.4669     66.2457   4.0813395745e+01   2.9080613028e+01    0.4806754    0.2182228 -35.47  0.001411624    1.993    0.498
       234 -13.3655    100.0822     66.5298   6.0890055245e+01   5.0168014186e+01    0.7231882    0.4370722 -43.66  0.003079013    1.682    0.406
       235 -11.5728     87.0089     68.4709   6.6069390426e+01   5.2571377766e+01    0.2334682    0.1494907  43.42 0.0004633481    1.546    0.353
       236 -12.3229     60.3324     66.9298   7.6355421855e+01   5.7868775230e+01    0.3945373    0.2695799 -10.56  0.001679645    2.226    0.551
       237 -11.4299    197.5608     67.1520   3.9738814653e+01   2.6914375529e+01    0.2701907    0.1678476  25.07   0.00120205    2.328    0.571
       238 -11.2897    250.0208     66.1442   3.3456517777e+01   1.6606979722e+01    0.1735671    0.1435436 -31.04 0.0003415266    1.017    0.017
       239 -10.7438     78.8751     65.6780   6.8195565320e+01   5.4829725499e+01    0.2080885    0.1927154  61.46 0.0004260185    1.103    0.093
       240 -11.2817     74.0037     66.2859   7.0338419676e+01   5.5627603775e+01    0.2180603     0.197826  43.94 0.0005747824    1.102    0.092
       241 -11.8152    114.4077     64.0335   5.5639244465e+01   4.7344168504e+01    0.4052535     0.247916 -63.81 0.0006502465    2.330    0.571
       242 -12.2097    109.6986     60.0908   5.5630324099e+01   4.9222226724e+01    0.3532715    0.3013269  75.98  0.001459178    1.275    0.216
       243 -11.0062     91.1389     62.8342   6.2639790962e+01   5.2910902946e+01    0.2081286    0.1834374  13.06 0.0004055822    1.283    0.220
       244 -12.8619     45.3039     61.2699   8.1708138986e+01   6.1469082052e+01    0.4103582    0.2878642  25.76    0.0018323    1.512    0.338
       245 -11.9435     13.1392     62.1829   9.8841853630e+01   6.4320122736e+01    0.2120182    0.1675736 -48.32  0.000699265    1.225    0.184
       246 -11.7187      3.5417     59.3223   1.0365941995e+02   6.5514568172e+01    0.3546576    0.2162242  -3.34   0.00157218    1.903    0.474
       247 -12.2218    193.3762     57.6810   3.7755345404e+01   2.9149789738e+01    0.2873094    0.1913415 -60.82  0.001049227    1.705    0.414
       248 -11.4550    153.5460     57.6302   4.4210057925e+01   3.8761015927e+01    0.2638162    0.2443289 -63.49 0.0002982022    1.079    0.073
       249 -10.9385    119.5415     58.5068   5.2285117879e+01   4.7129824072e+01    0.1528213    0.1500618  60.32 8.891613e-05    1.016    0.016
       250 -11.4857     98.9920     57.4807   5.8020258714e+01   5.2242682219e+01    0.2937661    0.2216723 -22.67 0.0007818597    1.568    0.362
       251 -13.5119     28.5248     56.1387   8.9123749325e+01   6.4680200314e+01    0.7494825    0.2720574  38.81  0.002855405    2.845    0.649
       252 -11.3269    111.2767     53.7240   5.2849445962e+01   5.0027134005e+01    0.3272008    0.1722846  35.46  0.001177489    2.493    0.599
       253 -11.4922    181.2740     51.5408   3.7707142387e+01   3.2819948032e+01    0.2552321    0.1427724  70.31   0.00082668    1.978    0.495
       254 -11.8101    174.1320     50.4254   3.8432995416e+01   3.4706714958e+01     0.321993    0.2450097 -89.16  0.001637383    1.472    0.321
       255 -11.7477     94.7145     50.4051   5.6738938350e+01   5.4603955818e+01    0.5050018    0.2514954 -23.12  0.001575241    3.668    0.727
       256 -11.9258     29.4199     50.1438   8.6967590497e+01   6.6086342129e+01    0.2459968    0.2233134  67.77 0.0007305318    1.199    0.166
       257 -11.5536     17.7935     50.1251   9.3854570345e+01   6.7096312597e+01    0.3455037    0.1891213 -60.48  0.001676822    1.593    0.372
       258 -11.5095     20.4127     46.2362   9.1290708099e+01   6.7871719626e+01    0.2588634    0.1140122 -62.82  0.000638921    1.974    0.494
       259 -12.1386     37.8604     50.1336   8.2149895440e+01   6.5140366526e+01    0.2137428    0.1929843  73.01  0.001003482    1.224    0.183
       260 -10.6482      1.3985     47.2717   1.0336732496e+02   6.8651798891e+01     0.178804    0.1108692  87.75 0.0005128584    1.573    0.364
       261 -10.7535    157.1478     46.1462   3.9844624657e+01   3.9566844042e+01    0.2105642    0.1965989  19.93 0.0003117263    1.184    0.156
       262 -12.2761    143.1958     45.4036   4.2173081524e+01   4.3271948556e+01    0.4224427    0.2372101 -20.98   0.00169767    2.138    0.532
       263 -11.8096    131.9063     48.4495   4.5637303715e+01   4.5723042405e+01    0.5194341    0.1471382  58.64  0.001115592    3.460    0.711
       264 -11.0154    153.0275     44.9639   4.0178017980e+01   4.0793110009e+01    0.2177889     0.214233 -56.65 0.0003320466    1.044    0.042
       265 -10.3851     89.9997     44.9552   5.6153374841e+01   5.6723310080e+01    0.1779891    0.1766238 -27.05 0.0003778816    1.028    0.028
       266 -10.3005    226.6728     44.6867   3.0602793229e+01   2.3528220312e+01    0.1233547   0.09458409  19.28 0.0007042812    1.668    0.400
       267 -11.2425    195.8139     44.1635   3.3696839895e+01   3.0342933629e+01    0.2134804    0.1734034 -58.91 0.0006747678    1.201    0.168
       268 -10.7699    188.9694     42.9770   3.4193062748e+01   3.2101331985e+01    0.1670782    0.1566937 -78.01 0.0005626309    1.072    0.067
       269 -10.9176     51.0220     42.9960   7.2314398103e+01   6.4920827104e+01    0.1765871    0.1650255 -39.47 0.0006378452    1.040    0.039
       270 -11.4660    146.0142     39.4929   3.9580972984e+01   4.3390658301e+01    0.2200042     0.196718 -38.56 -0.0001133405    1.124    0.111
       271 -11.3132    104.2134     39.9763   4.9501561407e+01   5.4169629620e+01    0.2634116    0.2133862  52.07 0.0005255383    1.195    0.163
       272 -12.5395     35.0970     39.8390   8.0112413186e+01   6.7922222255e+01    0.4980755     0.255715  18.58  0.002113063    2.352    0.575
       273 -11.3382     60.1539     37.7088   6.5361487408e+01   6.4445954073e+01    0.2560122    0.1992027 -56.88  0.001009481    1.404    0.288
       274 -10.5046    110.4276     37.5208   4.6742061608e+01   5.2991663708e+01    0.1500249    0.1462042  72.22 9.687775e-05    1.011    0.010
       275 -10.0535     93.3069     37.3416   5.1766735555e+01   5.7297249267e+01     0.156362    0.1177558  16.47 0.0007042701    1.687    0.407
       276 -10.7927    238.2218    248.8110   6.8207905373e+01  -1.9572343762e+00    0.1535847   0.09922439 -17.33  0.001124152    1.512    0.339
       277 -11.1281    223.2150     33.1397   2.8028390711e+01   2.5540917399e+01    0.2845491    0.1047624 -18.29 0.0007842222    3.407    0.706
       278 -11.9953     43.8551     33.8227   7.2316044496e+01   6.8052310899e+01    0.2784498    0.2189425  37.52 0.0006593145    1.313    0.238
       279 -10.6655    124.2415     33.0257   4.1557545336e+01   5.0053638346e+01    0.2035717    0.1939099 -60.03 0.0002894714    1.060    0.057
       280 -11.6882    106.8976     32.3678   4.5530053411e+01   5.4691991597e+01    0.3253832    0.2229231 -30.62 0.0007302396    1.526    0.345
       281 -10.7067    214.6462     31.3172   2.8295026227e+01   2.7586352523e+01    0.1433144   0.08192004 -56.48 0.0007046357    1.743    0.426
       282 -12.2217    170.3092     30.0487   3.2661522301e+01   3.8304758651e+01    0.4339253    0.2638749  -4.52  0.001771516    2.270    0.560
       283 -12.3765     74.4178     30.3675   5.5444080670e+01   6.2893393010e+01    0.3856418    0.2147114  47.64 0.0009309631    1.744    0.427
       284 -10.2890    242.2063     30.2002   2.5868539439e+01   2.2002525189e+01    0.1648088    0.1126762 -48.81 0.0002929579    1.260    0.207
       285 -11.5177    140.2057     29.6782   3.7111234736e+01   4.6249108891e+01    0.3937742    0.2552688  31.64  0.001717221    1.964    0.491
       286 -12.4690     39.0646     29.1234   7.3018352678e+01   6.9774782416e+01    0.3472255    0.2790482 -13.74  0.001135358    1.334    0.250
       287 -11.2379    156.0307     29.2796   3.4393093059e+01   4.2099736540e+01    0.2049041    0.1873887  85.31 0.0003823248    1.058    0.055
       288 -11.1397    178.9746     28.0091   3.0961299266e+01   3.6354912063e+01    0.2040668    0.1923994 -55.85  0.001212892    1.042    0.040
       289 -11.6252    101.6898     25.2885   4.3814834676e+01   5.7066596537e+01    0.2675395    0.2293624 -71.60  0.001088616    1.281    0.219
       290 -10.6341    177.5537    249.3296   7.8135537084e+01   4.6073206524e+00     0.122024   0.08657521  -6.73 0.0009224266    1.432    0.302
       291 -11.3581    172.1216     22.3099   2.9979970837e+01   3.8733329771e+01    0.3267889     0.188578 -12.55  0.001439866    2.107    0.525
       292 -10.3547     20.5932     23.2025   8.3237448736e+01   7.3335801876e+01    0.1948421    0.1053115 -47.98 0.0009434892    1.653    0.395
       293 -10.1906    249.9913     22.2367   2.3537967631e+01   2.1314098254e+01    0.1319388   0.09630349  85.22 0.0003997311    1.560    0.359
       294 -10.6229    134.3079     18.5790   3.3922738507e+01   4.9186731469e+01    0.2066505    0.1284364  58.21  0.000936186    1.528    0.345
       295 -10.7134    103.6268     15.7962   3.8903810008e+01   5.7794057951e+01    0.2952757    0.1039425  61.00  0.001025591    2.525    0.604
       296 -10.7736    127.3601    247.4550   8.7201869080e+01   1.0827948310e+01    0.2072074    0.1385525 -32.93  0.001441391    1.998    0.500
       297  -9.9738    139.6954    247.2825   8.4826321212e+01   9.3602779879e+00    0.1045289   0.06746203  44.18 0.0002748403    1.557    0.358
       298 -13.2131     30.1402     33.5803   8.0794674324e+01   6.9961617532e+01    0.5786461    0.3601993 -16.89  0.002123832    2.088    0.521
       299 -10.7417    108.0761    244.2463   9.0686050026e+01   1.3585673510e+01    0.2786871    0.2017317  69.00  0.001954971    1.871    0.465
       300 -11.9694    179.9370    244.2312   7.7112920825e+01   4.8894382880e+00    0.1886838    0.1597071  -6.11 0.0007456521    1.363    0.266
       301  99.0000     14.3797    237.2871   1.0930092843e+02   2.4585886594e+01     0.266875    0.1345042  34.98  0.001773033    1.427    0.299
