#   1 NUMBER                 Running object number                                     
#   2 MAG_AUTO               Kron-like elliptical aperture magnitude                    [mag]
#   3 X_IMAGE                Object position along x                                    [pixel]
#   4 Y_IMAGE                Object position along y                                    [pixel]
#   5 X_WORLD                Barycenter position along world x axis                     [deg]
#   6 Y_WORLD                Barycenter position along world y axis                     [deg]
#   7 A_WORLD                Profile RMS along major axis (world units)                 [deg]
#   8 B_WORLD                Profile RMS along minor axis (world units)                 [deg]
#   9 THETA_WORLD            Position angle (CCW/world-x)                               [deg]
#  10 FWHM_WORLD             FWHM assuming a gaussian core                              [deg]
#  11 ELONGATION             A_IMAGE/B_IMAGE                                           
#  12 ELLIPTICITY            1 - B_IMAGE/A_IMAGE                                       
         1 -15.6320     35.4332    134.2767   1.1752397634e+02   4.3586997426e+01     3.469522      1.97028 -53.84  0.004358215    1.705    0.413
         2 -14.6341    129.2747    122.1698   8.9997696554e+01   3.2097443686e+01     2.283425     1.683799  88.12  0.005866688    1.861    0.463
         3 -13.5518      3.0946    156.0402   1.2736814931e+02   4.1403227425e+01     4.795453    0.6387638 -77.07   0.01417898    6.275    0.841
         4 -14.6758      5.1413     86.6755   1.1967582701e+02   5.6932123994e+01     1.509814    0.7599654 -72.76  0.004559678    1.583    0.368
         5 -13.4854     34.2222     28.8769   9.3270763719e+01   6.6813968446e+01     1.633106    0.7165374 -40.53  0.008276015    1.882    0.469
         6 -13.1549    198.7122     34.6541   5.0456455099e+01   3.1127120547e+01     1.086892    0.8922746  35.05  0.004060844    1.419    0.295
         7 -13.3764    210.6832     21.5709   4.5391704237e+01   2.9719621111e+01     1.059879    0.8055034  18.09  0.005572656    1.811    0.448
         8 -10.2528      1.7676     19.7886   1.0563158580e+02   7.0996184780e+01    0.2418935   0.09130919 -56.61  0.001258207    2.187    0.543
         9 -10.5759    249.9570     10.1055   3.8955838286e+01   2.1729655774e+01    0.4092607    0.1599295 -41.78  0.001895344    2.105    0.525
        10 -10.8331     60.5071      1.5183   6.9150689835e+01   6.7064758732e+01    0.3214373     0.183986  44.63  0.001797799    1.718    0.418
        11 -10.4057    249.5961      2.3948   3.7273392369e+01   2.2653510720e+01    0.2797828     0.220338 -81.56  0.001807826    1.121    0.108
        12 -13.5444     29.5472    195.1665   1.2477403986e+02   3.0642128004e+01     0.702667    0.3514453 -85.02  0.002316842    1.751    0.429
        13 -16.2364    142.8290    244.0276   1.0793804796e+02   5.7060567418e+00     5.436384     1.489388  46.68   0.02161909    3.061    0.673
        14 -15.3788     26.0632    213.0128   1.2661909938e+02   2.7443340119e+01     1.887449     1.021924  30.83   0.01137277    2.346    0.574
        15 -16.2256     74.6065    248.4281   1.2055440456e+02   1.5109885666e+01     2.108542    0.5640632  41.06  0.009531378    2.942    0.660
        16 -16.9217     39.0988    246.4458   1.2636330238e+02   1.9882370695e+01     1.998729    0.8887014  39.02  0.009823493    2.130    0.530
        17 -15.6313     25.5024    240.6318   1.2825611503e+02   2.2409796437e+01    0.6618423      0.49804  38.67  0.003384361    1.673    0.402
        18 -17.0665     43.4935    229.4926   1.2458704794e+02   2.2376720293e+01     1.474808     1.041152  72.72  0.006022459    1.072    0.068
        19  -9.8475     15.0777    197.3867   1.2767427610e+02   3.1642937780e+01    0.1548303   0.09606823  56.20  0.001049296    1.366    0.268
        20  -9.6771    193.0435    191.9776   9.0365656898e+01   5.2920227690e+00    0.3670263    0.2881647   6.14  0.002067489    1.373    0.272
        21 -12.5007     68.4857    144.1002   1.1037891743e+02   3.7397176134e+01    0.9936187    0.5399429  69.39  0.003391648    2.513    0.602
        22 -15.2863      6.0862    247.7339   1.3160119204e+02   2.3186186652e+01    0.8637165    0.3927388  49.74  0.006072167    1.630    0.387
        23  -9.3758     17.2191    191.2492   1.2688517847e+02   3.2689161621e+01    0.1447565   0.09280555  71.61 0.0002263894    1.231    0.188
        24 -11.5958     99.2988    167.0907   1.0643322682e+02   2.7439435976e+01    0.7858905    0.4359737 -66.87  0.002971618    1.904    0.475
        25 -10.7093     90.2451    230.3536   1.1620068827e+02   1.6055035602e+01    0.3457904    0.1846197 -84.60 0.0009534934    2.372    0.578
        26 -14.1136      2.5171    186.1898   1.2938257034e+02   3.5049614336e+01    0.7153926    0.2092973 -79.61  0.003404904    2.760    0.638
        27  -9.1168    194.0569    166.6906   8.5221087173e+01   9.4287223688e+00    0.2094802    0.1741327  33.52   0.00113823    1.135    0.119
        28 -10.7194     82.5757    164.0929   1.0993113520e+02   3.0740867314e+01    0.2596668    0.2329662 -75.92 0.0005188803    1.123    0.110
        29  -8.9975      4.4999    228.7006   1.3108789621e+02   2.6663590972e+01    0.1189793   0.07736335 -79.71 0.0007672776    1.480    0.324
        30 -12.5000     70.6604    160.0023   1.1219080402e+02   3.3390619706e+01    0.5308432    0.4074908 -29.07  0.001402397    1.926    0.481
        31 -10.2329     88.3991    157.7516   1.0755878613e+02   3.1300915781e+01    0.3941697    0.2481498 -37.21  0.001145639    2.253    0.556
        32 -11.3046     90.3189    141.6522   1.0432371279e+02   3.4741897571e+01     0.256093    0.2297451 -54.70  0.000403664    1.165    0.141
        33  -9.1610    111.9800    131.2176   9.6574204052e+01   3.3428532868e+01    0.2356337    0.1772488   5.09  0.001063838    1.992    0.498
        34  -9.5909    106.0006    130.5757   9.8010571523e+01   3.4671254505e+01    0.2856362    0.2066216 -73.56  0.001361306    1.533    0.348
        35  -9.8058     98.9375    127.6575   9.9278105324e+01   3.6599356914e+01     0.252602    0.2117428 -26.85 0.0005670985    1.434    0.303
        36 -10.3466    209.2525    120.9095   7.1818711776e+01   1.4498758890e+01    0.4140623    0.3498102  67.87  0.002138631    1.373    0.272
        37  -9.2999    108.1009    119.8528   9.5054189102e+01   3.6778807145e+01    0.2148939    0.1947915  83.44 0.0002794249    1.143    0.125
        38 -11.5370    103.5517    158.2362   1.0395360872e+02   2.8719368589e+01    0.5978861    0.4818613  86.94  0.002044493    1.273    0.214
        39  -9.5815    205.6742    110.1189   6.9803976969e+01   1.7255044216e+01    0.2877908    0.2211631  41.88 0.0006913913    1.352    0.261
        40  -8.6019     89.4466    101.3998   9.5911018656e+01   4.4346959140e+01    0.1431162    0.1347605 -67.04 9.927875e-05    1.048    0.046
        41 -15.1189    117.0005    170.9889   1.0294433617e+02   2.3557570386e+01     1.624181      1.48244  -1.56  0.005054062    1.390    0.280
        42 -14.2145    133.6285    153.3727   9.5796735897e+01   2.4290262458e+01     1.669837     1.253847  53.85   0.00516225    1.319    0.242
        43 -15.5306     10.9451    108.8169   1.2093191311e+02   5.1534871204e+01     1.352866     1.238399  41.15  0.007392645    1.364    0.267
        44 -12.0311      1.8593    214.1327   1.3089110421e+02   2.9599797269e+01    0.8387567   0.09326798 -70.57  0.003184483    5.492    0.818
        45 -10.2802     69.3839    179.2121   1.1496216653e+02   2.9246884021e+01    0.3834583    0.2374377 -38.65  0.001858446    2.627    0.619
        46 -10.5789     73.7945    173.8721   1.1331373870e+02   2.9814687622e+01    0.2526214    0.2016171 -52.34 0.0007901305    1.461    0.315
        47  -9.1252     13.4830     59.8797   1.1177601067e+02   6.2372706600e+01    0.1753815   0.09503197 -61.80  0.000557025    1.472    0.321
        48  -9.8742    150.0481     53.6037   6.4864983616e+01   4.0915601488e+01    0.2690374    0.2058159 -53.70 0.0005692418    1.444    0.308
        49 -12.2068     37.5511     49.8576   9.9367745153e+01   6.2529497301e+01    0.7998364    0.4935003 -14.25  0.003593881    1.964    0.491
        50 -11.8630     50.7338     38.9136   9.0101422367e+01   6.3109900313e+01    0.6335095    0.4794826 -23.87  0.002277514    1.155    0.134
        51 -12.4866     11.4215    205.9619   1.2883042011e+02   3.0286120024e+01    0.4322376    0.2657226  40.13  0.002054946    1.715    0.417
        52 -12.3549     42.7335     35.9717   9.2312762707e+01   6.4615689157e+01    0.5850062    0.3946092  13.58  0.002480224    1.611    0.379
        53  -9.5201    150.9651     46.4661   6.2314820157e+01   4.1786359096e+01     0.274941    0.2023111 -52.99 0.0006444863    1.517    0.341
        54 -11.6808    189.6038     41.2836   5.3680212361e+01   3.2578956757e+01    0.3548805    0.3442518  79.05 0.0008748471    1.048    0.046
        55 -11.2564      4.6609    206.1731   1.3003610145e+02   3.0871324476e+01    0.2969927    0.1374095  82.07 0.0009167515    1.758    0.431
        56 -10.6317     86.4032    201.6171   1.1393986505e+02   2.2088509345e+01    0.4411703    0.2255742  31.14  0.001817173    2.432    0.589
        57 -13.0079     36.0784     40.1197   9.6698779256e+01   6.4574951596e+01    0.7468691    0.5023243  20.96  0.003420674    1.650    0.394
        58 -10.4802      2.2565     36.3516   1.1058690531e+02   6.7829271507e+01    0.2838199    0.1651583 -54.68 0.0009252416    1.290    0.225
        59 -10.0547     90.6662    199.6834   1.1283209338e+02   2.1842226271e+01    0.2319297    0.2039386  37.48 0.0008124401    1.335    0.251
        60 -11.2841     52.4830    200.0055   1.2065459967e+02   2.7022843300e+01    0.7150909    0.2251748 -72.69   0.00259551    3.156    0.683
        61 -11.1340     55.4885    197.5162   1.1982769064e+02   2.7161902348e+01    0.5641998    0.2893961 -69.89  0.002477154    1.841    0.457
