#   1 NUMBER                 Running object number                                     
#   2 MAG_AUTO               Kron-like elliptical aperture magnitude                    [mag]
#   3 X_IMAGE                Object position along x                                    [pixel]
#   4 Y_IMAGE                Object position along y                                    [pixel]
#   5 X_WORLD                Barycenter position along world x axis                     [deg]
#   6 Y_WORLD                Barycenter position along world y axis                     [deg]
#   7 A_WORLD                Profile RMS along major axis (world units)                 [deg]
#   8 B_WORLD                Profile RMS along minor axis (world units)                 [deg]
#   9 THETA_WORLD            Position angle (CCW/world-x)                               [deg]
#  10 FWHM_WORLD             FWHM assuming a gaussian core                              [deg]
#  11 ELONGATION             A_IMAGE/B_IMAGE                                           
#  12 ELLIPTICITY            1 - B_IMAGE/A_IMAGE                                       
         1 -14.9762      8.4694    148.3292   1.4299895863e+02   4.3385281730e+01     7.454195     3.552456  83.43   0.03677144    2.374    0.579
         2 -13.2431    195.6574     30.6906   6.8257826427e+01   3.2890241301e+01     1.196592     1.108383  71.75  0.006264098    1.138    0.121
         3 -13.5591    211.2227     11.0611   6.1681164443e+01   3.1438276809e+01     1.212289    0.9339539  37.21  0.007187006    1.765    0.433
         4 -11.5689      2.2939     11.8410   1.1612243767e+02   7.0933801985e+01    0.7106631    0.1040321 -42.12  0.002897782    4.206    0.762
         5 -11.4616    126.4698    245.1962   1.2956971058e+02   6.5792314481e+00    0.3043965    0.1563707  44.78  0.001552379    1.626    0.385
         6 -11.7821    248.7429    248.5289   1.0725175471e+02  -1.3988287032e+01    0.4812403    0.2523502  34.72  0.002782937    1.671    0.402
         7  -9.7116     66.5298    250.1378   1.4106900797e+02   1.4978310248e+01    0.2023264    0.1345435  53.69 0.0005519263    1.254    0.203
         8 -10.1021     47.1882    249.7507   1.4434330884e+02   1.7644849334e+01    0.1620452    0.1175804  66.06 0.0006512899    1.083    0.077
         9 -11.3091     29.5817    249.4401   1.4721886593e+02   1.9870787936e+01    0.3754184    0.2586753  63.56  0.002360421    1.149    0.130
        10 -12.3121     35.5611    244.2357   1.4589255876e+02   2.0136825899e+01    0.5092999    0.4045693  63.11  0.003850031    1.262    0.207
        11 -11.4867     19.7454    242.6715   1.4838480313e+02   2.2270303922e+01     0.398364    0.1689533  75.24  0.002174816    2.189    0.543
        12 -11.2833     15.2378    249.9399   1.4952089271e+02   2.1407374485e+01     0.508076    0.2918357  32.28  0.003213727    2.556    0.609
        13 -11.5116      4.0484    248.5795   1.5116769699e+02   2.2844210054e+01    0.5633251    0.3378883  72.21  0.004180738    1.162    0.139
        14 -11.1439      1.8269    240.1979   1.5108324860e+02   2.4627865722e+01    0.4146777    0.1206385 -75.55  0.002137526    2.778    0.640
        15 -10.9474     13.0762    244.8826   1.4957653691e+02   2.2581993260e+01    0.3056344    0.1313656  65.44  0.001407727    1.882    0.469
        16 -12.3191     11.3826    239.1932   1.4952296955e+02   2.3837322130e+01    0.4463238    0.2029241  73.77  0.001915308    1.844    0.458
        17 -11.2945    234.5424    238.7493   1.0811321444e+02  -1.0637170486e+01    0.3077969    0.2312019 -78.51  0.001534867    3.460    0.711
        18 -10.1860    185.8553    238.8324   1.1721892178e+02  -2.6316203121e+00     0.174004    0.1448622  57.84  0.000342744    1.331    0.249
        19 -10.3513     22.2260    237.1749   1.4763615378e+02   2.3046897932e+01    0.2502833    0.1509262 -53.14  0.001527069    2.532    0.605
        20 -11.2685     50.6739    234.9280   1.4258070594e+02   2.0045013497e+01    0.2781301    0.1867605 -72.99  0.001522886    1.460    0.315
        21 -10.8863    229.7749    249.2666   1.1072510591e+02  -1.1295968297e+01    0.2219671    0.1333519  37.26  0.001308557    1.461    0.315
        22 -11.8108    140.0832    248.9038   1.2745103214e+02   3.6332008818e+00    0.4092446    0.3287999  75.24  0.002603732    1.322    0.244
        23 -10.1138    228.8659    228.5318   1.0737532385e+02  -8.3207652336e+00    0.2274609    0.1657244 -53.70  0.001051841    1.987    0.497
        24  -9.7942    150.4959    229.4886   1.2272827711e+02   5.2207906650e+00    0.1343533    0.1163096  49.39 0.0008105515    1.010    0.010
        25 -12.8159      9.3707    207.0233   1.4784292239e+02   3.0461625292e+01    0.7076507    0.5706589  40.83  0.003899757    1.612    0.380
        26 -12.1956      3.8767    189.4060   1.4759938869e+02   3.4690214038e+01    0.9487696    0.3267227 -69.02  0.004833644    2.241    0.554
        27 -10.4471      6.5829    215.0384   1.4886450710e+02   2.9084442259e+01    0.1620878    0.1518502  72.62 0.0005896248    1.526    0.345
        28  -8.9282    152.6932    212.9370   1.1969816165e+02   7.9192897279e+00    0.1806276    0.1713233  85.57 0.0003948795    1.111    0.100
        29 -11.5000     61.0231    197.4280   1.3691123624e+02   2.6566751697e+01    0.2916954    0.2252704 -55.70  0.000574875    1.511    0.338
        30  -9.7488    192.3273    193.8174   1.0803937241e+02   3.9437814034e+00    0.5881522    0.2910731 -65.39  0.001424807    7.861    0.873
        31 -12.6709     34.1738    231.0979   1.4518609696e+02   2.2861387644e+01    0.2892564     0.229604 -77.17 0.0007623445    1.372    0.271
        32 -11.7829     67.2130    189.3133   1.3461342543e+02   2.7538765086e+01    0.2905095    0.2383041 -65.19 0.0004991321    1.269    0.212
        33 -14.5906     40.0135    223.3363   1.4354053207e+02   2.3724705839e+01     4.333968      1.45875  37.57  0.008199032    3.089    0.676
        34 -10.8755     77.3542    176.7590   1.3062580529e+02   2.8964948892e+01    0.2497565     0.217474 -75.62 0.0003665139    1.106    0.096
        35 -13.1830     64.1323    174.6304   1.3336646333e+02   3.1353880473e+01    0.5071124    0.2778503 -46.63  0.001690037    2.233    0.552
        36  -9.3895     97.0878    173.3847   1.2548543104e+02   2.6618719089e+01    0.2398943    0.1842033 -53.69 0.0007396275    1.348    0.258
        37 -11.7475     84.8385    167.3858   1.2741084977e+02   3.0023620470e+01      0.65156    0.5796025 -78.66  0.003831117    1.055    0.052
        38  -9.9631     97.5850    151.7606   1.2148894257e+02   3.1652732009e+01      0.29317    0.2732524  48.02 0.0008755306    1.162    0.140
        39  -9.1976    100.6705    147.6198   1.1989212093e+02   3.2105445492e+01     0.250662    0.1813661 -23.87  0.001133451    2.022    0.505
        40 -12.0569     86.2121    150.9045   1.2421304312e+02   3.3734493021e+01    0.2969905    0.2478893 -47.12 0.0005717279    1.276    0.216
        41 -12.3652     67.4944    143.6726   1.2772597614e+02   3.8241027296e+01    0.7088625    0.4704772  69.15  0.002940616    1.798    0.444
        42  -8.5410    192.2853    143.7255   9.7393791482e+01   1.3873285406e+01    0.1482853    0.1208536 -84.31 0.0003300034    1.507    0.337
        43 -10.2859     55.2980    229.9747   1.4132064997e+02   2.0424245728e+01    0.2603696    0.1495817  63.33  0.001318847    1.483    0.326
        44  -9.7494    109.5266    136.9198   1.1535650703e+02   3.3041883064e+01    0.3816891    0.2516274 -27.79  0.001598223    2.169    0.539
        45 -10.4651     96.6301    134.2007   1.1816555969e+02   3.5994623759e+01    0.2521131    0.2289382 -28.92 0.0005696329    1.243    0.195
        46 -10.9275     55.8492    129.2917   1.2825231983e+02   4.3168907325e+01    0.3251399    0.1831503 -62.73  0.001243947    1.549    0.355
        47  -8.9927    106.6519    123.8362   1.1313575193e+02   3.6630185835e+01    0.1999805    0.1731925 -59.43 0.0003843933    1.107    0.097
        48 -10.2680    167.9181    112.9070   9.5112223062e+01   2.5872361870e+01     0.363121    0.2870667 -83.36  0.001029693    1.530    0.346
        49  -9.0383    203.4701    111.5018   8.7463672012e+01   1.7760103300e+01    0.1514553    0.1463935 -55.17 7.225678e-05    1.037    0.035
        50 -10.7006    242.8356     92.1640   7.6386120718e+01   1.2360520302e+01    0.1882554    0.1725319  -8.72  0.001087562    1.341    0.254
        51  -9.6459    158.0185     77.0051   8.7566531341e+01   3.5211951998e+01    0.1839644    0.1787465 -59.73 0.0005185261    1.045    0.043
        52 -10.2479    125.5528    225.8465   1.2722058840e+02   1.0330412184e+01    0.3454224    0.2361666  17.97  0.001656857    2.397    0.583
        53  -9.5951     44.1755     68.0321   1.1786261736e+02   5.7889802126e+01    0.2496735    0.1546607  47.45 0.0009272477    2.272    0.560
        54  -9.1975     32.2795     62.4085   1.2052446175e+02   6.0160206711e+01    0.1435945    0.1107254  32.56 0.0008399767    1.577    0.366
        55 -10.3106     15.1556     55.3447   1.2493624262e+02   6.2873805428e+01    0.1788936    0.1640268  69.57 0.0006893232    1.576    0.366
        56 -11.1667     99.1348    249.0979   1.3513470078e+02   1.0326321313e+01    0.2861477    0.2238827  34.99  0.001594478    1.540    0.351
        57 -10.9325    198.7227    246.4478   1.1597301495e+02  -5.9652184703e+00    0.2493065    0.1041912  44.47  0.001139419    2.141    0.533
