#   1 NUMBER                 Running object number                                     
#   2 MAG_AUTO               Kron-like elliptical aperture magnitude                    [mag]
#   3 X_IMAGE                Object position along x                                    [pixel]
#   4 Y_IMAGE                Object position along y                                    [pixel]
#   5 X_WORLD                Barycenter position along world x axis                     [deg]
#   6 Y_WORLD                Barycenter position along world y axis                     [deg]
#   7 A_WORLD                Profile RMS along major axis (world units)                 [deg]
#   8 B_WORLD                Profile RMS along minor axis (world units)                 [deg]
#   9 THETA_WORLD            Position angle (CCW/world-x)                               [deg]
#  10 FWHM_WORLD             FWHM assuming a gaussian core                              [deg]
#  11 ELONGATION             A_IMAGE/B_IMAGE                                           
#  12 ELLIPTICITY            1 - B_IMAGE/A_IMAGE                                       
         1 -12.9909    240.4114    130.6823   7.0183335347e+01   6.1514194485e+00     2.630856    0.8627747 -29.56  0.008717283    3.248    0.692
         2 -12.2485    120.4195    105.1357   8.9479701040e+01   3.7578759491e+01     2.283816     1.905307 -84.85   0.01131844    1.439    0.305
         3 -11.8459     67.4200    136.0198   1.1053839469e+02   3.9250389275e+01     1.598483    0.7836043 -67.71  0.007200452    1.938    0.484
         4 -10.7748     65.8491     20.5686   7.7291359571e+01   6.3629582754e+01    0.6854082    0.3870296  -5.32  0.003188515    2.283    0.562
         5 -10.4600     29.0004     16.5273   9.1112993018e+01   6.9180357756e+01    0.5016356    0.2255943 -28.06  0.002504719    2.152    0.535
         6  -9.3270      2.8613     10.4049   1.0173318076e+02   7.2343778078e+01    0.5266278   0.08717687 -39.41  0.001937187    4.346    0.770
         7  -8.5213    156.4844      9.5202   4.9826281783e+01   4.4765831836e+01    0.2498214    0.1363651  -1.00  0.001039899    2.483    0.597
         8 -10.2875     91.0737      8.3386   6.3297328212e+01   6.0401617537e+01    0.3637187    0.2603922  -2.65  0.002056872    1.352    0.260
         9 -11.2730     67.0970      7.8810   7.0761506004e+01   6.5035477821e+01    0.7390842    0.2950158  41.05   0.00337415    2.360    0.576
        10  -8.6980    141.4826      9.0066   5.2149880169e+01   4.8633989597e+01    0.2049481    0.1085705  16.79 0.0008103006    2.650    0.623
        11  -9.4469     17.8357      5.2421   9.1264974136e+01   7.2026026854e+01    0.3884881    0.2405938 -58.14  0.002067097    3.103    0.678
        12 -10.2312     40.6940      3.5632   7.9156683985e+01   6.9650004493e+01    0.4617159    0.2772869  -2.02  0.001959985    1.682    0.405
        13 -10.3568    100.6743      2.9588   5.8328068363e+01   5.8862496111e+01     0.395362     0.256076  27.84  0.002112122    1.459    0.315
        14  -9.0953      2.2700      3.0601   9.8756580326e+01   7.3595872592e+01    0.2642429     0.166341 -21.41  0.001414932    1.288    0.224
        15  -8.0185     23.7541      1.3726   8.6142557040e+01   7.1992997106e+01     0.143678   0.09138165  10.82  0.000462051    1.521    0.343
        16  -8.3761      8.8808      1.3127   9.4140278848e+01   7.3389485353e+01    0.1469222    0.0849131   4.28 0.0009372938    1.795    0.443
        17 -11.3464     10.5195    207.1939   1.2985699901e+02   3.0116321891e+01    0.5462762    0.4070461  28.93  0.004116362    1.937    0.484
        18  -8.8810    126.4355    209.2620   1.0816644779e+02   1.4394773810e+01    0.3265322    0.2095418 -18.86  0.001372763    3.805    0.737
        19 -10.9542    244.5465    205.7797   8.5207648500e+01  -5.4380909685e+00    0.6675554    0.3366381  15.88  0.003051063    2.585    0.613
        20  -8.0075     88.1578    206.8132   1.1544073911e+02   2.0876383345e+01    0.1458621    0.1391274  75.76 0.0003227793    1.277    0.217
        21  -8.3605    164.3792    204.6164   9.9932423561e+01   8.6059062272e+00    0.2332427    0.1203719 -61.72 0.0009560693    3.282    0.695
        22 -11.4281    192.6840    195.0494   9.2726374556e+01   5.0158529103e+00    0.9854819    0.5709563 -62.46  0.003938796    3.648    0.726
        23  -9.7869    226.2200    195.9696   8.6605881494e+01  -1.1141953580e+00    0.4815291    0.2565609  10.27  0.001779239    3.065    0.674
        24  -9.1972    181.1063    194.9762   9.4983756878e+01   7.1617827598e+00    0.3324363    0.1749745 -55.26  0.001430351    2.777    0.640
        25 -13.2377    244.7615    177.7025   7.9736069959e+01  -1.7606916885e+00     2.560569     1.279874 -37.83   0.01229432    2.083    0.520
        26 -13.4258    184.6384    172.3963   9.0000086079e+01   1.0361631699e+01     2.803123     1.455182  50.25   0.01201396    2.009    0.502
        27  -8.4343     75.5034    249.0190   1.2161175991e+02   1.5133098203e+01    0.1302596   0.08584645 -45.46 0.0008102228    2.650    0.623
        28 -11.9359    223.3409    176.9326   8.3398112022e+01   2.1735398526e+00    0.9521957    0.6241832  16.77  0.004192322    1.660    0.398
        29  -7.8296     78.4701    176.5587   1.1384005573e+02   2.8496153996e+01    0.1298827    0.1103557  78.81 4.719073e-05    1.008    0.008
        30  -7.7084    133.4816    171.9836   1.0089042400e+02   2.0377140749e+01    0.1891526    0.1209422 -27.34 0.0008078946    2.435    0.589
        31  -8.4311    215.5589    168.1402   8.3030230972e+01   5.0165800274e+00    0.2909793    0.1698714  27.33  0.001323984    1.869    0.465
        32 -11.8829    230.7740    169.0687   8.0417491077e+01   1.9962357947e+00    0.9416649    0.5262706 -35.19  0.003080201    1.775    0.436
        33  -8.7862     71.0346    161.4185   1.1349745231e+02   3.2888748595e+01    0.4457076    0.1925531  59.58  0.001747303    3.062    0.673
        34  -8.5273     78.2677    161.0206   1.1175744273e+02   3.1963963135e+01    0.1876187    0.1565206 -84.52  0.000401767    1.073    0.068
        35 -10.1289    192.6984    155.6485   8.4829254402e+01   1.1734599424e+01    0.2702643    0.2526215  17.13  0.001291207    1.015    0.015
        36  -9.4629     23.2509    156.3930   1.2378029333e+02   3.9459527680e+01    0.2746495    0.1313852 -69.58  0.001091227    1.698    0.411
        37  -9.5447    240.9752    247.4987   9.2855887118e+01  -9.6110900007e+00    0.1764312   0.08714274  36.19  0.001041939    1.617    0.382
        38 -11.6245    136.2778    132.1316   9.2121499031e+01   2.8362132601e+01     1.567491    0.3358849 -49.94  0.003846362    5.200    0.808
        39 -10.1341    134.9899    120.5339   8.9659172639e+01   3.1174833472e+01    0.4352264    0.2813271 -45.06  0.001277852    1.523    0.344
        40 -11.3855    134.6620    110.0204   8.7047547283e+01   3.3539864815e+01     1.423117    0.2903095 -45.98  0.003479439    4.868    0.795
        41 -10.3432    175.5774    187.4950   9.4743964618e+01   9.4630255591e+00    0.4817286    0.3097922 -37.09  0.002441162    1.726    0.421
        42 -11.7434    209.4787    186.5924   8.7911176718e+01   3.2483836225e+00     1.031783    0.5778148 -53.56  0.004461987    2.865    0.651
        43 -11.0939    190.2457    149.6096   8.3988172454e+01   1.3351975784e+01     1.096845    0.5040393 -58.42  0.002917842    5.697    0.824
        44  -8.9333    153.5512    153.5148   9.2787295216e+01   2.0268479345e+01    0.2148537    0.1380072  54.01 0.0005913705    1.640    0.390
        45 -11.2577    133.3528    144.2386   9.5519670739e+01   2.6299619029e+01     1.499817    0.3853055 -53.91  0.003846971    5.146    0.806
        46  -8.6865    113.2785    151.4993   1.0181468838e+02   2.8468684068e+01    0.3734625    0.2219596 -81.43  0.001469254    2.657    0.624
        47 -10.2276    202.9672    187.8235   8.9391255290e+01   4.2599219952e+00    0.3459022    0.2502213 -63.65   0.00172803    2.246    0.555
        48  -9.9968     54.0484    147.3564   1.1560245949e+02   3.8284796079e+01    0.7597532    0.3008674 -59.36  0.002744306    2.188    0.543
        49  -9.7116     59.6708    146.3961   1.1409578452e+02   3.7821402793e+01    0.9340209    0.2535006 -61.97  0.003437382    3.071    0.674
        50 -10.7560     68.4774    144.2340   1.1159236477e+02   3.7183683168e+01    0.5690523    0.5047283  40.25  0.003027415    1.296    0.229
        51  -9.4825     38.1091    242.8542   1.2728067044e+02   2.0773786467e+01    0.2695601     0.203049  -9.53  0.001544766    4.304    0.768
        52  -9.2401     27.3454    145.2486   1.2173493676e+02   4.1587199657e+01    0.2107942    0.1592125 -65.05 0.0008461843    1.258    0.205
        53 -11.5824    200.6690    164.1875   8.5073652447e+01   8.6030240760e+00    0.9018887    0.5879723 -54.69  0.003985447    2.054    0.513
        54 -11.4454    171.4767    137.3959   8.5167121806e+01   1.9743330707e+01    0.5737551    0.4198143  36.44  0.002712147    1.389    0.280
        55 -11.8883    182.7375    134.8920   8.2135322866e+01   1.7758769843e+01    0.8847723    0.5150899 -34.04  0.003721685    1.781    0.438
        56 -10.5054    184.2166    123.5697   7.9037760257e+01   1.9612958028e+01    0.3981399      0.30763  52.85  0.001429646    1.353    0.261
        57 -10.7243    186.4120    119.2906   7.7491257226e+01   1.9931941468e+01    0.4094997    0.2959786 -36.89 0.0009749485    1.359    0.264
        58 -11.2754    188.7851    131.3814   8.0016383433e+01   1.7088846050e+01    0.5268773    0.4429058  17.57    0.0020129    1.263    0.208
        59 -11.3674    185.1474    129.1683   8.0234955032e+01   1.8324766648e+01    0.5373484    0.4312837 -45.35  0.001755048    1.281    0.219
        60 -10.5786    197.5923    129.6237   7.7789980663e+01   1.5456959257e+01    0.5905374    0.2366208 -40.47  0.002098216    2.450    0.592
        61  -9.4006    215.3617    141.7998   7.7238401706e+01   9.4513028392e+00    0.3971646    0.2431772 -25.31  0.001789212    1.700    0.412
        62 -12.5890    161.5410    128.9081   8.5358391181e+01   2.3649592095e+01     1.465468    0.6728314  35.38  0.004736338    2.704    0.630
        63 -10.6410    146.5888    124.2964   8.7737886173e+01   2.7889566778e+01    0.5468479    0.2923011  55.07  0.001578693    2.152    0.535
        64  -9.5302    153.8881    126.2022   8.6469733046e+01   2.5896856531e+01     0.360349     0.257471  49.01  0.001652585    1.416    0.294
        65  -9.9151    151.3306    122.5769   8.6173974840e+01   2.7222565590e+01    0.3015212    0.2772132   1.59 0.0008368078    1.173    0.147
        66  -9.2057     55.1769    133.3664   1.1328606484e+02   4.1418576477e+01    0.3702847    0.1894649 -72.09  0.001289525    1.837    0.456
        67 -11.7417    156.4038    120.0130   8.4327051936e+01   2.6636385052e+01    0.7805436    0.5337732  75.32  0.003149294    2.200    0.545
        68  -8.2018    118.7761    150.4406   1.0028778236e+02   2.7709732137e+01    0.1838916    0.1399304  31.01 0.0003322971    1.478    0.323
        69  -9.7771    149.3998    130.8875   8.8666349028e+01   2.5877911034e+01    0.2993248    0.2302324  37.45 0.0009665226    1.335    0.251
        70 -10.5285    116.1330     94.6213   8.7755077297e+01   4.0748645094e+01    0.9622874    0.6594462  13.41  0.004033308    2.162    0.537
        71 -10.0338    125.4638    127.3679   9.3708728757e+01   3.1600345550e+01    0.4322628     0.220655 -55.73  0.001680909    2.098    0.523
        72 -10.0068    218.0921    124.2814   7.2552721330e+01   1.1890504159e+01    0.4256651    0.2960021 -36.43  0.002048945    1.374    0.272
        73 -10.6407    163.7067    121.1723   8.2933102146e+01   2.4754818088e+01    0.4808534    0.2144944  40.58   0.00169043    2.407    0.585
        74 -12.4235    221.4977    186.8849   8.5722512690e+01   1.0185777884e+00     1.506726    0.6180167  33.46  0.006125931    2.554    0.608
        75 -11.6529    172.2859    114.4739   7.9273958993e+01   2.4139976610e+01    0.6135357    0.5297953  11.53  0.003039883    1.276    0.216
        76 -12.3151    188.3920    100.1660   7.2025861679e+01   2.3074479487e+01     1.456505    0.6993629 -38.06  0.005488019    2.009    0.502
        77 -11.0659      6.6695    112.6936   1.2329207046e+02   5.0637404737e+01    0.4885547    0.1979167 -57.22   0.00190635    1.990    0.498
        78  -9.4384    156.9995    110.7081   8.1757105904e+01   2.8430784276e+01     0.222479    0.2068342  43.69  0.000391369    1.088    0.081
        79  -8.1634     97.7195    110.9296   9.7207485659e+01   4.0535051428e+01    0.2058627    0.1748918 -57.79   0.00030174    1.106    0.096
        80  -9.2702     60.7650    109.4490   1.0750220503e+02   4.6399483458e+01    0.4336413    0.2352605 -40.34  0.001976542    2.092    0.522
        81  -9.6705     66.0872    105.4547   1.0509976166e+02   4.6656828312e+01     0.360145    0.2925023   4.62   0.00202496    1.583    0.368
        82 -10.0578      3.3270    112.6532   1.2417437423e+02   5.0853051882e+01    0.2576642    0.1844213 -85.22  0.001139203    1.137    0.121
        83  -7.9063    213.7131    106.0135   6.8755245008e+01   1.6045272758e+01    0.2072294    0.1842651 -27.50  0.000653357    1.063    0.059
        84  -8.9293    159.4942    113.4801   8.1910358726e+01   2.7289912405e+01    0.1568934    0.1526257  -5.90  1.72853e-05    1.028    0.027
        85 -10.3866    153.2252     96.7932   7.8805497798e+01   3.2143133707e+01    0.5586407    0.3329496 -50.10  0.002253852    1.800    0.444
        86  -9.8738      3.3801     95.3155   1.2207259195e+02   5.4778662262e+01    0.3302604    0.1258535 -79.74   0.00151479    2.439    0.590
        87 -10.2814    242.3581     94.5993   6.1159826911e+01   1.1512235980e+01    0.4245368    0.3771661 -19.72  0.002417933    1.075    0.070
        88  -8.8160    227.6247     94.9338   6.3528415589e+01   1.4733589158e+01    0.2700799    0.1968506  35.62 0.0004986256    1.538    0.350
        89  -9.3317      2.4273     88.8725   1.2147898546e+02   5.6282552154e+01     0.201239    0.1608086 -32.71  0.001443876    1.466    0.318
        90 -10.2463    180.9413     86.1455   6.9610140942e+01   2.7467270780e+01    0.7637878    0.4241247  12.93  0.001910923    5.804    0.828
        91  -9.0384     46.0314    146.9771   1.1749094812e+02   3.9294278752e+01    0.1916319    0.1426689 -42.85  0.001068492    1.671    0.402
        92 -10.4526      3.8682     82.7878   1.2013510441e+02   5.7572721936e+01    0.3945051    0.2050097 -43.57  0.002275336    1.832    0.454
        93 -12.4374    237.5309    147.3151   7.4488379695e+01   4.0828806753e+00     1.307132     0.924916 -12.91  0.006788144    1.423    0.297
        94  -8.4485    232.3700     79.4171   5.8806668601e+01   1.6139357911e+01    0.2905125    0.1050935  44.73 0.0009573887    3.419    0.707
        95  -8.9752    183.9442     78.6060   6.6829392410e+01   2.8058474321e+01    0.2744705    0.2231862 -16.96 0.0008085077    1.319    0.242
        96  -9.0976    191.8782     75.8845   6.4533340951e+01   2.6534100319e+01    0.2413901    0.2137843  17.29 0.0009356851    1.236    0.191
        97 -10.6704      6.5036     68.3695   1.1677921078e+02   6.0631879565e+01    0.3704327    0.2939701  56.31  0.002590421    1.627    0.385
        98  -8.2924     45.6039     67.8033   1.0256541271e+02   5.7666890275e+01    0.1778032    0.1345201 -53.95 0.0005730042    1.156    0.135
        99  -8.8302    116.8062     67.1198   7.9044280536e+01   4.6229699208e+01    0.2388665    0.2123856  19.72  0.000334908    1.146    0.128
       100  -7.3013     60.2613     67.6952   9.7310701019e+01   5.5949219630e+01    0.1240527    0.1028881 -77.34 0.0001850012    1.521    0.342
       101  -9.0525    233.1634     57.3174   5.2990427788e+01   1.9286405295e+01    0.2851884    0.1126659  54.87   0.00109139    2.599    0.615
       102  -9.8548    227.4715     47.9439   5.1278799561e+01   2.1972171198e+01    0.6228358    0.3155123 -24.89  0.002606011    2.118    0.528
       103 -12.2695    143.7984    145.2902   9.3270187081e+01   2.3977651640e+01     2.190612    0.7353501 -56.83  0.005650881    5.275    0.810
       104  -8.9561     23.5565     47.9574   1.0532154833e+02   6.3879320628e+01     0.212905    0.1460411 -20.45 0.0006157103    1.508    0.337
       105  -9.2497    153.3389     47.3764   6.3284812357e+01   4.0941145168e+01    0.2492276    0.1756494  24.83  0.001115082    1.679    0.404
       106  -9.5533      3.4000     50.3747   1.1415238509e+02   6.4645908685e+01    0.5225272    0.1162093 -39.57  0.001944351    4.311    0.768
       107  -9.7547     11.4531     38.6201   1.0764925813e+02   6.6603107418e+01    0.2754613    0.1643364 -44.91  0.001734516    1.243    0.195
       108  -8.2921    189.9450     36.6925   5.3305336644e+01   3.2960070093e+01    0.2348073    0.1989774 -12.69 0.0005340728    1.301    0.231
       109  -7.9602     64.5263     35.5381   8.4316240392e+01   6.1527838145e+01    0.1323273    0.1130361 -17.07 6.752552e-05    1.045    0.043
       110  -9.9229    219.6867     34.1224   4.8577244222e+01   2.5720841310e+01    0.2460577    0.1900729 -85.62  0.001058423    1.329    0.247
       111  -9.0233    149.5048     34.0037   5.9505256939e+01   4.3791472154e+01    0.2249751    0.1455435 -27.37 0.0007661201    1.588    0.370
       112  -9.2883    144.6643     29.8109   5.9015211406e+01   4.5553109851e+01    0.3992947     0.185091 -21.06  0.001535549    2.438    0.590
       113 -10.8722    215.3135     28.5812   4.7608568677e+01   2.7503017942e+01    0.5074936    0.2907215 -59.63  0.002279691    1.918    0.479
       114 -10.2061     69.5873     27.3032   7.8931792827e+01   6.2035238709e+01    0.4857853    0.3059473  14.37  0.002478888    1.819    0.450
       115  -9.2869     24.5723     27.2616   9.7773081164e+01   6.7776975967e+01    0.2926325    0.1525754 -22.47  0.001547752    2.061    0.515
       116  -8.5331     28.6610     24.6646   9.4832395085e+01   6.7856075272e+01    0.1264488   0.09590829 -26.80  0.000838614    1.012    0.012
       117  -9.6210    153.4012     26.4883   5.6151387494e+01   4.3738729844e+01    0.5043882    0.1892333  48.33  0.001821951    2.517    0.603
       118  -7.4442     10.3149     27.6727   1.0461130906e+02   6.8787526380e+01   0.09994994   0.08680671 -82.48 0.0006454971    1.672    0.402
       119  -8.9714    223.2922    241.4016   9.4891052559e+01  -6.3638393374e+00    0.2870392     0.151776  16.12  0.001500648    2.262    0.558
       120  -9.4850     20.8494     23.9168   9.8190767216e+01   6.8694230733e+01    0.4109849    0.1613622 -29.98  0.001856044    2.765    0.638
       121  -8.3158     19.5027     20.4479   9.7420685545e+01   6.9414702536e+01    0.2022343     0.133308 -50.73  0.001238951    1.527    0.345
       122  -8.5832    249.4116     23.3720   4.2801369559e+01   1.9991401812e+01    0.2407907    0.1252464 -10.89 0.0009623127    3.226    0.690
       123  -8.8830      3.4785     22.3120   1.0603419303e+02   7.0193031185e+01    0.2294892    0.1258338 -40.02 0.0008272703    1.332    0.249
       124  -9.5945    203.1959     17.7949   4.6066445521e+01   3.1827565589e+01      0.31843    0.1809858 -85.84  0.001390169    2.075    0.518
       125 -10.5787    249.1586    236.4797   8.9752353675e+01  -9.6417476376e+00    0.4052629    0.2186514 -23.12  0.002467163    1.923    0.480
       126  -9.6397     75.1387     14.1629   7.0981922175e+01   6.2859530895e+01    0.3327805    0.1765894  44.88  0.001312423    1.862    0.463
       127 -10.1252    244.8942    234.8533   9.0194911656e+01  -8.8550963102e+00    0.3049135    0.1876173  12.41    0.0019067    1.491    0.329
       128  -7.3354    208.4815    240.5276   9.7319385376e+01  -3.9819015899e+00    0.1208817    0.0908492  24.46 0.0001534866    1.067    0.063
       129  -8.8986    139.2553    239.0047   1.0951148244e+02   7.3482988933e+00     0.225213    0.1357772  33.45  0.001296258    1.637    0.389
       130  -8.6723    126.5305    239.0835   1.1181908094e+02   9.3415726825e+00    0.1666797    0.1325326  51.17 0.0005088353    1.016    0.016
       131  -8.6013    221.2407    230.3947   9.3512776827e+01  -4.7669224148e+00    0.2054826    0.1336807 -13.83  0.001092691    1.704    0.413
       132 -10.3384    248.5553    224.9941   8.7933589560e+01  -8.3148054420e+00    0.3892189    0.1824899  29.57  0.002088149    1.859    0.462
       133  -9.0724    161.7700    224.1184   1.0339655448e+02   5.9279955323e+00    0.2177331     0.156421 -41.54   0.00132357    1.686    0.407
       134 -10.0079    239.9437    218.9361   8.8348955921e+01  -6.3163620366e+00    0.3720711    0.1540968 -27.99  0.001803244    2.605    0.616
       135 -10.5664    234.0951    211.9279   8.8129884593e+01  -4.5387229925e+00    0.4767296    0.2943797  50.72  0.002563867    2.088    0.521
       136  -7.6215     28.3067    219.2922   1.2750937281e+02   2.6047746444e+01   0.08938994   0.07807694 -69.95  0.000392734    1.579    0.367
