#   1 NUMBER                 Running object number                                     
#   2 MAG_AUTO               Kron-like elliptical aperture magnitude                    [mag]
#   3 X_IMAGE                Object position along x                                    [pixel]
#   4 Y_IMAGE                Object position along y                                    [pixel]
#   5 X_WORLD                Barycenter position along world x axis                     [deg]
#   6 Y_WORLD                Barycenter position along world y axis                     [deg]
#   7 A_WORLD                Profile RMS along major axis (world units)                 [deg]
#   8 B_WORLD                Profile RMS along minor axis (world units)                 [deg]
#   9 THETA_WORLD            Position angle (CCW/world-x)                               [deg]
#  10 FWHM_WORLD             FWHM assuming a gaussian core                              [deg]
#  11 ELONGATION             A_IMAGE/B_IMAGE                                           
#  12 ELLIPTICITY            1 - B_IMAGE/A_IMAGE                                       
         1 -11.6689    238.3256     66.3399   5.7122689405e+01   1.8207699349e+01      1.89432          nan -30.15   0.00426016    7.613    0.869
         2 -13.4056    234.8065     37.0159   4.9904104379e+01   2.2207179845e+01     1.750903    0.7891344 -25.83  0.007955199    1.897    0.473
         3 -12.9297    247.7833     32.0414   4.7492164922e+01   1.9962789039e+01     2.707685    0.5602087 -25.63  0.009236461    3.580    0.721
         4 -12.9024    230.9167     72.6564   5.9629141082e+01   1.8983389359e+01       1.7592    0.9255179 -40.81  0.008276258    1.866    0.464
         5 -12.4451    231.9883     18.8000   4.5328238689e+01   2.4640297109e+01    0.8370995    0.5721002  -5.67  0.004566453    1.570    0.363
         6 -10.7938    192.4955     55.5071   6.0164141343e+01   2.9781223437e+01    0.8595508    0.2308203 -34.18  0.002789412    3.111    0.679
         7 -12.2428    249.1196     59.6405   5.4264676093e+01   1.6791169867e+01     2.202327    0.4179703 -23.25  0.006121183    5.333    0.813
         8 -13.5347    243.5742     49.8604   5.2376194500e+01   1.8981856916e+01     2.932644    0.8511003 -22.68   0.01049562    3.167    0.684
         9  -9.2695    155.7664     16.1957   5.2607768450e+01   4.3797958958e+01    0.3308502    0.1598883 -25.26  0.001353525    1.990    0.497
        10  -9.7594      8.7574     15.9460   1.0567157879e+02   7.3567351261e+01    0.2779289    0.1254205 -62.26   0.00104822    2.006    0.502
        11  -9.9354    237.5763      8.8247   4.2318129830e+01   2.4312952059e+01    0.2325839    0.1161705 -16.15 0.0007083255    1.967    0.492
        12  -8.6592    160.5018      8.9875   4.9342346603e+01   4.3236921007e+01    0.2191087    0.1392968 -20.15  0.001027196    1.574    0.364
        13  -9.3656    132.8245      8.1213   5.3007036374e+01   5.0651953570e+01    0.2710307    0.1559683 -30.62 0.0008915731    1.713    0.416
        14  -9.3914     18.7914      9.1701   9.5515391681e+01   7.4049335221e+01     0.171433    0.1210428 -24.97 0.0002827789    1.315    0.239
        15  -8.6765    147.6848      8.3377   5.0812273147e+01   4.6695755688e+01     0.155288    0.1023093 -55.40 0.0007047582    1.697    0.411
        16  -8.4462    138.2890      7.6752   5.1946401131e+01   4.9249371660e+01    0.1501855    0.1042797 -54.37 0.0003332502    1.610    0.379
        17 -10.1863    116.6087      5.3107   5.4683927401e+01   5.5144961973e+01    0.2531919    0.2409101  29.22 0.0003523236    1.010    0.010
        18 -10.2063    110.9086      4.9128   5.5634394306e+01   5.6642093584e+01    0.2876502    0.2099185 -26.46  0.001470172    1.377    0.274
        19  -8.7203     74.3417      5.3294   6.5485981337e+01   6.5322314092e+01    0.1504397   0.09530797  21.78 0.0007051352    1.744    0.426
        20  -9.2873    243.2635      3.4093   4.0593007389e+01   2.3547436124e+01    0.2909611    0.1577318   4.08  0.001364128    2.514    0.602
        21  -8.8336    143.5406      3.2589   4.9414025599e+01   4.8241530005e+01    0.2812843    0.1311497 -23.53  0.001151579    2.087    0.521
        22  -9.7212     50.9194      3.4151   7.3516721409e+01   7.0290020008e+01    0.2289298    0.1669962 -16.13 0.0003019888    1.255    0.203
        23  -9.6446     19.0248      4.3154   9.2471858060e+01   7.4928133538e+01    0.1686939    0.1425029 -21.05  0.001128205    1.065    0.061
        24  -8.9350    153.2440      3.1016   4.8085205969e+01   4.5672361508e+01    0.2441324    0.1371477 -46.21 0.0007585514    1.874    0.466
        25  -8.8421    159.1576      2.1546   4.7029585196e+01   4.4179458362e+01    0.2037472    0.1601802 -54.72  0.001071875    1.315    0.240
        26  -8.7174    121.5557      2.0300   5.2298736624e+01   5.4152885820e+01    0.2067309    0.1395055 -12.47 0.0004002864    1.522    0.343
        27  -9.6407     14.9123      2.0026   9.3946119228e+01   7.5793333994e+01    0.1828604    0.1471321 -29.27 0.0002828127    1.007    0.007
        28  -8.3629    239.4858      1.4841   4.0321167966e+01   2.4521181293e+01    0.1260196    0.1077153 -41.32 0.0001575062    1.009    0.009
        29  -9.4342    233.1451    213.6102   8.8428210753e+01   2.1167914104e+00    0.1794897    0.1676814 -24.66  0.001330281    1.813    0.448
        30  -9.5516    210.6109    249.5658   9.6915178350e+01   1.6717061382e+00    0.2078141    0.1257827  -3.13  0.001508223    1.791    0.442
        31  -9.5917    193.8073    249.8288   9.9578887412e+01   3.7430908374e+00    0.1368723   0.09786581  37.46  0.001076317    1.356    0.262
        32  -9.3014    231.3365    199.3118   8.6446032324e+01   3.7735482493e+00     0.198023     0.168747 -60.11  0.001216518    2.530    0.605
        33 -10.1811    240.7972    208.6695   8.6489988131e+01   1.5742539212e+00    0.3438317    0.2643604 -51.91  0.002209178    3.023    0.669
        34  -9.5495    235.4429    203.6530   8.6510431437e+01   2.7735044596e+00    0.2097674    0.1653188  35.25 0.0009826563    1.519    0.342
        35  -8.4972    207.0286    208.9955   9.1904642871e+01   6.1719354355e+00    0.1414003    0.1018946  23.85 0.0004684353    1.072    0.067
        36  -9.7119    247.0280    207.0589   8.5298948500e+01   9.0792878737e-01    0.2264965    0.1704184 -34.98  0.001411195    2.012    0.503
        37  -9.2564    243.7121    201.9294   8.4969951256e+01   1.8261106751e+00    0.2861374     0.234547 -26.96   0.00217852    1.695    0.410
        38  -8.9936    229.4633    207.4364   8.8041995685e+01   3.2126445693e+00    0.1699369   0.09471513 -37.95  0.001028738    2.421    0.587
        39  -8.2778    224.6839    207.9803   8.8880786236e+01   3.8120233324e+00    0.1424552   0.08334638 -49.52 0.0007014699    4.104    0.756
        40  -8.9068    240.0352    215.3943   8.7649895013e+01   1.0488953095e+00    0.1482771    0.1418742  78.04  0.001146253    2.307    0.566
        41  -8.3023    197.6556    204.9891   9.2874014347e+01   7.9710440248e+00    0.1555266   0.09286034 -57.21 0.0007050143    4.474    0.776
        42  -8.2183    213.2973    204.2972   9.0143391991e+01   5.7929968473e+00    0.1151373   0.07032094  12.30 0.0002356342    1.570    0.363
        43  -8.5612    202.4436    204.4656   9.1979400081e+01   7.3351409711e+00    0.1149815   0.08872452  19.23 0.0001128133    1.014    0.014
        44  -8.9357    188.0287    204.5092   9.4467676250e+01   9.4398207636e+00    0.1507203   0.09038855  53.85 0.0008086961    2.426    0.588
        45  -9.3513    173.0493    204.0361   9.7067609286e+01   1.1721885271e+01    0.1674256    0.1348389  57.95 0.0007084896    1.664    0.399
        46  -9.5916    250.0941    201.2411   8.3905017050e+01   1.0451776954e+00    0.2037032     0.133629 -21.09  0.000915409    1.526    0.345
        47  -8.5746    216.2810    198.6859   8.8759331818e+01   5.9769395972e+00   0.09449695   0.08860932  33.28 0.0003038082    1.572    0.364
        48  -8.8356    202.2066    197.7816   9.0969966305e+01   8.1422912133e+00    0.1583651    0.1274267  76.47 0.0009358738    2.690    0.628
        49  -8.6851    176.5004    197.9917   9.5540784676e+01   1.1988971359e+01    0.1382342    0.1066874 -72.93 0.0008098135    2.478    0.597
        50  -9.9422    225.0426    193.9296   8.6555906734e+01   5.2284833572e+00    0.2781264    0.1751473 -48.33  0.001536866    3.031    0.670
        51  -9.1964    244.1984    188.4072   8.2633107455e+01   3.0834751130e+00    0.1678451    0.1264387  37.80 0.0008773365    1.562    0.360
        52  -8.6614    209.6598    195.3059   8.9308135571e+01   7.3238280331e+00     0.101508   0.08990325  51.36  0.000704157    1.681    0.405
        53  -9.5439    230.8691    188.4482   8.4700576772e+01   4.9735105028e+00    0.3285155    0.1577457 -35.12  0.001818818    2.367    0.577
        54  -8.7488    146.3241    193.6609   1.0060343467e+02   1.7216269512e+01    0.1178838   0.08804717  63.18 0.0007051105    1.723    0.420
        55  -9.8060    185.4860    191.9131   9.2962623700e+01   1.1401367387e+01    0.2148484    0.1153288 -37.56  0.001015728    2.129    0.530
        56  -9.1186    172.9824    191.4893   9.5184041104e+01   1.3399834429e+01    0.1617525   0.09491833  55.62 0.0007777901    2.441    0.590
        57  -9.6110    237.2829    187.4114   8.3519057618e+01   4.1608802154e+00    0.2288594    0.1818438 -28.71  0.001632015    1.599    0.375
        58 -10.1189    247.0064    193.7557   8.3121892719e+01   2.1690611055e+00    0.2845217    0.2534246 -49.81  0.002055872    2.209    0.547
        59  -8.8890    215.2423    187.0306   8.6991447827e+01   7.4404474342e+00    0.1580039    0.1336882 -51.34 0.0008218399    1.957    0.489
        60  -9.6341    166.6390    187.2228   9.5705267520e+01   1.4991412271e+01    0.1712874    0.1368391  35.32 0.0006774437    1.116    0.104
        61  -9.5549    249.7003    184.8330   8.1189144238e+01   2.6746223771e+00    0.3387483    0.1572315 -33.11  0.001783098    2.346    0.574
        62  -9.8334    247.8936    178.5863   8.0352455843e+01   3.5571783208e+00    0.3260694    0.1338491 -30.85  0.001718537    2.403    0.584
        63  -9.7343     77.7453    185.6686   1.1382634995e+02   2.8379057423e+01    0.2099448    0.1774582  43.79 0.0005496074    1.118    0.106
        64  -9.3705    224.3450    184.3625   8.5037312596e+01   6.3777042045e+00    0.2329359    0.1909934 -64.13  0.001014484    2.610    0.617
        65  -8.6316    174.2955    185.6539   9.4006853607e+01   1.3996501622e+01    0.1109362    0.0954968  68.43 0.0003857762    1.671    0.402
        66  -8.8807    203.7902    184.6035   8.8516734711e+01   9.4819173851e+00     0.164232    0.1011874  44.46 0.0009469847    1.687    0.407
        67  -8.8177    218.3244    183.6456   8.5896270283e+01   7.3642399529e+00    0.1002173   0.09701292  85.38 0.0004377295    1.764    0.433
        68  -9.3877    197.0487    182.7948   8.9383915268e+01   1.0763416963e+01    0.2215401    0.1773349  22.53  0.001487151    1.053    0.050
        69  -9.6056    183.2784    182.4410   9.1806300892e+01   1.3001966741e+01    0.1851429     0.156971 -61.14  0.000865919    1.796    0.443
        70  -9.5343    177.4738    182.4790   9.2888884794e+01   1.3928832720e+01    0.1974464    0.1159773 -50.80  0.001028528    2.441    0.590
        71  -9.3081    162.5233    183.4776   9.5898798287e+01   1.6189194419e+01    0.1239093    0.1044716  27.69 0.0001156277    1.015    0.015
        72  -9.5548    241.7695    181.3915   8.1776219444e+01   4.1442316483e+00    0.2301153    0.2234772  41.58  0.001277664    1.771    0.435
        73  -9.1144    235.9815    181.4575   8.2679698023e+01   4.9762784766e+00    0.1976402    0.1500984 -31.37  0.001040986    1.630    0.387
        74  -9.3984    190.9994    179.9797   8.9978908547e+01   1.2091713237e+01    0.1725454    0.1539127  70.21  0.001130707    1.714    0.417
        75  -9.3648    219.3907    178.2834   8.4773743160e+01   7.8224883404e+00    0.1823282    0.1468192  50.56 0.0009130403    1.729    0.422
        76  -9.0422    198.0428    177.4918   8.8284405042e+01   1.1284565861e+01    0.1801528    0.1513802   1.59 0.0007711193    1.107    0.097
        77  -9.9099    150.4092    178.2014   9.7447316693e+01   1.8945851350e+01    0.1613737    0.1217453 -59.38 0.0009558263    1.743    0.426
        78  -9.1843    210.6367    176.1585   8.5859574088e+01   9.4432995279e+00    0.2307884    0.1370713 -39.73 0.0008713594    2.051    0.512
        79  -9.7518    182.9050    176.7607   9.0902318301e+01   1.3840063491e+01    0.2078786    0.1704912 -72.26  0.001237589    2.087    0.521
        80 -10.6502    162.4859    176.8493   9.4820627354e+01   1.7181839311e+01    0.2606427    0.1513279  52.41  0.001322051    2.019    0.505
        81  -9.6203    223.8616    173.7181   8.3215458530e+01   7.6628127879e+00    0.2023946    0.1525104 -49.33  0.001223056    2.178    0.541
        82 -10.5304    188.3002    172.8454   8.9214476360e+01   1.3491531246e+01    0.2101899    0.1981801 -66.76  0.001354806    1.542    0.351
        83 -10.2716    238.0878    170.1460   8.0300746182e+01   5.8893197100e+00    0.3381149    0.2822072 -63.14  0.002107888    2.467    0.595
        84  -9.7140    206.2230    170.4037   8.5569829867e+01   1.0870014720e+01    0.2527213    0.2191753 -63.70  0.001602251    1.924    0.480
        85  -9.5263    246.3364    169.5482   7.8936037513e+01   4.7233041324e+00    0.2267927    0.1909897  39.98  0.001605292    1.586    0.370
        86  -9.8046    219.3455    168.9613   8.3077817005e+01   8.9344541075e+00    0.2512614     0.232051  34.78  0.001373308    1.442    0.306
        87  -8.9832    212.4676    169.9425   8.4413341007e+01   9.9165462962e+00    0.1475524     0.104226 -52.25 0.0008068105    2.382    0.580
        88 -10.6110    180.1696    169.5189   9.0131310609e+01   1.5315725424e+01    0.2242988    0.1803107 -24.69  0.001411791    1.311    0.237
        89  -9.9793    150.4913    169.0538   9.5917601478e+01   2.0393410234e+01    0.1818617    0.1273334 -42.39 0.0007479656    1.599    0.375
        90 -10.1502    165.3325    167.6702   9.2674582591e+01   1.8104384938e+01     0.181269    0.1507038  71.72 0.0005838772    1.697    0.411
        91  -9.1234    128.4816    167.9967   1.0040357140e+02   2.4206313207e+01    0.1678098    0.1133088 -84.49 0.0008097849    2.516    0.603
        92  -9.9829    191.5395    167.1929   8.7590490042e+01   1.3727417423e+01    0.2421869    0.1639723  36.36  0.001408628    1.329    0.247
        93  -9.2098    199.8712    165.6310   8.5796096989e+01   1.2540122298e+01    0.2281468    0.1806264 -33.44  0.001435088    1.434    0.303
        94  -9.0253    228.0921    171.7515   8.2170878968e+01   7.2352617864e+00    0.2019792    0.1424629 -50.31  0.001065548    2.499    0.600
        95 -10.0307    139.0206    165.0060   9.7638091244e+01   2.2990704367e+01    0.2030307    0.1557019  70.41   0.00113522    1.722    0.419
        96  -9.9954    213.2812    163.3787   8.3038786908e+01   1.0603979104e+01    0.3151656    0.2050173 -39.90  0.001799079    1.857    0.462
        97  -9.6358    172.7875    164.5724   9.0647672785e+01   1.7300665520e+01    0.1812911    0.1130593  48.68  0.000946506    1.688    0.408
        98  -8.8084    246.9263    162.7497   7.7568720425e+01   5.3623022999e+00     0.197185    0.1435983 -43.63   0.00121449    2.085    0.520
        99  -9.5245    245.7485    157.6049   7.6753373444e+01   6.1017935314e+00    0.2604809    0.1633051 -32.10  0.001156862    1.686    0.407
       100  -9.5308    241.8853    153.4177   7.6510037533e+01   7.1704772422e+00    0.2280157     0.200656 -51.16  0.001308882    1.825    0.452
       101  -9.5417    206.1861    162.9150   8.4169156491e+01   1.1841098193e+01    0.2421864    0.2061581  48.86  0.001555552    1.491    0.329
       102  -8.7863    221.9891    162.0421   8.1329675626e+01   9.3459322370e+00    0.1704617    0.1563273 -59.84  0.001128596    1.764    0.433
       103 -10.4117    177.1710    160.2651   8.8992232532e+01   1.7188022699e+01    0.2329047    0.1790908 -68.08  0.001257881    2.156    0.536
       104 -10.6598    158.9518    160.2534   9.2618155916e+01   2.0373476231e+01    0.2700511    0.1834767 -50.14  0.001260247    1.769    0.435
       105  -9.5352    238.0601    159.1704   7.8220493227e+01   7.1196579448e+00    0.2238381    0.2087647  47.00   0.00154483    1.607    0.378
       106  -9.6651    184.4093    160.2172   8.7600830113e+01   1.5933495753e+01    0.1685218    0.1202871 -44.32 0.0009459313    1.688    0.408
       107 -10.6846    169.5221    159.7727   9.0397202136e+01   1.8601346674e+01    0.3133315    0.1434721  44.36  0.001417135    2.058    0.514
       108  -9.8040    250.6842    154.7084   7.5462259891e+01   5.6625317405e+00    0.6370152   0.08057616 -30.21  0.001873843    6.453    0.845
       109  -8.8942    231.2405    159.4601   7.9339880558e+01   8.1647526367e+00    0.1503574    0.1123189  45.68 0.0006525638    1.614    0.380
       110  -9.1100    226.8872    157.3436   7.9620096664e+01   9.1175574026e+00    0.1969092    0.1594277 -23.68  0.001290206    1.320    0.242
       111 -10.1294    197.4136    157.6250   8.4699576766e+01   1.4043049691e+01    0.2426228    0.2283234 -59.72  0.001228744    1.512    0.338
       112  -8.5266    222.2668    156.9532   8.0292813338e+01   9.9221585158e+00    0.1535526   0.09819331 -25.11 0.0006266331    1.499    0.333
       113  -9.6481    216.7101    157.0789   8.1237572304e+01   1.0829254085e+01    0.2569571    0.1773541  55.32  0.001429859    2.020    0.505
       114 -10.4976    187.7751    155.9232   8.6136278704e+01   1.5966699255e+01    0.2820573    0.1658095 -39.78  0.001458941    1.871    0.465
       115 -10.5311    154.7717    156.8646   9.2854622291e+01   2.1660972479e+01    0.2337845    0.1900548 -66.33  0.001325093    1.651    0.394
       116 -10.8323    145.6155    155.0213   9.4453640974e+01   2.3581805281e+01    0.2697594    0.2128373 -72.22  0.001501054    1.741    0.426
       117  -9.5866    205.9925    154.0052   8.2460439041e+01   1.3050681676e+01    0.2809653    0.2312785 -62.13  0.001644958    1.978    0.494
       118  -8.8966    202.5107    151.5329   8.2576131712e+01   1.3991352785e+01    0.2292987    0.1190697 -35.77 0.0009104483    1.990    0.498
       119  -9.2119    233.5703    154.1937   7.7939246140e+01   8.4082315139e+00    0.2127658    0.1644823  57.06  0.001294438    1.936    0.484
       120 -10.7254    157.6757    153.3426   9.1582680492e+01   2.1730517176e+01    0.2670279    0.2202057  78.51  0.001504747    1.718    0.418
       121  -8.8890    221.8130    152.8271   7.9547018654e+01   1.0508107805e+01    0.1565651    0.1484167  -5.11  0.001003508    1.348    0.258
       122 -10.7417    176.6780    152.0198   8.7487148490e+01   1.8526687837e+01    0.2911346    0.2286688 -82.01  0.001519676    2.260    0.558
       123  -8.7472    228.3470    151.6876   7.8262508114e+01   9.5604401897e+00    0.1676922    0.1017321 -46.96 0.0008373405    2.531    0.605
       124 -10.2570    211.9438    151.1207   8.0852793890e+01   1.2404650675e+01     0.246408    0.1666037 -26.36 0.0009331985    1.442    0.306
       125  -9.7747    244.2432    149.2810   7.5332435679e+01   7.2655388850e+00     0.316783    0.1919019 -41.09  0.001749496    2.145    0.534
       126  -9.2650    215.8873    149.2919   7.9814084946e+01   1.1962854898e+01    0.2804064    0.1672283 -43.07   0.00144638    2.117    0.528
       127  -8.7694    196.5003    150.5228   8.3449406536e+01   1.5193431598e+01    0.1312987    0.1128192  11.45 0.0005714624    1.011    0.011
       128  -9.2657    162.4858    149.9849   8.9932311378e+01   2.1418172135e+01    0.1714312    0.1192084 -67.40 0.0008086928    2.412    0.585
       129 -10.4989    235.6081    147.8173   7.6342587915e+01   8.8277490067e+00    0.3735078    0.3207522 -67.98  0.001574936    2.095    0.523
       130  -9.7318    230.3146    141.5147   7.5865673474e+01   1.0470847181e+01    0.3428635    0.2111394 -45.03   0.00149212    2.227    0.551
       131 -10.6187    191.5424    149.0460   8.4057837682e+01   1.6291386749e+01    0.2268384    0.2167398 -88.43  0.001446788    1.461    0.315
       132 -10.0822    223.9204    147.0570   7.8032730356e+01   1.0872246039e+01      0.32965    0.2140746  58.72  0.001716565    2.355    0.575
       133  -9.9775    207.7823    145.8067   8.0478582657e+01   1.3839949260e+01    0.2799842    0.2024544 -13.52  0.001622851    1.322    0.244
       134  -9.1694    201.0806    145.7052   8.1635735907e+01   1.5050474119e+01    0.1957461    0.1635032  55.16  0.000753445    1.526    0.345
       135  -9.6548    171.6100    144.8024   8.7029761419e+01   2.0583815100e+01    0.1830663    0.1255475 -46.86 0.0006300017    1.701    0.412
       136 -10.3503    156.0032    144.0130   9.0092421284e+01   2.3605527377e+01     0.325668    0.1841462 -54.36  0.001458815    2.361    0.576
       137 -10.0919    242.4133    134.3790   7.2528059018e+01   9.2836703596e+00    0.4010808    0.1845815 -36.07  0.001489766    2.212    0.548
       138  -9.1902    247.4416    144.1916   7.3832801458e+01   7.3313626259e+00    0.2166273    0.1859609 -32.26 0.0009833159    1.486    0.327
       139  -9.7509    243.8218    140.7263   7.3650638695e+01   8.3111857786e+00     0.273268    0.2077562 -34.86  0.001304121    1.529    0.346
       140  -9.1224    214.8119    143.2633   7.8747951447e+01   1.2935876679e+01    0.2160501    0.1656122 -34.67 0.0008493075    1.441    0.306
       141 -11.0070    181.8578    141.8379   8.4392946343e+01   1.9142175331e+01    0.4113046    0.2834025 -63.31  0.001939051    2.535    0.606
       142  -9.2715    224.3201    140.5317   7.6610484531e+01   1.1623910777e+01    0.2238028    0.1823366 -17.54 0.0009069977    1.173    0.148
       143  -8.9753    203.7807    141.2039   8.0211378333e+01   1.5189652970e+01    0.1911658    0.1447266 -74.14  0.000834581    2.673    0.626
       144  -9.3368    198.5780    140.5722   8.1003711479e+01   1.6229578286e+01    0.2995006    0.2351148  81.07  0.001561928    2.277    0.561
       145  -9.3306    199.1582    137.1881   8.0172207198e+01   1.6605978389e+01    0.2584746     0.213403 -46.01  0.001309569    1.504    0.335
       146 -10.6357    166.4318    140.5108   8.7187190472e+01   2.2247701139e+01    0.2708799    0.2398752 -75.39  0.001430683    1.516    0.340
       147 -10.4388    235.1054    135.9978   7.3963067638e+01   1.0326919275e+01    0.4595835    0.2508313 -38.09  0.002369684    2.004    0.501
       148 -10.2927    188.0396    136.3179   8.2028823422e+01   1.8820930343e+01     0.242389     0.178955 -16.11 0.0008502322    1.367    0.269
       149  -8.8968    161.2612    140.6481   8.8288970823e+01   2.3197030503e+01    0.1276506    0.1095042 -80.28  0.000436827    1.613    0.380
       150  -9.6087    218.8946    138.5394   7.7070093503e+01   1.2831944114e+01    0.2296126    0.2032224 -41.84   0.00108469    1.463    0.316
       151  -9.6323    209.1074    138.6110   7.8731053011e+01   1.4579157971e+01    0.2635462    0.2303347  78.36  0.001461271    1.764    0.433
       152 -11.2882    172.5274    137.7939   8.5370058188e+01   2.1537467424e+01    0.4497048    0.3319378  83.91  0.002107838    2.532    0.605
       153  -9.5736    152.3695    139.1912   8.9880818152e+01   2.5116049041e+01    0.1882979     0.128754 -51.90 0.0009452691    1.709    0.415
       154 -10.2267    192.9258    137.3663   8.1345301017e+01   1.7743822869e+01    0.2872826    0.1861495 -34.53  0.001257324    1.567    0.362
       155  -9.3367    249.1440    136.0390   7.1904881433e+01   7.9801007159e+00    0.2121263    0.1509157 -35.68 0.0007623546    1.588    0.370
       156 -10.2203    163.0265    135.8269   8.6895370033e+01   2.3675409738e+01     0.243242    0.1983698 -35.72 0.0009470162    1.278    0.217
       157  -9.5422    155.8054    135.9803   8.8460633963e+01   2.5027491189e+01    0.2181529      0.16544 -73.68   0.00108061    2.011    0.503
       158  -9.2108    133.0000    134.9731   9.3370096612e+01   2.9488097929e+01    0.2220888   0.07909933 -46.50 0.0008036537    2.951    0.661
       159  -9.7371    225.0193    133.8577   7.5073239547e+01   1.2348617131e+01    0.3012521    0.2156857  53.90  0.001709089    1.763    0.433
       160 -10.5873    179.5806    132.6711   8.2851787824e+01   2.1002503419e+01    0.3556686    0.2922536 -39.49  0.001396596    1.327    0.246
       161  -9.5361    198.1206    131.7049   7.9155253247e+01   1.7591190754e+01    0.2587021    0.1857594 -19.47  0.000780899    1.354    0.262
       162 -10.3067    142.9799    131.2848   9.0287857002e+01   2.8311251798e+01    0.3026483    0.1942512 -51.92  0.001057412    1.764    0.433
       163 -10.4792    136.9433    130.9867   9.1612091912e+01   2.9509167116e+01    0.3855456    0.1965078 -59.13  0.001488727    2.921    0.658
       164  -9.8842    248.8063    130.2530   7.0731919781e+01   8.6969320552e+00    0.2874911    0.2641281  83.59  0.001927804    1.756    0.431
       165  -9.6595    205.6340    130.9129   7.7650304292e+01   1.6284928803e+01    0.2447146    0.1865106  66.20  0.001310604    1.922    0.480
       166  -9.7002    126.0000    131.0082   9.4210912809e+01   3.1534964855e+01    0.2217737   0.07940563 -47.76 0.0007979986    2.912    0.657
       167  -8.9782    234.0885    129.8469   7.2795393419e+01   1.1253583879e+01    0.1837184    0.1608022 -23.13 0.0007070354    1.262    0.207
       168  -9.6044    220.9884    129.4890   7.4763817918e+01   1.3636661733e+01    0.2376137    0.2218718 -76.09  0.001040428    1.574    0.365
       169 -10.9407    200.3335    127.1337   7.7732628162e+01   1.7830020286e+01    0.5332608    0.2545688 -45.51  0.002096672    2.682    0.627
       170  -9.3044    202.6746    121.5810   7.6045825535e+01   1.8176103747e+01    0.2913184    0.2333209  45.09  0.001361887    1.331    0.248
       171  -9.2839    186.3003    129.1069   8.0758128490e+01   2.0253710427e+01    0.2447307    0.1846396 -46.61  0.001066145    1.562    0.360
       172 -10.0417    172.0293    129.5628   8.3659923068e+01   2.2972764865e+01    0.2587241    0.1938358 -51.43 0.0009598428    1.617    0.382
       173  -9.2282    212.0011    129.0321   7.6142656278e+01   1.5353452250e+01    0.1978952    0.1616727 -55.65 0.0007865329    1.728    0.421
       174  -9.1769    242.2534    118.7321   6.9149028563e+01   1.1170646716e+01    0.4373696    0.1497509 -38.96  0.001714769    3.190    0.687
       175 -11.4048    238.8671    110.1888   6.7694478164e+01   1.2813276422e+01    0.7179315    0.4321593 -60.31  0.002986139    3.707    0.730
       176 -10.2634    241.2974    126.9370   7.1093104922e+01   1.0355058245e+01    0.3842298    0.2849337 -42.86    0.0017954    1.691    0.409
       177  -9.0116    239.1801    121.4203   7.0188041625e+01   1.1388258407e+01    0.2072944    0.1639127  82.74  0.000796793    2.258    0.557
       178 -10.6084    165.2090    126.6398   8.4399408469e+01   2.4804388529e+01    0.4530269     0.170308 -46.48  0.001609387    3.188    0.686
       179  -9.6177    228.1242    125.6553   7.2786747376e+01   1.2837106809e+01    0.2540222    0.1835209 -44.00  0.001075645    1.711    0.415
       180  -9.4424    217.7893    125.7898   7.4457918490e+01   1.4713166613e+01    0.1706133    0.1530454 -37.56 0.0005530589    1.346    0.257
       181  -9.9088    179.7094    124.6689   8.1013436592e+01   2.2245777006e+01    0.3641496    0.2347201 -42.01  0.001464986    1.660    0.398
       182 -10.2826    170.1178    124.2112   8.2825984322e+01   2.4234616830e+01    0.3025073    0.1973921 -40.33  0.001057241    1.588    0.370
       183  -9.6668    146.5253    125.0204   8.8095188543e+01   2.8778174563e+01    0.2153389    0.1388824 -40.61  0.001033866    1.597    0.374
       184  -9.3811    249.4263    124.2275   6.9350524600e+01   9.2874933671e+00    0.1926562    0.1901352 -66.92 0.0008395468    1.488    0.328
       185  -9.9826    248.1790    119.5130   6.8493158230e+01   1.0047342050e+01    0.3536327    0.2068066 -34.93  0.001626704    1.687    0.407
       186  -9.5317    235.3335    123.4069   7.1193921093e+01   1.1826769531e+01    0.2574449    0.1972177 -41.78  0.001007232    1.576    0.365
       187  -9.2329    231.4311    120.2393   7.1069091112e+01   1.2922558546e+01     0.196652    0.1824587  -5.58 0.0007711946    1.202    0.168
       188 -10.5133    230.9975    116.4965   7.0284586396e+01   1.3473750337e+01    0.5599081    0.1894799 -38.77  0.002147098    3.108    0.678
       189  -9.5272    188.3214    123.4660   7.9083914184e+01   2.0722432569e+01     0.262339    0.2065298 -58.64 0.0009757241    1.737    0.424
       190 -10.8883    219.4990    120.7402   7.3036415092e+01   1.5065398118e+01    0.5924739    0.3668789 -61.49   0.00239052    3.711    0.731
       191 -11.1508    212.9263    120.6471   7.4085754633e+01   1.6325111201e+01     0.700714    0.1774081 -32.54  0.002353564    3.626    0.724
       192  -9.8984    157.4484    119.7580   8.4450837816e+01   2.7547822324e+01      0.27212    0.1352566 -44.31  0.001131768    2.127    0.530
       193 -10.3303    140.4859    118.9177   8.8077207353e+01   3.1103002434e+01    0.3749994    0.1405065 -43.62  0.001361907    2.734    0.634
       194  -9.4321     19.0314    119.0325   1.2178786650e+02   4.8780508329e+01    0.1834096    0.1543468  85.05  0.000464859    1.016    0.016
       195  -9.2185    190.5244    118.5113   7.7509098613e+01   2.1039002056e+01     0.140439    0.1256488   3.88 9.287035e-05    1.008    0.008
       196 -10.2238    186.2488    115.3731   7.7555482031e+01   2.2388873601e+01    0.4428645    0.2184377 -46.70  0.001797531    2.499    0.600
       197  -9.7320    147.4656    117.4792   8.6126463876e+01   2.9975449827e+01    0.2611318    0.1323613 -51.67  0.001034843    2.406    0.584
       198  -9.4984    192.4199    129.8073   7.9770151559e+01   1.8961523052e+01    0.2537293    0.1238447 -37.46    0.0011254    2.069    0.517
       199  -9.6301    191.6992    114.5095   7.6333546967e+01   2.1408901346e+01    0.2871799    0.1540266 -43.55  0.001259935    2.076    0.518
       200  -9.3787    181.4635    115.4743   7.8493475226e+01   2.3353698370e+01    0.1421983    0.1289971   4.74 0.0001968516    1.012    0.012
       201  -9.4298    153.3901    115.2409   8.4256666667e+01   2.9177445325e+01    0.2036091     0.133672 -48.51 0.0009503212    1.675    0.403
       202  -8.6347     70.9699    115.2431   1.0581169805e+02   4.3971549895e+01    0.1668874    0.1120566  37.76 0.0003951071    1.524    0.344
       203  -9.4777    194.8134    113.3287   7.5482198367e+01   2.0952501115e+01    0.3317841        0.164 -44.41  0.001382106    2.348    0.574
       204  -9.1130    173.5210    114.0907   7.9721536872e+01   2.5216650473e+01    0.2134604    0.1365718 -35.04 0.0006900186    1.551    0.355
       205  -9.2495    247.8378    113.0434   6.7101879772e+01   1.0864247022e+01    0.1889928    0.1548911 -32.16 0.0007423063    1.315    0.239
       206  -8.9180    208.4177    113.2859   7.3109571419e+01   1.8224051919e+01    0.1884032    0.1193871 -37.04  0.000779228    1.588    0.370
       207  -8.9671    168.4268    112.1715   8.0285164408e+01   2.6596334107e+01    0.2041123    0.1314057 -46.55 0.0009455546    1.720    0.419
       208  -9.7186    194.2966    120.8901   7.7378264694e+01   1.9926532620e+01    0.2529034    0.2059413 -52.47  0.001232199    1.552    0.356
       209  -9.5183    177.0171    110.4944   7.8136827315e+01   2.5075231727e+01    0.2875299    0.1939374 -48.02  0.001378397    1.707    0.414
       210 -10.3075    242.8616    108.2656   6.6696981693e+01   1.2319389772e+01    0.4228449    0.1906229 -46.66  0.001684336    3.389    0.705
       211  -8.7850    155.0000    110.0215   8.2610500228e+01   2.9778207276e+01    0.2339499   0.08161773 -38.95 0.0007935958    2.882    0.653
       212  -9.6199    134.1637    109.7684   8.7378736030e+01   3.4116994114e+01    0.2425484    0.1648334 -89.48 0.0009511934    2.837    0.648
       213  -9.4395    217.5737    109.0199   7.0599916533e+01   1.7003609907e+01    0.2723196    0.1865012  76.24  0.001279379    2.558    0.609
       214  -8.6436    201.3678    109.2217   7.3325803199e+01   2.0221365650e+01    0.1978429     0.118884 -38.38 0.0006087807    1.681    0.405
       215  -9.9423    189.8389    108.7247   7.5256210595e+01   2.2672619519e+01    0.3471595    0.1699379 -44.50  0.000890229    2.336    0.572
       216  -9.3582    183.2559    108.6526   7.6468710448e+01   2.4060525143e+01    0.2723427    0.1603412 -41.67   0.00124294    1.775    0.437
       217 -10.3934    160.7651    108.3645   8.0939533618e+01   2.8858045331e+01    0.3448951     0.185644 -41.00  0.001483162    1.879    0.468
       218 -11.0524    229.8661    104.1866   6.7580904619e+01   1.5248825851e+01    0.4396468    0.2379253 -24.95  0.002023526    1.659    0.397
       219 -11.6167    223.6702    105.7565   6.8875600191e+01   1.6244349244e+01    0.6535172     0.413103  75.34  0.002896678    3.003    0.667
       220 -10.8127    247.0384    102.5547   6.4821237281e+01   1.2243041882e+01    0.3716233    0.2334534 -38.67  0.001807216    1.639    0.390
       221 -10.4261    241.6297     98.4387   6.4577405357e+01   1.3730949275e+01    0.4881303    0.2275551 -42.54  0.002169024    2.435    0.589
       222  -9.2683    205.9546    105.4295   7.1614389672e+01   1.9828494358e+01    0.2744313    0.1743352 -40.86  0.001223708    1.658    0.397
       223  -8.5270    165.6468    105.3289   7.9131666360e+01   2.8342348473e+01    0.1462984    0.1174705 -77.92 0.0007046748    1.774    0.436
       224  -9.5586    248.2716    107.1342   6.5708151298e+01   1.1481838349e+01    0.2090873    0.1776633 -56.46  0.001025495    1.630    0.386
       225  -9.5755    238.5170    102.5014   6.5956424591e+01   1.3819336175e+01    0.2433458   0.09685409 -36.41  0.001032874    2.354    0.575
       226  -8.9824    200.7416    103.1626   7.1931486711e+01   2.1229155002e+01    0.2214328    0.1633318 -42.64 0.0007577944    1.468    0.319
       227  -9.3860    150.1554    103.1572   8.1931531102e+01   3.2036212950e+01    0.2036336    0.1788242 -65.91 0.0008549287    1.343    0.255
       228  -9.0500    185.2626    102.6339   7.4564077672e+01   2.4577586583e+01    0.1415154    0.1094543 -57.07 0.0005497057    1.645    0.392
       229  -9.7842    167.0827    100.1713   7.7486997237e+01   2.8905189637e+01    0.3261671    0.2001421 -39.09  0.001148476    1.623    0.384
       230  -9.5796    160.2908    100.2295   7.8928391055e+01   3.0373032453e+01    0.3464017    0.1679023 -40.34  0.001299373    2.057    0.514
       231  -9.1019    225.4387     99.7918   6.7172277587e+01   1.6674561243e+01    0.2538522      0.11299 -32.25  0.001083339    2.007    0.502
       232  -8.8021    215.5168     94.4831   6.7348927877e+01   1.9377610802e+01    0.2470123    0.1909713 -28.07 0.0009398448    1.200    0.167
       233  -9.4742    216.6530     99.3161   6.8381232381e+01   1.8494301550e+01    0.3242693    0.1492275 -41.89 0.0008201213    2.362    0.577
       234 -10.5627    212.9401     96.4459   6.8242555422e+01   1.9643181280e+01    0.4491978    0.2490958 -53.91  0.001632682    2.840    0.648
       235 -10.2460    210.9941     91.9593   6.7407285585e+01   2.0662312622e+01    0.3684402    0.2639304 -62.89  0.001169889    2.035    0.509
       236 -10.0038    242.2361     93.3503   6.3290556917e+01   1.4229614031e+01    0.2649901    0.1907273 -39.55 0.0008369474    1.444    0.308
       237 -12.3583    245.8249     85.9797   6.1071171540e+01   1.4424479639e+01     1.415145    0.6198041 -35.29  0.006515046    2.023    0.506
       238 -11.5275    243.9443     74.3916   5.8478808154e+01   1.6143697348e+01      1.15308    0.3285195 -32.23  0.004398563    2.758    0.637
       239  -9.2297    224.8291    248.7758   9.4647483251e+01   6.2708677658e-03    0.1359684    0.1306089  28.52 0.0008254668    1.958    0.489
       240  -8.7183    168.0029    249.5237   1.0371906503e+02   7.0585533679e+00    0.1537671   0.07515993  35.23 0.0003618194    1.479    0.324
       241  -9.0763    218.7634    248.5950   9.5542683487e+01   7.5719838480e-01     0.139159   0.07301883  39.15 0.0008507131    1.707    0.414
       242  -9.4659    195.0828     97.4309   7.1448225045e+01   2.3264586323e+01    0.2837329    0.1973823 -37.44  0.001129479    1.428    0.300
       243  -9.2043    129.3343     98.6522   8.5712468813e+01   3.7272364024e+01    0.1519148    0.1187938 -85.23 0.0007048383    1.774    0.436
       244  -9.8691    236.2950     89.4851   6.3140119356e+01   1.5841393295e+01    0.4992921    0.2396329 -40.80  0.002261967    2.145    0.534
       245 -10.6062    235.2064     95.4210   6.4726383487e+01   1.5321326807e+01    0.2894345    0.2492424 -50.23  0.001119675    1.416    0.294
       246 -10.9414    231.8245     91.4748   6.4231048017e+01   1.6473350851e+01    0.5197848    0.2770031 -37.03  0.001732966    1.783    0.439
       247  -9.0359    183.5064     95.9935   7.3158519846e+01   2.5990922761e+01    0.2253812    0.1354195 -33.94 0.0009711063    1.599    0.375
       248  -8.9330    135.6541     97.3126   8.3782792426e+01   3.6208862850e+01    0.1497369     0.119555 -86.78 0.0007046561    1.711    0.416
       249  -9.6105    249.8347    245.3005   9.0513936916e+01  -2.6606266697e+00    0.1984996    0.1277006  28.24  0.001311943    1.315    0.239
       250  -9.1165    164.4754     94.0268   7.6372077253e+01   3.0514561657e+01     0.229828     0.141792 -34.26 0.0007927663    1.588    0.370
       251  -9.2874    225.3748     93.1812   6.5559184927e+01   1.7541744184e+01    0.1968196    0.1094603 -35.21 0.0009407934    1.676    0.404
       252  -9.5238    188.8870     92.6118   7.1276741930e+01   2.5329922675e+01     0.295025    0.1745125 -45.14  0.001312748    1.863    0.463
       253  -8.7625    177.0076     93.2288   7.3648069750e+01   2.7859328610e+01    0.2164533    0.1516916 -49.28 0.0007737011    1.627    0.385
       254  -9.3345    197.4880     86.9966   6.8287397194e+01   2.4267012418e+01    0.4074406     0.137899 -28.00  0.001390375    2.940    0.660
       255  -8.9116    157.9799     89.9824   7.6620628659e+01   3.2655630473e+01    0.2341721     0.182617 -65.15 0.0009839622    1.650    0.394
       256 -10.8525    225.9890     87.5150   6.4058562347e+01   1.8144361705e+01    0.5286983    0.2944209 -57.46  0.002145062    3.114    0.679
       257 -10.8932    225.9996     82.4472   6.2776562226e+01   1.8786319155e+01    0.5937437    0.3546345  69.61  0.002796564    2.337    0.572
       258  -9.5626    150.8695     87.8150   7.7562754426e+01   3.4631698157e+01    0.2887404    0.1953343 -39.68  0.001341544    1.464    0.317
       259  -8.7741    124.5110     88.0181   8.3999919212e+01   4.0369579375e+01    0.2189692    0.1272402 -62.48  0.000810535    2.639    0.621
       260  -9.0952    212.7652     86.3604   6.5690000748e+01   2.1048428907e+01    0.3199493    0.1299804 -50.35 0.0009695295    4.608    0.783
       261  -9.0312    163.6802     86.5192   7.4439891883e+01   3.1953339184e+01    0.2668077    0.1334774 -33.87    0.0010685    1.951    0.487
       262  -8.7266     30.6900     86.6920   1.1378879890e+02   5.5440486863e+01     0.131164   0.08752628 -42.38 0.0004748827    1.618    0.382
       263  -9.1755    206.0716     84.7017   6.6286278600e+01   2.2713338867e+01    0.2596725    0.1734697 -35.48  0.001296105    1.426    0.299
       264  -8.6993    178.9520     84.9675   7.1003764892e+01   2.8723862635e+01    0.2315646    0.1766438 -61.25  0.001120797    1.673    0.402
       265  -8.6476    200.4529     83.2289   6.6787388494e+01   2.4150175470e+01    0.1987628    0.1236396 -38.64 0.0008001446    1.575    0.365
       266  -8.8400    185.5001     82.9492   6.9246954678e+01   2.7544002451e+01    0.2251054    0.1374087 -29.89 0.0007830295    1.557    0.358
       267  -8.7039    170.5445     83.5148   7.2201423808e+01   3.0875182672e+01    0.1477405    0.1401061 -11.30 0.0004499132    1.021    0.020
       268  -9.5211    159.2696     81.7410   7.3977155953e+01   3.3763301513e+01    0.3409002    0.1976167 -38.51  0.001452762    1.688    0.408
       269  -9.3879    188.2761     87.0718   6.9891144660e+01   2.6299593889e+01    0.2664906    0.1842587 -43.46 0.0007980302    1.519    0.342
       270  -9.0933    211.1695     76.1758   6.3239467444e+01   2.2754278862e+01    0.2431181    0.1736032 -23.64 0.0009078618    1.281    0.219
       271  -8.6160    179.7764     79.9781   6.9441672049e+01   2.9303952157e+01    0.1967052    0.1166324 -29.51 0.0006210214    1.620    0.383
       272  -9.2521    200.9471     77.8686   6.5251888484e+01   2.4790276169e+01    0.3356739    0.1567024 -38.64   0.00137829    2.060    0.515
       273  -8.6099    150.6053     79.2288   7.5099310594e+01   3.6191702663e+01    0.2153292    0.1425888 -23.65 0.0009521944    1.618    0.382
       274  -8.7030    206.6412     78.2117   6.4462854796e+01   2.3477330534e+01    0.1987131    0.1258265 -17.42  0.000569094    1.574    0.365
       275  -9.4628    189.0000     76.6457   6.6867964410e+01   2.7676110736e+01    0.5902542    0.1091928 -31.09  0.001540656    4.782    0.791
       276  -9.2158    174.5093     77.5947   6.9731711566e+01   3.0891977341e+01     0.304758    0.1402357 -32.03 0.0009436947    2.076    0.518
       277  -9.1613    166.4938     77.5503   7.1266640138e+01   3.2771553781e+01    0.3119318    0.1432887 -32.27  0.001182661    2.111    0.526
       278  -9.4086    130.5569     77.7963   7.9396273776e+01   4.1013242352e+01    0.2177053    0.1392253 -48.59 0.0007719966    1.657    0.396
       279  -9.0409    223.5298     76.3110   6.1536731576e+01   2.0077060858e+01    0.2632395    0.1147915 -31.29 0.0009258547    1.992    0.498
       280  -8.8786    183.4970     76.9832   6.7917418664e+01   2.8896047140e+01    0.2303649    0.1369421 -31.87 0.0008510433    1.589    0.371
       281  -9.7567    157.6649     75.2897   7.2388297583e+01   3.5210831843e+01    0.3781464    0.1709811 -35.66  0.001438434    2.123    0.529
       282  -9.1532    210.0869     80.7657   6.4624942368e+01   2.2377588366e+01    0.2565911    0.1702838 -35.31  0.001106262    1.422    0.297
       283  -8.7488    206.3997     74.1874   6.3407539457e+01   2.4074055163e+01    0.2080019     0.117584 -37.30 0.0006188732    1.674    0.402
       284  -8.7041    185.0000     72.9661   6.6499836564e+01   2.9138808174e+01    0.2409113   0.07995071 -29.78 0.0006077654    2.863    0.651
       285  -9.3414    163.3008     71.6930   7.0141662563e+01   3.4460245269e+01    0.3460787    0.1940342 -36.58  0.001307921    1.718    0.418
       286  -8.7601    128.6503     73.3246   7.8474745947e+01   4.2270063285e+01    0.1556944    0.1210071 -77.59 0.0007048882    1.752    0.429
       287  -8.8849    210.6162     71.7725   6.2131860368e+01   2.3456427702e+01    0.2071791    0.1153086 -36.32 0.0009176515    1.670    0.401
       288  -8.7028    150.4828     71.9952   7.2908282205e+01   3.7451943835e+01    0.2231264    0.1188447 -53.57 0.0008100845    2.543    0.607
       289  -9.1990    107.3867     71.1947   8.3578275648e+01   4.7301262835e+01    0.2215251     0.135441 -51.43 0.0007408631    1.741    0.426
       290  -8.8304    212.5023     66.0203   6.0299125253e+01   2.3780205046e+01    0.2156757     0.127295 -26.67 0.0005919161    1.535    0.349
       291  -8.9274    187.4283     68.7222   6.4857281064e+01   2.9180907812e+01     0.278364    0.1288697 -33.36 0.0009534908    1.991    0.498
       292  -8.7285    218.3967     68.2179   6.0094303294e+01   2.2199298786e+01    0.2039848    0.1114899 -36.32 0.0008804222    1.678    0.404
       293 -10.1275    193.8373     67.6668   6.3513597829e+01   2.7828008119e+01    0.2534968    0.1879562 -15.23 0.0007910515    1.339    0.253
       294  -9.0774    182.2659     68.0563   6.5533772039e+01   3.0495933930e+01    0.2145973    0.1822267 -29.46  0.000655059    1.124    0.110
       295  -9.4864    240.8704    241.3038   9.1270713980e+01  -1.2964993038e+00    0.2101908     0.164058  48.37  0.001596321    2.367    0.578
       296  -8.7697    203.3647     66.2540   6.1661717449e+01   2.5817222313e+01    0.2120736    0.1176673 -35.64 0.0009462473    1.668    0.400
       297  -9.1008    164.0000     64.9913   6.7930704152e+01   3.5339825298e+01    0.2534789   0.08331787 -30.88 0.0008029833    2.946    0.661
       298  -8.9595    170.9745     63.9731   6.6300859491e+01   3.3803579706e+01    0.2414921    0.1754334 -58.38 0.0008217649    1.661    0.398
       299  -8.9826    214.2377     69.7942   6.1084780789e+01   2.2912004069e+01    0.3035351    0.1481426 -41.55 0.0007660812    2.052    0.513
       300  -9.0951    202.2357    242.8241   9.7380086380e+01   3.3459771469e+00    0.1430075    0.1092364  63.60    0.0009544    2.829    0.647
       301 -10.9831    219.7906     46.7644   5.4086366762e+01   2.4470698848e+01    0.5814015    0.1628101 -33.76  0.002072976    2.828    0.646
       302 -12.2909    226.8535     53.1248   5.5004992158e+01   2.2169113163e+01    0.7808209     0.526738 -27.86  0.003973943    1.302    0.232
       303  -8.8241    217.1699     57.6885   5.7402563996e+01   2.3772647264e+01    0.2725789    0.0892476 -27.93 0.0009008718    2.629    0.620
       304  -8.2709    206.6346     58.7026   5.9070696466e+01   2.6042304723e+01    0.1494865    0.1021532  24.47 0.0007031998    1.722    0.419
       305  -8.3699    175.5055     55.5087   6.2864703596e+01   3.3914797609e+01    0.1478943    0.1410836 -17.84 0.0008105841    1.011    0.011
       306  -8.6862    157.6169     55.1661   6.6004290760e+01   3.8392151827e+01    0.2197792    0.1425739 -15.57 0.0008553131    1.711    0.416
       307  -8.5043     25.9635     60.0271   1.1027541045e+02   6.2242796983e+01    0.1510526    0.1335425 -60.51 0.0003166785    1.041    0.040
       308  -8.1805    213.3380     62.2756   5.9159091751e+01   2.4066491285e+01    0.1423269    0.1011214  23.21 0.0006998281    1.611    0.379
       309  -9.6154    197.3732     59.2239   6.0534602252e+01   2.8134729133e+01    0.2124085    0.1202427 -35.75 0.0006549433    1.641    0.391
       310  -9.1606    157.7105     61.3579   6.8011553497e+01   3.7429972671e+01    0.2883563    0.1675214 -39.09  0.001182797    1.687    0.407
       311  -8.3241    178.6572     50.3115   6.0711547902e+01   3.3844087283e+01    0.1550172    0.1097181 -60.80 0.0007045989    1.701    0.412
       312  -8.8477    158.0000     48.0536   6.3546777178e+01   3.9327849649e+01    0.2503445   0.08374755 -28.25 0.0007980075    2.912    0.657
       313  -8.2800    150.3335     47.3110   6.4766551985e+01   4.1365567424e+01    0.1600104    0.1127268  23.83 0.0007043749    1.677    0.404
       314  -9.5552     95.4141     47.2704   7.8642329405e+01   5.4391890215e+01    0.2147784    0.1331545 -46.51  0.000951891    1.660    0.398
       315  -8.4686    181.4698     46.5473   5.9086635170e+01   3.3638488675e+01    0.1454411    0.1388537 -24.35 0.0002376869    1.015    0.015
       316  -8.7827    169.0000     44.0298   6.0259906187e+01   3.7095648003e+01    0.2511444   0.08234685 -26.52 0.0008039642    2.953    0.661
       317  -8.1271    200.3314     43.3073   5.5454119754e+01   2.9418468525e+01    0.1480069    0.1038382  25.80 0.0007039807    1.664    0.399
       318  -8.7127    132.0000     42.0608   6.6742460062e+01   4.6729706816e+01    0.2527924   0.08446653 -29.77 0.0008019151    2.939    0.660
       319  -8.7802    177.5506    242.0651   1.0128940403e+02   6.6164869600e+00    0.1240078   0.09998239 -22.24 0.0003687856    1.527    0.345
       320  -8.7857    173.4067     40.1949   5.8287935714e+01   3.6471841927e+01    0.2187232    0.1249509 -37.34  0.000944106    1.676    0.403
       321  -8.5489    140.3271     40.6607   6.4413222040e+01   4.4843558507e+01    0.1594152    0.1140728 -61.71 0.0007051603    1.731    0.422
       322  -8.2269     22.7013     40.2963   1.0640483568e+02   6.7108159099e+01    0.1199018   0.09550309  78.95 0.0002787144    1.571    0.364
       323  -8.6941    153.1045     59.6402   6.8385141925e+01   3.8823204996e+01    0.2748071    0.1941292 -40.75 0.0007786535    1.413    0.292
       324  -8.0880    160.6643     39.3353   6.0084754791e+01   3.9833051362e+01    0.1600088    0.1101163 -59.81 0.0007052007    1.743    0.426
       325  -9.5295    146.6453     38.8136   6.2465550720e+01   4.3493219219e+01     0.223543    0.1286243 -36.80 0.0009458835    1.694    0.410
       326  -9.1133    149.4241     34.2645   6.0283910181e+01   4.3380853385e+01     0.270899    0.1473607 -19.90 0.0006868364    1.934    0.483
       327  -9.1614    168.7542     36.9430   5.7936050203e+01   3.8063754764e+01    0.2558083    0.1454514 -49.17  0.001065165    1.952    0.488
       328  -9.2469    248.3191    240.3921   9.0060455992e+01  -2.1023627150e+00    0.1650898   0.09795061  33.50 0.0007890791    1.501    0.334
       329  -8.6833     26.5856     33.5572   1.0203559459e+02   6.8241658750e+01    0.1295656    0.1079943 -45.63 4.588423e-05    1.009    0.008
       330  -8.6284      1.4990     31.4588   1.1542587151e+02   7.0566047077e+01     0.122992    0.0974072 -58.38 8.650232e-05    1.006    0.006
       331  -8.5204    125.4953     30.4944   6.3682632937e+01   4.9995617412e+01    0.1490705    0.1423843  10.97 1.139803e-05    1.012    0.012
       332  -8.9409    220.6376     29.2022   4.9136820355e+01   2.6186710205e+01    0.1877963    0.1208943 -12.02 0.0009361581    1.588    0.370
       333  -8.3391    170.2915     29.6721   5.5248012334e+01   3.8537435867e+01    0.1540732     0.105106 -54.97 0.0005064851    1.622    0.383
       334  -9.3384     42.1814     27.8159   9.1478975043e+01   6.7576487099e+01    0.1885815    0.1696521 -47.67 0.0004172818    1.172    0.147
       335  -9.2059    172.2317     24.3408   5.3170071985e+01   3.8630926978e+01    0.6126034   0.05047445 -26.80  0.001445947    5.887    0.830
       336  -9.0712    157.5043     27.0150   5.6273534822e+01   4.2166584623e+01    0.2288796   0.09780041 -45.39 0.0008105682    2.597    0.615
       337  -8.8322      1.3115     27.2920   1.1441416794e+02   7.1521947982e+01    0.1272994    0.0700645 -42.64 0.0002829372    1.588    0.370
       338  -9.7994    136.8480     24.5752   5.8961072379e+01   4.7841863880e+01    0.3080363     0.190443 -16.02 0.0002262144    1.706    0.414
       339  -9.3901    118.3382     24.1228   6.2653303088e+01   5.2628575908e+01    0.2097255    0.1813748 -22.35  0.000627897    1.140    0.122
       340  -9.3672      3.4783     23.5010   1.1193326186e+02   7.2259906017e+01    0.1241971   0.09662547 -51.94 0.0008101628    1.025    0.024
       341  -8.7498    161.0000     20.9472   5.3568910622e+01   4.1925930591e+01    0.2401865   0.08184202 -22.00 0.0007974871    2.908    0.656
       342  -8.8907     84.9636     21.3049   7.0505813472e+01   6.0908461852e+01    0.1951084     0.182597  13.02 0.0005307327    1.047    0.044
       343  -9.8032    208.2829     22.1242   4.8318648515e+01   2.9811617613e+01    0.3363571    0.1698914   3.15  0.001286937    2.954    0.661
       344  -9.6104    230.4007    236.8721   9.2224736466e+01   3.4628708719e-01    0.1917986    0.1700624  47.83  0.001466444    2.080    0.519
       345  -9.9669    140.5980     16.7270   5.5186859887e+01   4.7745881378e+01    0.2833715    0.1449313 -15.03   0.00113602    2.117    0.528
       346  -9.3200    207.5482    237.6857   9.5875175167e+01   3.1577285772e+00    0.2004073    0.1345749  53.25  0.001302935    2.511    0.602
       347  -8.6290     23.5020     15.4947   9.5872303497e+01   7.2319902843e+01    0.1281687    0.1054816 -33.79 -1.256919e-05    1.001    0.001
       348  -8.9981      2.5322     15.5549   1.0976763919e+02   7.4054559146e+01    0.1219129   0.09573638 -48.80 2.578166e-05    1.007    0.007
       349  -9.6926     29.9287     12.9965   9.0615273078e+01   7.2035999623e+01    0.1909815    0.1589381 -25.33 0.0003417015    1.020    0.019
       350  -8.4855     38.9540     10.7421   8.4153639510e+01   7.1179028903e+01    0.1486728     0.109192  29.53 0.0003089232    1.450    0.310
       351  -9.4954    189.1436    233.9662   9.8371668185e+01   5.9442636700e+00    0.1714123    0.1351945 -65.56  0.001190947    2.614    0.617
       352  -9.0862    244.1606    236.8112   9.0167890239e+01  -1.3222036963e+00    0.1437081    0.1053831  19.88 0.0005715854    1.222    0.181
       353  -8.7803    237.1554    235.7404   9.1053839064e+01  -3.8630749195e-01    0.1279062    0.1092492  59.60 0.0009358915    2.712    0.631
       354  -9.7140    216.9769    234.6341   9.3983169120e+01   2.2365267473e+00    0.2726685    0.1579563  41.21  0.001855085    1.738    0.425
       355  -8.8597    225.7494    231.8048   9.2232939413e+01   1.3795174965e+00    0.1299021    0.1027977  26.13  0.000576096    1.352    0.260
       356  -9.3546    245.5932    231.2759   8.9174407544e+01  -1.0370877974e+00    0.1278076    0.1130185  20.20 0.0006005788    1.712    0.416
       357  -9.6049    235.3907    229.8551   9.0488945891e+01   3.3999632738e-01    0.1817135    0.1671725  -7.39   0.00136839    1.752    0.429
       358  -9.3968    229.5829    228.5514   9.1185488014e+01   1.1882492569e+00    0.1718356    0.1533518  57.59  0.001017396    2.254    0.556
       359  -9.5224    202.9528     97.8514   7.0213584053e+01   2.1530912723e+01    0.3127199    0.1894984 -38.35  0.001102389    1.640    0.390
       360  -9.9130    247.5462    226.5730   8.8206047577e+01  -8.7994783027e-01    0.2838894    0.1548443  45.77  0.001455784    2.602    0.616
       361 -10.1969    240.7324    222.0128   8.8543175923e+01   3.6213652105e-01    0.2831071     0.205066  46.16  0.002023771    2.109    0.526
       362  -9.1107    199.0388    227.0289   9.5822909620e+01   5.3464392553e+00    0.1524451      0.12347  49.68    0.0011319    1.748    0.428
       363  -9.1293    205.9365    225.6360   9.4504451003e+01   4.5622426384e+00    0.1712333    0.1457172 -47.51  0.001307309    1.991    0.498
       364  -9.3471    228.7350    222.2314   9.0402305305e+01   1.8799973013e+00    0.2174197    0.1390422  36.54  0.001542358    1.496    0.332
       365 -10.4257    248.0739    217.5025   8.6772099408e+01  -1.6448167641e-01    0.3103621    0.2450024 -30.01  0.002340274    1.899    0.474
       366  -9.3993    240.7284    232.2834   9.0036183661e+01  -5.2954024017e-01    0.1699435    0.1458921  74.83  0.001112053    3.713    0.731
       367  -9.5095    219.6015    216.6142   9.1005556002e+01   3.6341574822e+00    0.3308493    0.1514092 -42.90  0.001722683    3.663    0.727
       368  -8.5855    186.3000    215.6600   9.6390887927e+01   8.3653972106e+00    0.1000319   0.08328961  53.86 0.0005942698    1.667    0.400
