#   1 NUMBER                 Running object number                                     
#   2 MAG_AUTO               Kron-like elliptical aperture magnitude                    [mag]
#   3 X_IMAGE                Object position along x                                    [pixel]
#   4 Y_IMAGE                Object position along y                                    [pixel]
#   5 X_WORLD                Barycenter position along world x axis                     [deg]
#   6 Y_WORLD                Barycenter position along world y axis                     [deg]
#   7 A_WORLD                Profile RMS along major axis (world units)                 [deg]
#   8 B_WORLD                Profile RMS along minor axis (world units)                 [deg]
#   9 THETA_WORLD            Position angle (CCW/world-x)                               [deg]
#  10 FWHM_WORLD             FWHM assuming a gaussian core                              [deg]
#  11 ELONGATION             A_IMAGE/B_IMAGE                                           
#  12 ELLIPTICITY            1 - B_IMAGE/A_IMAGE                                       
         1 -15.1167      9.6643    148.8808   1.4302401041e+02   4.3162302367e+01     11.26263     4.807803  80.38   0.04729049    3.287    0.696
         2 -13.2274    197.7825     29.6614   6.6195463700e+01   3.2268066817e+01     1.229537     1.158687  58.39  0.007697727    1.230    0.187
         3 -13.3908    213.6194     11.0760   6.0005269633e+01   3.0598870374e+01     1.094687    0.8681697  46.38  0.004706086    1.584    0.369
         4 -11.6029      2.4245      4.9938   1.1411186345e+02   7.2089440553e+01    0.4551995    0.1792879 -40.93  0.002731668    2.070    0.517
         5 -10.3274     46.4846    248.4183   1.4422662737e+02   1.7798345336e+01    0.3087502    0.1530532  76.50  0.001091868    1.977    0.494
         6 -11.9161    243.8995    247.5906   1.0611916633e+02  -1.3582284354e+01    0.4499632    0.2635084 -14.11  0.002554506    1.843    0.457
         7 -10.6153    126.1452    249.8939   1.2941555968e+02   5.5208409583e+00    0.3320297    0.1141606  43.79  0.001380484    2.329    0.571
         8  -9.9316     65.7513    249.1713   1.4084820329e+02   1.5071983963e+01    0.2454799    0.1589858  77.20 0.0006086463    1.374    0.272
         9 -10.6690     28.6907    249.0572   1.4731404823e+02   1.9855181407e+01    0.2677559    0.1921197 -64.02  0.001896113    1.762    0.432
        10 -12.1914     35.5132    245.8320   1.4594678366e+02   1.9657822022e+01    0.5553391    0.4253442 -64.32  0.003972487    1.671    0.402
        11 -11.1576      1.9404    237.4697   1.5105727081e+02   2.4938116423e+01    0.3542247    0.1223112 -79.84   0.00190751    2.402    0.584
        12 -11.3620     17.7847    241.2338   1.4865984445e+02   2.2576999782e+01     0.376396    0.1489572  64.47  0.001466392    2.203    0.546
        13 -12.4573     10.9749    238.4997   1.4963431042e+02   2.3827888063e+01    0.5649068    0.2906191 -82.79  0.002726917    1.609    0.379
        14 -11.8910     14.9075    247.5204   1.4949185865e+02   2.1693883824e+01     0.696043      0.25139  60.69  0.003744473    2.274    0.560
        15 -11.8218      4.4623    248.6862   1.5121658411e+02   2.2572332657e+01    0.7055637    0.3925491  62.63   0.00315966    1.327    0.246
        16 -10.7751    198.6043    246.7264   1.1456763139e+02  -6.3929792567e+00    0.2603572    0.1868343  66.97  0.001369221    2.317    0.568
        17  -9.9513    181.4966    244.4849   1.1760039058e+02  -3.1438707825e+00    0.1326749     0.109198  31.37 6.684595e-05    1.023    0.023
        18 -11.0976     21.3546    237.5851   1.4783512647e+02   2.2892605965e+01    0.2822888    0.2163021 -78.89  0.002100775    1.372    0.271
        19 -10.9420    234.2118    238.0975   1.0627995590e+02  -1.0887137548e+01    0.2903998    0.1421071 -42.28  0.001441733    2.454    0.593
        20 -10.8302     51.4986    235.8533   1.4234168808e+02   1.9600857145e+01    0.3648952    0.1742301  81.93  0.001794708    2.354    0.575
        21 -11.3368    217.8986    249.3542   1.1126472178e+02  -9.8949811490e+00    0.3514925    0.2055669  44.20  0.001926454    1.721    0.419
        22 -11.6649     65.5938    188.9343   1.3461928212e+02   2.7843535808e+01    0.2899567    0.2464451 -56.52 0.0005153816    1.343    0.255
        23 -13.6982     37.2884    223.3267   1.4397085892e+02   2.3930773862e+01    0.7444796    0.5949162  72.01  0.002558001    1.103    0.093
        24 -10.9360    139.6745    249.6880   1.2671199355e+02   3.2541338094e+00    0.3057306    0.1959011  52.47  0.001695515    1.371    0.270
        25 -10.6202     75.9884    176.4190   1.3047372002e+02   2.9282567382e+01    0.2457349    0.2210547 -89.76 0.0003637643    1.043    0.041
        26 -13.0264     62.6426    174.2244   1.3337533952e+02   3.1690120116e+01    0.5305862    0.2783746 -46.32  0.001730967    2.316    0.568
        27 -12.2332      8.7241    227.6565   1.4939235901e+02   2.6180370002e+01    0.4405624    0.3014219  79.45    0.0032102    1.051    0.049
        28  -9.4790     95.3044    171.9701   1.2502887450e+02   2.7285716386e+01    0.2871467    0.1921637  43.86 0.0009672184    1.474    0.322
        29 -11.5744     83.5750    167.3235   1.2718808203e+02   3.0299022772e+01    0.6429855    0.5825458 -57.90   0.00372869    1.173    0.147
        30 -12.6384      9.5303    207.0987   1.4795549641e+02   3.0304886503e+01    0.6884035    0.6020572  32.91  0.003270971    1.620    0.383
        31  -8.6183    152.5464    212.9881   1.1858603404e+02   7.7070297340e+00    0.1856985    0.1430558 -52.23 0.0003513462    1.456    0.313
        32  -9.7790     96.7265    151.6258   1.2097360546e+02   3.1932985962e+01    0.2947748    0.2799627  12.40 0.0008093497    1.212    0.175
        33 -11.8737     85.2761    150.6770   1.2384245121e+02   3.4052973286e+01    0.3089404    0.2607359 -42.82 0.0004585972    1.282    0.220
        34  -8.9090    100.0657    147.2360   1.1921061642e+02   3.2411970970e+01    0.2215083    0.1999944 -21.97 0.0007508834    1.293    0.226
        35 -12.0843     67.6026    143.5291   1.2731300115e+02   3.8397299605e+01    0.6830623    0.4473068  65.45   0.00246034    1.848    0.459
        36 -10.2063     95.9920    134.0927   1.1756997437e+02   3.6280432477e+01     0.235471    0.2055174 -47.38 0.0004508859    1.135    0.119
        37  -9.4067    108.7498    137.1092   1.1470318627e+02   3.3260929172e+01    0.3869459    0.2441124 -21.48  0.001442685    2.737    0.635
        38 -11.3872     59.0693    197.1608   1.3705544074e+02   2.6853017566e+01    0.2950209    0.2303586 -60.57 0.0005096514    1.390    0.281
        39  -8.8748    106.2760    123.5944   1.1227357503e+02   3.6909304912e+01    0.1873818    0.1478553  28.39 0.0002882393    1.385    0.278
        40 -10.0203    167.7808    112.7601   9.3530394245e+01   2.5879569003e+01    0.3450772    0.2759282 -84.67 0.0007054173    1.531    0.347
        41  -8.4656    203.4905    111.4789   8.5675143495e+01   1.7600859710e+01    0.1506428    0.1490297 -52.60 0.0002466291    1.051    0.049
        42 -12.5612     31.7444    230.5527   1.4553874430e+02   2.3108827648e+01    0.2887219    0.2511159 -77.87 0.0007619936    1.417    0.294
        43  -9.7769    241.3277     95.3289   7.5476713716e+01   1.1952630797e+01    0.1364344    0.1125149   9.07 0.0007050958    1.707    0.414
        44  -9.6211     47.6129     69.9886   1.1707358645e+02   5.7384095719e+01    0.2143838    0.1680028  43.04 0.0007035774    1.614    0.380
        45 -11.9295      9.7314     53.1059   1.2693802636e+02   6.3814403842e+01    0.3835443    0.2349488  29.22  0.002164336    2.032    0.508
        46 -11.6767      2.4854     34.4792   1.2474175901e+02   6.7551613400e+01    0.4522451    0.1697098 -59.61  0.002212981    2.963    0.662
        47 -10.6416    162.5771    249.3282   1.2210120378e+02  -6.4213062075e-01    0.2748517    0.1431172  38.86  0.001366561    1.595    0.373
        48  -9.8433     81.8210    249.0612   1.3787108045e+02   1.2766141507e+01    0.2044464    0.1359452  66.61  0.001244369    1.286    0.222
