#   1 NUMBER                 Running object number                                     
#   2 MAG_AUTO               Kron-like elliptical aperture magnitude                    [mag]
#   3 X_IMAGE                Object position along x                                    [pixel]
#   4 Y_IMAGE                Object position along y                                    [pixel]
#   5 X_WORLD                Barycenter position along world x axis                     [deg]
#   6 Y_WORLD                Barycenter position along world y axis                     [deg]
#   7 A_WORLD                Profile RMS along major axis (world units)                 [deg]
#   8 B_WORLD                Profile RMS along minor axis (world units)                 [deg]
#   9 THETA_WORLD            Position angle (CCW/world-x)                               [deg]
#  10 FWHM_WORLD             FWHM assuming a gaussian core                              [deg]
#  11 ELONGATION             A_IMAGE/B_IMAGE                                           
#  12 ELLIPTICITY            1 - B_IMAGE/A_IMAGE                                       
         1 -12.9636     42.5048     20.4182   9.6834572903e+01   6.6997735314e+01     0.636158    0.4444676   9.43  0.003853036    1.688    0.408
         2 -12.6677    216.3970     15.0162   5.2561608752e+01   2.8678767728e+01    0.8263058    0.6579015  64.98  0.002937387    1.256    0.204
         3 -13.4032    189.9011      8.8464   5.3739584552e+01   3.6272154842e+01     1.006976    0.4610332  67.37   0.00405376    2.084    0.520
         4 -12.8263    183.7895      3.9480   5.2893369334e+01   3.8370751330e+01    0.7318013    0.5571412  51.51  0.003795474    1.271    0.213
         5 -11.9798     43.7922      8.7323   9.0880035727e+01   6.8835587817e+01     0.306782    0.2878842 -17.11  0.001289583    1.272    0.214
         6 -12.1962     57.9943      8.0420   8.4451711358e+01   6.6931073925e+01    0.4671503    0.3609521  13.01  0.002206647    1.297    0.229
         7 -10.2546    109.7782      8.7924   6.8063117832e+01   5.6821500923e+01     0.184958    0.1657402 -54.12 0.0007352254    1.340    0.254
         8  -9.7323    149.3068      8.3069   5.9543136149e+01   4.7136906411e+01    0.1554717    0.1014833  31.91 0.0003384539    1.609    0.378
         9 -11.2362     54.4149      2.2966   8.2909811293e+01   6.8305702391e+01    0.3278158    0.2701476  87.61  0.001921282    2.315    0.568
        10 -10.8436    165.9403      7.5144   5.6559886483e+01   4.2820221169e+01    0.2254634    0.1396116  66.42 0.0006196517    1.562    0.360
        11 -12.0857    166.5725      2.0433   5.4512739165e+01   4.3160445809e+01    0.7089615    0.2221836  66.60  0.002404654    2.893    0.654
        12 -10.1180    104.4702    225.4337   1.1927515666e+02   1.8558220357e+01    0.1821546    0.1022186 -66.37  0.001203276    2.152    0.535
        13 -10.6739    149.2421    223.2582   1.1151367249e+02   1.2303762434e+01    0.2342032    0.1368622  68.50  0.001295736    2.520    0.603
        14 -11.6379    226.2584    221.3928   9.8646647558e+01   4.4643724880e-01    0.1918172    0.1667604  69.70  0.001288816    1.904    0.475
        15  -9.5953    185.5154    223.0050   1.0542868155e+02   6.6586871964e+00    0.1269954   0.09702803 -85.27 0.0008073988    2.359    0.576
        16  -9.7718    174.0000    222.0235   1.0720943585e+02   8.5948597806e+00    0.1504545   0.06584004 -43.40 0.0008086875    2.986    0.665
        17 -11.3623    232.3571    218.7824   9.7307488313e+01  -2.3879813237e-01    0.2194837    0.1647804  83.59   0.00115441    4.034    0.752
        18 -10.1620    211.3351    217.8369   1.0050133874e+02   3.1376060396e+00     0.184534    0.1005299 -43.08  0.001082629    2.592    0.614
        19 -11.5157    238.3871    213.0477   9.5494251391e+01  -6.1876038702e-01    0.4310516    0.2387774 -48.36  0.002204574    3.881    0.742
        20 -11.6490    222.4948    214.4409   9.8209512042e+01   1.7254176930e+00    0.2601229    0.1772848  37.71  0.001710954    1.179    0.152
        21 -10.4245    115.9012    209.5897   1.1575965227e+02   1.9294679838e+01    0.2130463    0.1379365 -89.66  0.001329683    1.981    0.495
        22  -9.8576     56.3373    205.6754   1.2588956663e+02   2.7815681686e+01    0.1138207   0.05749351  64.87 0.0004783556    1.720    0.418
        23  -9.8323     41.3253    201.9603   1.2823544608e+02   3.0113209983e+01    0.1417107    0.1025175  80.86 0.0005296551    1.143    0.125
        24 -11.4301      4.9389    199.5247   1.3422929084e+02   3.4018326039e+01    0.3036136    0.1252247  55.27  0.001085646    1.756    0.430
        25  -9.6255    133.0220    195.9771   1.1107231458e+02   1.8771605304e+01      0.18982    0.1270481  69.83  0.001127333    1.721    0.419
        26 -12.3185    159.8525    191.6510   1.0553970283e+02   1.4988267248e+01    0.6272277    0.4290626  78.51  0.003114011    2.285    0.562
        27 -10.3399    183.5170    183.0742   9.9891618358e+01   1.2080786069e+01    0.3011474    0.1795996 -24.89  0.001583224    2.244    0.554
        28 -10.9075    223.7536    183.1739   9.2907113101e+01   4.9427593156e+00    0.1720887    0.1580578 -37.96 0.0009865791    1.473    0.321
        29  -9.4689    128.6839    177.6692   1.0943801432e+02   2.2462784504e+01    0.1159486   0.09623323   8.58 0.0007046369    1.683    0.406
        30  -9.7624    215.1990    193.8149   9.6150322199e+01   5.1713546946e+00    0.2251183   0.08578943 -41.24  0.001010946    3.434    0.709
        31 -10.9894     38.1938    174.8449   1.2696595529e+02   3.5277534300e+01    0.1833839    0.1238291  35.07  0.001282209    1.724    0.420
        32 -11.5271     55.6738    167.7757   1.2292987137e+02   3.4693768369e+01     0.424268    0.2290815 -86.31  0.002326902    1.835    0.455
        33 -11.0987     51.6507    159.7173   1.2298773387e+02   3.6720454660e+01    0.3633774    0.1644314  65.56  0.001828634    2.440    0.590
        34 -11.2705     24.3225    159.4407   1.2857088032e+02   3.9571209278e+01    0.2022635    0.1686721 -28.07  0.000927031    2.001    0.500
        35  -9.6723    132.6705    159.6770   1.0589136730e+02   2.4932808951e+01    0.1249214    0.1019012   7.16 0.0004560038    1.696    0.410
        36 -11.4979    106.1468    157.6451   1.1115853049e+02   2.9732581716e+01    0.5300009     0.337677  87.00  0.002750433    2.045    0.511
        37 -10.7567    167.5108    157.3527   9.8426972313e+01   1.8927029038e+01    0.3064046    0.2198185 -80.29  0.001523905    2.250    0.556
        38 -11.4394    118.5529    156.8398   1.0839588837e+02   2.7869079960e+01    0.3130071    0.2623088  76.27  0.001490477    1.173    0.148
        39 -10.2768    218.4317    156.1617   8.8746294264e+01   9.2775928217e+00    0.3064882    0.1217491 -35.25   0.00130775    2.680    0.627
        40 -10.8900     28.0860    155.1658   1.2748580046e+02   4.0057685786e+01    0.2219955    0.1037643  75.75  0.001003974    2.125    0.529
        41 -11.0296     22.9940    151.5599   1.2826683397e+02   4.1237302489e+01    0.3467809    0.1309473 -80.40  0.001334451    2.325    0.570
        42 -10.2768     41.7583    150.9720   1.2424531731e+02   3.9536674262e+01    0.2214607    0.1391462 -57.33  0.001403852    1.759    0.432
        43 -11.6338    244.0383    151.2451   8.3486210445e+01   5.0973859414e+00    0.3767436    0.1591201  56.77   0.00144998    3.603    0.722
        44 -10.2854    189.4885    150.0606   9.2767710716e+01   1.5792130248e+01    0.1964052    0.1336743 -36.83  0.001034509    1.603    0.376
        45 -10.8836    233.4610    147.2263   8.4375229724e+01   7.5691752316e+00    0.2450389    0.1235746 -23.20  0.001144662    2.100    0.524
        46 -10.1027     12.3103    148.1946   1.3025103740e+02   4.2812272549e+01    0.1612254    0.1060255 -71.02 0.0006019277    1.422    0.297
        47 -10.5872    106.7369    145.1771   1.0910177519e+02   3.2058552951e+01    0.3403704    0.1816918  84.60  0.001139593    4.765    0.790
        48 -10.0676     55.5021    145.9765   1.2071999488e+02   3.9034497130e+01    0.1715964    0.0850544  83.43 0.0008098342    2.534    0.605
        49 -10.0086    148.4770    144.9804   9.9976380964e+01   2.4684717717e+01    0.1878792    0.1181183 -73.02 0.0008102235    2.599    0.615
        50  -9.8342    124.4948    142.9837   1.0478137628e+02   2.9475179925e+01    0.1883333    0.1142448 -79.37 0.0008105707    2.618    0.618
        51  -9.8493    181.6104    141.8058   9.2596853681e+01   1.8668132622e+01    0.1874872     0.129126 -49.88 0.0009452595    1.716    0.417
        52 -10.3712     82.8575    132.0228   1.1250270043e+02   3.8393768024e+01    0.2166182    0.1342862  86.70  0.001082276    2.008    0.502
        53 -10.7422     98.0008    119.6905   1.0665219469e+02   3.8680568011e+01     0.198789    0.1867924 -32.47 0.0007265433    1.253    0.202
        54 -11.8693     98.4774    128.1506   1.0810675343e+02   3.6837576172e+01    0.5545163    0.3085765  85.25  0.002075781    3.668    0.727
        55  -9.9009     60.4312    130.5240   1.1766129664e+02   4.1669254412e+01    0.1216665    0.1021788  89.60 0.0001181652    1.009    0.009
        56 -10.3951     59.0360    124.5413   1.1716978706e+02   4.3111538897e+01    0.2624379    0.1266335  77.74  0.001036286    3.547    0.718
        57 -10.6861     43.9556    123.9688   1.2081406601e+02   4.4918048188e+01    0.3662075    0.1654271  69.26  0.001598279    3.129    0.680
        58 -10.9354     27.7944    122.0809   1.2455549405e+02   4.6872751232e+01    0.4656263    0.1718284  80.61  0.001548519    5.588    0.821
        59 -11.7432    193.2348    118.1852   8.5069617897e+01   2.0013914896e+01    0.5847044    0.4645359 -67.79   0.00241108    1.711    0.416
        60 -10.5877     15.5810    120.9452   1.2740159410e+02   4.8120372142e+01    0.3005072    0.1616438  40.62  0.001896743    1.947    0.486
        61 -11.3953    141.0899    115.2417   9.5358838260e+01   3.1692250085e+01    0.7685366    0.2224151 -41.42  0.002403266    3.799    0.737
        62 -10.3460      2.2035    115.3776   1.3015514909e+02   5.0229387962e+01    0.1795245    0.1012178 -86.47 0.0007589965    1.372    0.271
        63 -10.3746    108.3846    112.4579   1.0259445587e+02   3.8449852410e+01    0.5381317    0.1943675 -61.08  0.001667933    4.262    0.765
        64 -10.7160     78.2111    111.9619   1.1023323835e+02   4.3331593488e+01    0.4414228    0.2214108 -81.71   0.00165384    3.523    0.716
        65 -11.0082     13.9657    108.7691   1.2663900807e+02   5.0823304086e+01     0.467279    0.1306592 -72.59  0.002105471    2.730    0.634
        66  -9.1364     99.2779    112.2844   1.0485652597e+02   4.0033173866e+01    0.1250104    0.1060096 -21.24 0.0002328318    1.512    0.338
        67 -10.6245     91.6970    110.9948   1.0653874000e+02   4.1527781689e+01    0.3667319      0.15801 -63.02  0.001463332    2.615    0.618
        68 -12.2993    140.3696    104.4543   9.2948643727e+01   3.3922691982e+01    0.4595615    0.3927453 -76.69  0.002456875    1.335    0.251
        69 -10.6698    132.9319    106.1320   9.5122452428e+01   3.5116390663e+01    0.2172419    0.1950022  86.45 0.0004123239    1.201    0.168
        70 -11.8324     44.5289    101.3863   1.1750142423e+02   4.9767948007e+01    0.5819901    0.2955386  82.64  0.002569888    2.938    0.660
        71 -11.9824    127.3223    100.0212   9.4985415052e+01   3.7453501556e+01    0.5784473    0.3236428 -57.87  0.002438027    2.111    0.526
        72 -10.8264    174.3784    110.7740   8.7022960720e+01   2.5407383925e+01    0.4198936    0.2639627 -39.93  0.001346399    1.638    0.390
        73 -11.6073    115.4986    102.4836   9.8547398615e+01   3.9232801410e+01    0.8103426    0.2373464  38.09  0.002392103    4.478    0.777
        74 -11.7329    107.8354     98.7052   9.9621102566e+01   4.1417041959e+01    0.6371859    0.4181607 -83.03  0.002787498    2.356    0.576
        75 -10.7819     81.9074    100.3761   1.0695784007e+02   4.5309585086e+01    0.2252158    0.1751908 -75.44  0.000696232    1.278    0.218
        76 -10.6874     63.0136     96.2012   1.1138672117e+02   4.8805476546e+01    0.3481368    0.1642794 -84.45  0.001095564    5.129    0.805
        77 -11.9606    160.1450    110.4172   8.9949731615e+01   2.8594046817e+01    0.6804788    0.4642678 -69.62  0.002977361    2.185    0.542
        78 -12.9636    170.2610     90.8474   8.2709225940e+01   2.9797739640e+01    0.4935809      0.41709  77.42  0.001308608    1.394    0.283
        79 -11.7258     42.5261     87.5668   1.1574872785e+02   5.3022005634e+01    0.5732343    0.3584724  -4.81  0.002400794    2.923    0.658
        80 -10.7086     45.4368     81.9921   1.1381039721e+02   5.3956781365e+01    0.2644432    0.1649674 -80.67 0.0006965995    1.693    0.409
        81 -10.8123     34.2495     88.2602   1.1833977299e+02   5.3656279805e+01     0.281184    0.1630092 -86.19  0.001282425    1.807    0.446
        82 -10.7339     86.2873     86.6661   1.0260802477e+02   4.7603169896e+01    0.5013909     0.286705 -78.56  0.001950749    3.119    0.679
        83 -11.0169    104.5825     83.3333   9.6586727543e+01   4.5201485913e+01    0.3581656    0.2129742 -69.39  0.001457919    2.528    0.604
        84  -9.9094    140.5155     83.0212   8.7202374156e+01   3.7992540013e+01    0.2365562    0.1447556 -40.84  0.001040332    1.618    0.382
        85 -11.0963      9.7201     80.9136   1.2462733883e+02   5.7126591769e+01    0.2427033    0.1532379 -77.54 0.0004277159    1.244    0.196
        86 -10.0809     73.8355     81.3789   1.0497655057e+02   5.0606208343e+01    0.1911587    0.1600146 -67.29  0.001139786    1.127    0.113
        87 -10.2660     24.1504     80.9759   1.2021979837e+02   5.6108687078e+01    0.2011998    0.1144204  82.51  0.001081576    2.065    0.516
        88 -10.3162      1.9396     77.7896   1.2659904489e+02   5.8249565433e+01    0.1724163    0.1186172 -59.05 0.0008516924    1.292    0.226
        89 -10.8071     82.1479     72.9938   1.0028074631e+02   5.1161318082e+01    0.3618836    0.2110145 -72.64  0.001503296    2.666    0.625
        90 -11.3084    223.4116     71.3973   6.7724293393e+01   2.0052768698e+01      0.29736    0.2811506  68.68 0.0005916242    1.165    0.142
        91  -9.4454    115.3443     72.6572   9.0587555533e+01   4.5296360785e+01    0.1503236    0.1151651 -82.08 0.0007046773    1.788    0.441
        92 -10.5310     51.8270     70.0333   1.0916430561e+02   5.5886455842e+01     0.309087    0.1642771 -59.80  0.001211525    1.621    0.383
        93 -11.3162     20.6279     50.8381   1.1567073279e+02   6.2928759963e+01    0.6909999    0.1460081 -60.54  0.002713768    3.129    0.680
        94 -11.3839     28.5847     52.4115   1.1304853376e+02   6.1975667938e+01    0.4108687     0.253647 -26.73  0.001928505    2.010    0.503
        95 -11.3523     19.4612     59.4710   1.1794082963e+02   6.1154408571e+01    0.2670216    0.2258393 -54.69 0.0009329001    1.131    0.116
        96 -13.7324     30.4093     59.6588   1.1408309818e+02   6.0264626017e+01     1.204956    0.6916926  31.58  0.005294551    2.087    0.521
        97 -10.1032    194.6017     67.1887   7.1246627690e+01   2.7707147587e+01    0.2211195    0.1445983 -15.02 0.0009578601    1.708    0.414
        98 -12.5698    237.7593     64.1397   6.3721081254e+01   1.7627705077e+01    0.5351272    0.4046248 -89.27  0.002715843    1.720    0.419
        99 -11.8246      9.6072     58.4589   1.2125247749e+02   6.2004693891e+01    0.5369675    0.3315242  74.14  0.003251191    1.971    0.493
       100 -11.8266     40.0763     51.1836   1.0843559925e+02   6.1184355788e+01    0.5858473    0.1655998 -52.75  0.002381398    2.663    0.624
       101 -10.2011    161.9815     53.4740   7.3222097673e+01   3.8008362481e+01    0.2395714    0.1496694  55.87  0.001036426    1.604    0.377
       102 -11.7757    149.1808     52.2575   7.5563016380e+01   4.1371611950e+01     0.470115    0.2721932  58.48 0.0005670823    1.817    0.450
       103 -10.3613     82.6183     47.3606   9.2106153468e+01   5.6257728878e+01    0.2714002    0.2186745 -80.10  0.001208456    1.719    0.418
       104 -10.7142    156.9659     45.0226   7.1433735481e+01   4.0550788082e+01    0.2939911    0.2099169  50.42 0.0004904766    1.378    0.274
       105 -10.9768     74.8208     43.4026   9.3317783111e+01   5.8281652499e+01    0.2885758    0.2176065  -6.68  0.001572122    1.587    0.370
       106 -10.9493     70.3015     42.3063   9.4499446944e+01   5.9189766477e+01    0.3454141    0.2570202  65.73  0.001847822    1.979    0.495
       107 -11.4908      7.4327     43.2189   1.1910714401e+02   6.5381814477e+01    0.4734332    0.2528241  44.61  0.002783434    2.471    0.595
       108 -12.3634     42.4899     37.6437   1.0336757817e+02   6.3717739056e+01    0.5502967     0.382688   9.54  0.001377635    1.814    0.449
       109 -10.6488     82.5577     37.8032   8.8590137836e+01   5.8032999016e+01    0.3980998    0.2391736  57.76  0.001781689    2.354    0.575
       110 -11.6250     46.9133     35.8226   1.0096888444e+02   6.3580762688e+01    0.3459291    0.2490331   6.70  0.000701747    1.716    0.417
       111 -11.0901    120.0416     34.1901   7.6040948768e+01   5.1086043341e+01    0.3078448    0.3004716  52.96 0.0007958692    1.129    0.114
       112  -9.8242     62.8522     33.8922   9.4065786033e+01   6.1873679012e+01    0.1659377     0.152042 -65.26 0.0004358306    1.322    0.243
       113 -10.3166     74.1586     32.8109   8.9513288800e+01   6.0333521268e+01    0.2635355    0.1901773  54.39  0.001426512    1.784    0.439
       114 -10.8759    105.8005     30.4104   7.8415445847e+01   5.4784149414e+01    0.3954735    0.2634284  51.94  0.001410976    1.600    0.375
       115 -10.7678    102.3297     30.6515   7.9517032229e+01   5.5471640941e+01    0.6284078    0.1981325 -42.41  0.002075372    3.394    0.705
       116 -12.5150    203.1954     21.1201   5.5945403552e+01   3.1476849570e+01    0.5527778    0.3265353 -73.34  0.002281907    2.260    0.558
       117 -11.6261    222.2389    248.9132   1.0301319828e+02  -1.4780077010e+00    0.4513363    0.1453789  44.84  0.002359494    2.446    0.591
       118  -9.7249    187.6218    248.4410   1.0822232035e+02   3.5909808363e+00    0.2423887   0.06346561  34.63 0.0008076785    5.777    0.827
       119 -11.2381    239.8272     20.6209   5.1732627166e+01   2.2229217619e+01    0.2863839    0.2555694  80.29 0.0004944449    1.168    0.144
       120 -10.7617    134.1755     17.9743   6.6270962977e+01   4.9930189450e+01    0.2471764    0.2057943  53.46 0.0004590826    1.190    0.160
       121  -9.6654     88.9866     18.1666   7.8223038503e+01   6.0028996560e+01    0.2071319    0.1644796 -85.27  0.001075699    2.026    0.506
       122 -10.3010     82.9848    247.2713   1.2441055227e+02   1.8286358340e+01    0.1445094   0.09304627  53.88 0.0009869731    1.089    0.082
       123 -11.9004     26.0000    243.0297   1.3269164452e+02   2.5248058269e+01    0.1967739    0.1312781 -85.49  0.001766766    1.518    0.341
       124 -11.8656     22.4091    239.2205   1.3306571811e+02   2.6154274900e+01    0.2936256    0.1437268 -82.56  0.002280372    1.945    0.486
       125 -11.2973     19.4970    236.5071   1.3338837309e+02   2.6835071991e+01    0.1715139    0.1087082  41.15  0.001314039    1.642    0.391
       126 -10.4997     33.1809    242.3786   1.3161978745e+02   2.4620313918e+01    0.1351724   0.05373688  50.52 0.0009427239    1.688    0.408
       127 -11.1278      8.1536    240.4625   1.3515527950e+02   2.7311340125e+01    0.1440469    0.1193903  78.88 0.0009341212    1.460    0.315
       128 -10.0634      2.4110    240.1995   1.3595615655e+02   2.7862604499e+01    0.1214471   0.05565002  76.92 0.0008549151    1.657    0.397
       129 -10.9574     12.6876    227.3872   1.3406038744e+02   2.8848759246e+01    0.1806104    0.1105442  67.71 0.0005947831    1.098    0.089
