#   1 NUMBER                 Running object number                                     
#   2 MAG_AUTO               Kron-like elliptical aperture magnitude                    [mag]
#   3 X_IMAGE                Object position along x                                    [pixel]
#   4 Y_IMAGE                Object position along y                                    [pixel]
#   5 X_WORLD                Barycenter position along world x axis                     [deg]
#   6 Y_WORLD                Barycenter position along world y axis                     [deg]
#   7 A_WORLD                Profile RMS along major axis (world units)                 [deg]
#   8 B_WORLD                Profile RMS along minor axis (world units)                 [deg]
#   9 THETA_WORLD            Position angle (CCW/world-x)                               [deg]
#  10 FWHM_WORLD             FWHM assuming a gaussian core                              [deg]
#  11 ELONGATION             A_IMAGE/B_IMAGE                                           
#  12 ELLIPTICITY            1 - B_IMAGE/A_IMAGE                                       
         1 -11.1483     74.4109     55.8062   2.9125325116e+02   6.6945174699e+00    0.0705267   0.04567753  81.83  0.005897689    2.114    0.527
         2 -12.1209     58.1636     70.0245   2.9152348900e+02   6.6239128443e+00    0.1273937   0.04138996 -69.27  0.008236871    4.135    0.758
         3 -10.8919    108.0370     32.3540   2.9072942899e+02   6.7711947958e+00   0.06177481   0.03993493 -66.24  0.005676801    1.558    0.358
         4 -11.9528    147.8871     19.7758   2.9019953733e+02   6.6858042907e+00   0.08486109   0.02587082 -57.78  0.006331394    2.910    0.656
         5 -12.3932    163.8395     10.9215   2.8996463567e+02   6.6955174591e+00   0.06563566   0.04715689 -46.84    0.0072075    1.386    0.279
         6 -12.4726    134.9499      5.8098   2.9026363351e+02   6.9218383455e+00   0.07175069   0.03199499  31.58  0.006310191    2.184    0.542
         7 -11.7356      3.9693     88.6080   2.9225292505e+02   6.7208834234e+00    0.2120035  0.005073223 -60.34  0.009445803    8.200    0.878
         8 -12.6599     86.8461     52.2444   2.9109004141e+02   6.6639104236e+00   0.09372703   0.04644655 -51.91  0.005171639    1.928    0.481
         9 -12.3088     71.5371     31.2373   2.9113953248e+02   6.9948301726e+00    0.1587994    0.0532226  39.77   0.01205563    2.955    0.662
        10 -12.0358     87.5491     22.6964   2.9090568090e+02   7.0010267437e+00   0.07839479   0.05277833 -71.42  0.004110408    1.563    0.360
        11 -11.8867     68.3023     20.5547   2.9111273529e+02   7.1368133413e+00   0.05149884   0.02980791   0.28  0.004488432    2.594    0.615
        12 -12.0248    130.3538     20.0668   2.9040131787e+02   6.7839514181e+00   0.05509364   0.02705916  21.49  0.004865756    2.269    0.559
        13 -11.6416    113.7381      8.9345   2.9052443153e+02   7.0085199581e+00   0.04657338   0.02942121 -21.42   0.00442837    2.138    0.532
        14 -12.6747     43.9964     67.1083   2.9166789655e+02   6.7392069998e+00   0.09166253   0.04547089  56.04  0.007434587    2.851    0.649
        15 -12.3726     37.6411     47.0787   2.9162119081e+02   7.0071940313e+00   0.07138737   0.04538454  53.83  0.007154498    1.811    0.448
        16 -11.8245     51.8751     34.2490   2.9138210134e+02   7.0733991973e+00   0.07508372   0.05481736 -49.26  0.008329488    1.345    0.257
        17 -11.3312    123.3192     54.1258   2.9068502424e+02   6.4314712515e+00   0.07146343   0.02921586 -42.57  0.005560933    2.864    0.651
        18 -11.1473     48.8231     25.5128   2.9136487316e+02   7.1918524738e+00   0.02406635   0.01546978  18.75  0.001210324    1.699    0.411
        19 -12.1775    111.7935     22.2981   2.9062648544e+02   6.8655538923e+00   0.03632893   0.02749196  44.31  0.001497279    1.361    0.265
        20 -12.7272    177.0325     25.7645   2.8990300377e+02   6.4478025557e+00    0.1268515   0.05345837  24.06   0.01045182    2.573    0.611
        21  -8.3147     31.3699     11.3041   2.9147960130e+02   7.4563646726e+00   0.02697629   0.01547515 -25.66  0.002369012    2.484    0.597
        22 -10.7549     27.2433      4.6535   2.9148710805e+02   7.5568660339e+00   0.07034117    0.0293245  28.50  0.005947435    2.388    0.581
        23 -11.8490     78.1849      7.3212   2.9092082441e+02   7.2325287914e+00   0.03211739   0.02015843 -47.40  0.001055599    1.586    0.370
        24 -12.1227     28.7373     26.3819   2.9159959618e+02   7.2974523192e+00   0.06436716   0.03381453 -49.72  0.004583599    1.857    0.461
        25 -12.6700     41.0791     17.0654   2.9140298612e+02   7.3339732561e+00   0.07455185   0.03451173 -60.49  0.006640803    2.061    0.515
        26 -12.3312      9.0845     26.5889   2.9182547436e+02   7.4080586216e+00   0.07490288   0.02888516  21.87  0.005721403    3.040    0.671
        27 -12.4367     18.7587     13.6131   2.9163754445e+02   7.5022574871e+00    0.0429736   0.03475371  69.57  0.004938243    1.390    0.280
        28 -12.4067     50.4246     10.9753   2.9125984246e+02   7.3504395991e+00   0.02198288   0.01687398  17.59 0.0003295934    1.385    0.278
        29 -11.4624     67.7404      5.3325   2.9102828027e+02   7.3157381066e+00   0.03954693   0.02514425  -8.29  0.002457364    2.209    0.547
        30 -12.0908     57.5984      4.3374   2.9113823532e+02   7.3857002527e+00   0.04902041   0.02213733  34.44  0.004343523    2.146    0.534
        31 -13.3157      5.1409     10.4288   2.9177427068e+02   7.6172791330e+00   0.06845145   0.04456316 -67.49  0.007118482    1.562    0.360
        32 -13.3345     98.7949      7.2921   2.9068524110e+02   7.1138464520e+00   0.05240773   0.04004232  20.08  0.002367462    1.375    0.273
        33 -12.3934    122.3189     14.5880   2.9046027035e+02   6.8936592854e+00   0.06752384   0.03427529  18.69  0.005971973    2.305    0.566
        34  -9.2644    222.2329     11.6206   2.8930339489e+02   6.3485437080e+00   0.01908824   0.01285143  80.95   0.00188779    1.956    0.489
        35 -10.4871    212.9456     15.6816   2.8943347081e+02   6.3556753028e+00   0.03011096   0.01679008 -77.27  0.002717981    2.218    0.549
        36  -9.5951    217.3550     14.3742   2.8937542712e+02   6.3451368052e+00   0.02867102   0.01452602 -57.32  0.002670624    1.865    0.464
        37 -10.4682    121.9600     37.7626   2.9060282838e+02   6.6282646113e+00   0.09433219   0.05042523 -22.38  0.007404483    3.203    0.688
        38  -9.9076    242.9246     12.6723   2.8907415295e+02   6.2161429045e+00   0.02670002    0.0172892 -78.41   0.00223722    1.784    0.439
        39 -10.5430    244.3414     19.5740   2.8909935999e+02   6.1283472718e+00   0.02583282   0.01528897  35.88  0.002093743    1.678    0.404
        40  -9.7371    231.0267     21.8357   2.8926443529e+02   6.1796673189e+00   0.02181318   0.01437504  76.31 0.0008013745    2.046    0.511
        41  -9.8065    231.6274     17.7198   2.8923295636e+02   6.2236314258e+00   0.01693846   0.01309989  82.59  0.001050247    1.505    0.336
        42 -10.6797    202.0724     19.2463   2.8957866101e+02   6.3777058336e+00   0.02816471   0.02064401  -0.70  0.003022155    1.641    0.391
        43 -10.2505    177.8973     18.6719   2.8985071909e+02   6.5246089528e+00   0.03484606   0.01273547 -61.82  0.002180724    2.632    0.620
        44 -10.5614    234.1025     12.0352   2.8917074473e+02   6.2747783236e+00   0.03635813   0.02081271  62.51  0.002804133    2.461    0.594
        45  -9.3802    226.9077      9.1613   2.8923544135e+02   6.3497270613e+00   0.01410904      0.01254  53.51  0.001146614    1.167    0.143
        46 -12.6588    223.8884      2.0440   2.8922719559e+02   6.4493152578e+00   0.02657679   0.01352054  28.86 0.0009082437    1.971    0.493
        47 -11.4734      3.0058     18.6831   2.9184787302e+02   7.5342583016e+00   0.02282406   0.01312119 -55.88 0.0009216157    1.655    0.396
        48 -10.4609    189.9830      8.2518   2.8965061287e+02   6.5746681850e+00   0.02126776   0.01659374  72.98  0.001120363    1.483    0.325
        49 -10.1003    196.8508      3.4439   2.8954356692e+02   6.5902389920e+00   0.03549217   0.02215007 -66.76  0.003605927    1.628    0.386
        50 -11.3685    204.1262      6.6340   2.8947976989e+02   6.5112156202e+00   0.02610627   0.01901279 -34.89 0.0003869341    1.495    0.331
        51 -11.6038    209.1432      3.5044   2.8940387712e+02   6.5181569210e+00   0.02953823   0.01537272  38.14 0.0007992852    1.909    0.476
        52  -9.1208    180.6164      7.8924   2.8975522496e+02   6.6331621873e+00   0.01677585   0.01147038 -81.41  0.001728153    1.695    0.410
        53  -9.1345    171.1916      1.2827   2.8982312141e+02   6.7640503830e+00    0.0144633  0.005730828  28.51            0    2.512    0.602
        54 -10.9238    173.6001      8.5565   2.8983918798e+02   6.6662012033e+00    0.0138044   0.01116684 -59.76  0.000408182    1.205    0.170
        55  -9.9846    175.2438      4.4460   2.8979584959e+02   6.7040710096e+00   0.01803374   0.01310965  13.32   0.00111253    1.527    0.345
        56 -10.5709    248.1799      5.8257   2.8897334489e+02   6.2644879426e+00   0.02672473   0.02273021  64.37  0.003017596    1.269    0.212
        57  -9.3220    157.7845      7.3279   2.9001219391e+02   6.7720612014e+00    0.0135443  0.009740551  63.79  0.001063975    1.641    0.391
        58  -8.5477    241.9612      1.4864   2.8901811834e+02   6.3506640131e+00    0.0097928  0.006463168  27.88 0.0006474401    1.539    0.350
        59  -8.5167    189.5183      1.4445   2.8961516067e+02   6.6558559431e+00  0.006457925   0.00634476 -49.76  8.47501e-05    1.010    0.010
        60  -8.5819    149.7986      1.3080   2.9006727737e+02   6.8877663641e+00  0.008668411  0.006061715  12.89 0.0009009968    1.614    0.380
        61  -9.1390    145.9715      1.3442   2.9011115735e+02   6.9095209933e+00  0.009237015  0.006138235  27.97 0.0003297902    1.526    0.345
        62  -8.2080    110.4352      1.3861   2.9051702127e+02   7.1147026751e+00  0.006396065  0.006224098  62.70 0.0001051083    1.048    0.046
        63 -12.0592     12.3158     87.9264   2.9215355372e+02   6.6808173176e+00   0.03217533   0.02177647  61.54  0.002193214    1.781    0.439
        64  -9.1203    136.5369    225.0437   2.9155189042e+02   4.3794248224e+00   0.01016553  0.006398402 -64.61 0.0007786122    1.578    0.366
        65 -12.2552      5.8587    114.5650   2.9238552327e+02   6.4099119316e+00   0.06701624   0.02164239 -46.86  0.004797183    3.277    0.695
        66 -12.7270     19.0087    100.1307   2.9214966472e+02   6.5012621219e+00   0.06990646   0.06074473 -61.84  0.005630282    1.126    0.112
        67  -8.4720      2.2714    214.7401   2.9301991669e+02   5.2715787592e+00   0.01026634  0.005746167   8.93 0.0008927366    2.407    0.585
        68  -8.9033    244.7934    204.4014   2.9019800166e+02   3.9921148827e+00  0.008971817  0.006392414   9.23 0.0006182929    1.618    0.382
        69  -8.7753    234.6905    201.3323   2.9029453030e+02   4.0860673393e+00  0.006900678   0.00494013  65.60 0.0007042119    1.671    0.402
        70 -10.3931     26.9515    191.6420   2.9260197881e+02   5.3970994378e+00   0.02207093   0.01585739 -65.49  0.002414196    1.382    0.277
        71 -11.6419     17.6478    186.1191   2.9267531955e+02   5.5144635708e+00   0.02803677   0.01742791  24.25 0.0004079721    1.674    0.403
        72 -10.5672      5.2612    185.2725   2.9281151292e+02   5.5953961626e+00   0.03074009   0.01271714  50.61   0.00227442    3.300    0.697
        73  -9.7148     39.0911    176.7861   2.9237556279e+02   5.4991833385e+00   0.01575211   0.01090846 -60.43  0.001354176    1.400    0.286
        74 -11.9799     16.0694     61.7252   2.9195484984e+02   6.9620616130e+00   0.04479994   0.02382257  15.26  0.003239293    2.309    0.567
        75 -10.1222    105.8272    117.8494   2.9126443957e+02   5.7962406003e+00   0.02181502   0.01684678  76.52  0.002414287    1.513    0.339
        76  -9.1666     19.5586    118.9929   2.9225543836e+02   6.2799957047e+00   0.01508791    0.0103737  82.33  0.001044126    1.862    0.463
        77  -9.9514     39.9052    116.4335   2.9200802614e+02   6.1925821440e+00   0.02219436   0.01257994  71.15  0.001833902    2.866    0.651
        78  -8.8274    118.9875    115.7356   2.9110180194e+02   5.7446748730e+00  0.009295313  0.008923301  17.50  0.000918889    1.067    0.063
        79  -9.7834     97.6706    114.6362   2.9133832387e+02   5.8804668730e+00   0.01441922    0.0132243   0.70 0.0008039738    1.148    0.129
        80  -8.9325     27.8321    115.9333   2.9214283862e+02   6.2678144120e+00  0.009622531  0.008124517 -40.86 0.0003013842    1.199    0.166
        81 -10.4536    132.8667    111.4946   2.9091831509e+02   5.7134904774e+00   0.02904477   0.01820302 -59.37  0.002986676    1.537    0.349
        82  -9.4206    133.8369    102.8631   2.9085581001e+02   5.8076333766e+00   0.01432181   0.01176607 -57.80  0.001230524    1.184    0.155
        83  -8.7246     45.4720    113.0195   2.9192420634e+02   6.2000209951e+00    0.0105028  0.008700473  27.41  0.001224984    1.230    0.187
        84  -9.0314    195.1702    112.3775   2.9021381258e+02   5.3427086272e+00    0.0100021  0.005664619  38.75 0.0009602529    1.769    0.435
        85  -9.7027    105.6309    109.6259   2.9121770912e+02   5.8924344678e+00   0.01643835   0.01546138  86.86  0.002035616    1.093    0.085
        86  -9.3177     75.8724    102.5339   2.9151493588e+02   6.1461133713e+00   0.01388855   0.01110575 -67.17  0.001596126    1.247    0.198
        87  -9.8277     82.3976     90.5618   2.9136919776e+02   6.2468641220e+00   0.01446259   0.01221358  25.76 0.0009731353    1.210    0.174
        88  -9.5065     81.2355    102.2231   2.9145189617e+02   6.1187802829e+00   0.01522039  0.009563541  26.03  0.001115813    1.633    0.388
        89 -10.5191     67.2453    107.9393   2.9164553766e+02   6.1333544165e+00   0.03566519   0.01784645 -42.01  0.003151715    2.214    0.548
        90 -10.1045     73.8575    108.1511   2.9157135578e+02   6.0927942914e+00   0.01581217   0.01401667  37.65 0.0006862014    1.145    0.127
        91 -10.3356     88.2433     99.1875   2.9135387164e+02   6.1134444287e+00   0.03584312   0.02158829 -21.87  0.003123952    2.355    0.575
        92 -10.9011     89.0202     89.4144   2.9128679695e+02   6.2219159916e+00   0.02950978   0.02252286 -45.54  0.003332886    1.310    0.237
        93  -9.2680     34.4595    109.6770   2.9203002234e+02   6.3020394218e+00   0.01729267   0.01323177 -31.31  0.001925213    1.431    0.301
        94  -8.8733     38.6301    107.1981   2.9196768578e+02   6.3067065158e+00   0.01128925  0.007500523 -31.93  0.001136742    1.749    0.428
        95 -11.3774     52.9954     87.1237   2.9168430190e+02   6.4560741278e+00   0.05229967   0.04055984  -0.38  0.005852381    1.488    0.328
        96  -9.4596     55.8812    101.5029   2.9173692532e+02   6.2732367729e+00   0.01148417   0.01030109  49.18 0.0005311201    1.147    0.128
        97  -8.8026     97.5454    103.9203   2.9127594482e+02   6.0050596517e+00    0.0147449  0.007474876  44.58  0.001325628    2.107    0.525
        98  -9.0099    183.9789    101.4423   2.9027599162e+02   5.5338630591e+00    0.0194272  0.005655988 -46.48  0.001281284    3.787    0.736
        99  -9.3808    120.8428    108.9390   2.9104016011e+02   5.8125148349e+00   0.01045496  0.008812047 -30.51  0.001067216    1.256    0.204
       100  -9.3999    151.0665     99.7719   2.9064099174e+02   5.7437028925e+00   0.01391217  0.009283679 -75.83  0.001424269    1.655    0.396
       101  -8.9168    140.7901    101.1345   2.9076624360e+02   5.7874026701e+00   0.01007515   0.00899718  73.98 0.0007495985    1.192    0.161
       102 -10.5176    114.7610    100.5675   2.9105962736e+02   5.9444032129e+00   0.02065069   0.01541359  80.16  0.002227191    1.605    0.377
       103 -10.6858    117.5231     98.4531   2.9101552877e+02   5.9528824651e+00   0.03149012   0.01588873  39.79   0.00228953    1.993    0.498
       104  -9.2834      1.7009    177.9246   2.9280860362e+02   5.7008545676e+00  0.009420225  0.008474147 -70.54 0.0006991792    1.107    0.097
       105 -10.0644    159.1927     96.6277   2.9052963036e+02   5.7330040518e+00   0.01823014   0.01569687  32.14  0.001551578    1.177    0.150
       106  -9.6374    187.8908     93.1189   2.9018175806e+02   5.6073370030e+00   0.01723544   0.01186304 -87.40  0.001435812    1.765    0.434
       107  -8.8540    206.4958     91.9998   2.8996322878e+02   5.5124156511e+00  0.009663847   0.00568541  84.26 0.0008106422    2.645    0.622
       108 -11.4034     96.9594     62.2073   2.9103402787e+02   6.4904473580e+00   0.04657417   0.02837537 -32.86  0.003242149    1.979    0.495
       109  -9.4577     62.6606    167.7641   2.9205334865e+02   5.4679097202e+00   0.01363427   0.01122706 -81.67  0.001112505    1.290    0.225
       110 -10.6289    112.7608     54.4849   2.9080763372e+02   6.4883608055e+00   0.05642801   0.02368283 -46.11  0.004643521    2.489    0.598
       111 -11.0355    105.7750     53.7038   2.9088269127e+02   6.5377477936e+00   0.02961159   0.01831409   6.71  0.001463036    2.081    0.519
       112  -9.2912    129.7706     46.7837   2.9056758755e+02   6.4789391117e+00   0.01787117   0.01087621 -57.33  0.001118047    1.573    0.364
       113 -10.1429     89.2043     78.1007   2.9121728404e+02   6.3515952904e+00    0.0287698   0.01336413  20.46  0.002429716    2.487    0.598
       114 -11.7501    123.3629     68.6848   2.9077141214e+02   6.2630698498e+00   0.06813258   0.04152314 -74.37  0.006670773    1.840    0.457
       115 -11.0347    141.8970     40.4176   2.9039123442e+02   6.4822644692e+00   0.03198376   0.03002181  22.71  0.003205263    1.089    0.082
       116 -10.5216    148.0627     35.1287   2.9028930673e+02   6.5076155932e+00   0.04985132   0.01323654  24.54  0.003125537    4.422    0.774
       117 -11.2802    118.4140     86.4277   2.9093368536e+02   6.0866939219e+00   0.03597431    0.0268223  20.26  0.003894778    1.413    0.292
       118 -10.5070    102.2480     70.6293   2.9102390229e+02   6.3626154835e+00   0.02480644   0.01705213 -86.81  0.001868153    1.760    0.432
       119 -11.3700    111.2383     64.3470   2.9088385219e+02   6.3832528730e+00   0.05758417   0.03041274 -38.85  0.004341802    2.205    0.546
       120 -12.4285    102.4280     81.7009   2.9108785757e+02   6.2336572973e+00   0.07508092   0.04864135  65.86   0.00733835    1.999    0.500
       121 -10.5745    131.0244     39.8734   2.9051201235e+02   6.5514652871e+00   0.02519563    0.0193836  -9.25  0.001893937    1.533    0.347
       122 -10.6083    135.0367     34.2170   2.9043244531e+02   6.5935438023e+00   0.01880731   0.01248633  12.70 0.0004257269    1.738    0.425
       123  -9.3363    194.4523     89.9787   2.9008828630e+02   5.6055759366e+00    0.0141153  0.009900762 -37.76 0.0009503888    1.531    0.347
       124  -9.5182     74.5657     89.1199   2.9144998463e+02   6.3086965129e+00   0.01617922    0.0117752   2.94  0.001727539    1.627    0.386
       125  -8.6325     76.8592     84.8333   2.9139828064e+02   6.3450135307e+00  0.009108155  0.007599753  69.35 0.0003643074    1.321    0.243
       126 -10.1315    152.7706     87.1381   2.9054620287e+02   5.8798016081e+00    0.0154334   0.01379409   8.71 0.0009780135    1.179    0.152
       127  -9.1786    237.9886     86.5194   2.8957209936e+02   5.3929782819e+00   0.01033512  0.006483941  27.19  0.001043981    1.625    0.385
       128 -10.1477    160.6480     82.4793   2.9042861988e+02   5.8880183551e+00    0.0237434   0.01828362 -68.78  0.002685202    1.310    0.237
       129 -11.0276    152.6722     67.8852   2.9043241172e+02   6.1027458721e+00   0.06330136   0.02165446  37.10  0.004929987    2.776    0.640
       130 -10.6704    134.1951     80.5853   2.9071887437e+02   6.0629650127e+00   0.03265998   0.01653968 -57.12  0.003042122    1.864    0.463
       131 -11.5422    147.7713     76.0018   2.9053673465e+02   6.0373710011e+00   0.04980872   0.03085188  11.08  0.004850291    1.964    0.491
       132 -10.0654    138.5772     74.2226   2.9063094355e+02   6.1111183597e+00   0.01786634  0.009226347 -71.67  0.001154428    2.204    0.546
       133  -9.8770    132.3183     68.1929   2.9066633518e+02   6.2169674718e+00   0.02336072   0.01315991  41.10  0.001602386    1.808    0.447
       134  -9.7381    143.8412     70.8646   2.9055088060e+02   6.1194472462e+00   0.01402415   0.01160765 -87.08 0.0008107903    1.310    0.236
       135 -10.6719    139.6020     67.9789   2.9058199380e+02   6.1773050401e+00   0.02615594   0.02278628 -44.02  0.002823025    1.146    0.127
       136  -9.8380    217.6503     79.8902   2.8976391483e+02   5.5875330902e+00   0.03536313  0.008045476 -48.16  0.002129031    4.558    0.781
       137  -9.6411     17.3075     82.4809   2.9206417288e+02   6.7150771407e+00   0.01703171  0.008612984  17.61  0.001480668    2.363    0.577
       138  -8.6451    117.9754     80.2885   2.9090207997e+02   6.1601619520e+00  0.009354628  0.008167619  24.13 0.0005455253    1.173    0.148
       139  -9.0743      8.9653    167.8168   2.9266590075e+02   5.7760948792e+00   0.01201466  0.008999236  33.96  0.001337729    1.343    0.256
       140  -9.2312    114.1727     76.2549   2.9092140194e+02   6.2287366225e+00   0.01953968  0.008222139 -75.38   0.00137274    3.600    0.722
       141  -9.8910     36.9018     75.5382   2.9179910076e+02   6.6826277196e+00   0.01301379   0.01101455 -58.34  0.001121855    1.150    0.131
       142  -9.2699     18.2423     74.0233   2.9200319557e+02   6.8074561286e+00   0.01523019   0.01235923 -72.21  0.001697148    1.256    0.204
       143  -9.4999     21.2552     72.1562   2.9195767513e+02   6.8117134389e+00   0.01479705   0.01110901  67.16  0.001608034    1.555    0.357
       144  -8.7152    192.6441     74.1844   2.9001454667e+02   5.7984363455e+00   0.01004197  0.005534125 -52.56 0.0009536587    1.738    0.425
       145  -9.7546    215.0071     71.5515   2.8974417125e+02   5.6991271143e+00   0.01846924   0.01005789 -52.29  0.001207821    1.761    0.432
       146  -8.3561    189.3608     71.8090   2.9003775439e+02   5.8448961382e+00  0.009122967  0.005712576 -52.48 0.0002740431    1.541    0.351
       147  -8.3113    234.2942     71.3233   2.8952330130e+02   5.5898140394e+00  0.006866154  0.004837564 -31.18 0.0004705503    1.617    0.382
       148 -10.2436    250.2491     67.1260   2.8931670362e+02   5.5455867062e+00   0.02957748  0.007617237 -59.36  0.002032603    3.410    0.707
       149 -10.0253    112.8725     83.1660   2.9097744394e+02   6.1564002852e+00   0.01597123     0.012345  58.74 0.0003781936    1.430    0.301
       150  -8.6313    202.1537     68.8236   2.8987421504e+02   5.8051822019e+00   0.01018039  0.008940369  68.97  0.001137406    1.219    0.180
       151  -9.5683    149.4986     59.7445   2.9041998536e+02   6.2151247864e+00   0.02242771   0.01280145 -46.91  0.002178891    1.760    0.432
       152 -10.7608    157.5810     50.4901   2.9027255577e+02   6.2751750309e+00   0.04461287   0.03096954  -5.62  0.004571362    1.838    0.456
       153 -11.6183    141.4817     51.6716   2.9046319466e+02   6.3547416383e+00   0.03948737    0.0188698  21.41  0.002443038    2.351    0.575
       154 -10.6661    149.7925     51.3370   2.9036642035e+02   6.3104985503e+00    0.0232042   0.02067735 -59.69  0.001427193    1.097    0.088
       155 -11.6680    164.4892     62.5820   2.9026603746e+02   6.0955563804e+00   0.03376497   0.02695101 -50.82  0.002250364    1.226    0.184
       156 -10.9434    164.9003     56.1699   2.9022304881e+02   6.1672072643e+00   0.03420683   0.01974359 -40.59  0.002707653    1.896    0.472
       157 -11.3741    174.1033     57.1793   2.9012418705e+02   6.1022322894e+00   0.05497402   0.02277276 -58.50  0.003480324    2.248    0.555
       158  -9.0095    188.5305     64.7784   2.9000520806e+02   5.9308788502e+00   0.01642023  0.007337889  44.59  0.001376108    2.432    0.589
       159  -8.7568    198.1514     63.8528   2.8989009017e+02   5.8857756959e+00    0.0101892  0.008733993  63.69 0.0005651726    1.254    0.202
       160 -10.6065     29.2342     69.0712   2.9184818200e+02   6.8014793498e+00   0.06274986   0.02775796  50.09   0.00496937    2.884    0.653
       161 -11.4826     13.8569     56.7595   2.9195057718e+02   7.0321534937e+00   0.02641414   0.01605574  55.89  0.001590919    1.987    0.497
       162  -9.1335    183.5100     59.4782   2.9003073431e+02   6.0211708522e+00   0.02407767   0.01349391 -52.47  0.002344653    1.712    0.416
       163  -9.9973    186.5125     53.0196   2.8995792761e+02   6.0783159994e+00   0.01826246   0.01139976 -26.48  0.001554703    2.077    0.518
       164  -9.9065    188.9342     49.2453   2.8990777521e+02   6.1078352925e+00   0.01629677   0.01247546  59.86 0.0007771726    1.458    0.314
       165 -10.1992    221.4837     57.9959   2.8958941003e+02   5.8179865285e+00    0.0244148    0.0174343 -41.19   0.00202864    1.454    0.312
       166  -9.1250    219.1244     53.1200   2.8958711046e+02   5.8879473685e+00   0.01426233   0.01189424 -11.16 0.0004519916    1.340    0.254
       167 -10.2216    222.1820     48.4025   2.8952408937e+02   5.9246253240e+00   0.03197659       0.0203  78.27   0.00299246    2.226    0.551
       168 -10.3338    201.0775     57.5628   2.8981916805e+02   5.9414057828e+00   0.02974347   0.01597691 -34.56  0.002610045    2.369    0.578
       169  -9.4767    158.1454     58.7223   2.9031529723e+02   6.1768632264e+00   0.02182422   0.01157364 -33.59  0.001874725    2.478    0.596
       170  -9.5893    178.0740     60.3345   2.9009779022e+02   6.0427952921e+00   0.02238707   0.01204585 -48.80 0.0005451415    1.832    0.454
       171 -10.0830      3.0390     57.5850   2.9207909854e+02   7.0847665923e+00   0.01937448    0.0147725  64.40  0.001933517    1.500    0.333
       172  -9.7776     60.8358     54.4747   2.9140032529e+02   6.7881665440e+00   0.01835671   0.01289005 -68.77  0.001596595    1.452    0.311
       173  -9.1764     13.5703    164.9027   2.9259611661e+02   5.7833597542e+00   0.01318135  0.009329703  37.08  0.001330663    1.421    0.296
       174 -10.6951     26.2662     53.1758   2.9178746163e+02   7.0022098070e+00   0.01877414   0.01387136  -5.72  0.001135236    1.635    0.388
       175  -9.9353     28.5360     49.5086   2.9173969028e+02   7.0315188462e+00   0.01210127   0.01109528  50.47 0.0007321342    1.121    0.108
       176  -9.2442    192.7020     53.9122   2.8989274704e+02   6.0321205649e+00    0.0117081  0.009023583  40.68 0.0003320279    1.318    0.241
       177 -12.3784     32.2341     86.6286   2.9191838735e+02   6.5813020029e+00     0.130395   0.07668441  59.86  0.006466453    2.228    0.551
       178  -9.0918    236.9700     48.9342   2.8935896001e+02   5.8326044737e+00   0.01177341  0.009393406 -64.46 0.0006798183    1.237    0.191
       179  -8.2535    183.3351     49.6555   2.8997402212e+02   6.1355683660e+00  0.007086739  0.004886904  64.40 0.0007049686    1.767    0.434
       180 -10.7010      2.4270    159.8209   2.9269309398e+02   5.9061442105e+00   0.03123314    0.0156344 -73.03 0.0008337056    2.365    0.577
       181  -9.6659     25.4609     38.1734   2.9170730893e+02   7.1801339881e+00   0.01022121  0.008860991  13.38 0.0003301608    1.213    0.176
       182 -10.6835     16.5978    158.5468   2.9252391353e+02   5.8394992630e+00   0.02325226   0.01541949 -25.47  0.002325256    1.874    0.466
       183 -11.7421     19.6724    148.2786   2.9242795175e+02   5.9406183584e+00   0.03996664   0.03143679 -39.14  0.003130904    1.315    0.239
       184  -8.1988     82.6874    154.6767   2.9174732065e+02   5.5038978008e+00   0.00694871  0.004846415 -29.94 0.0007039953    1.657    0.397
       185 -11.6480     37.1723     27.4152   2.9150935548e+02   7.2369786900e+00   0.02049967   0.01332621  20.70  0.001101911    1.645    0.392
       186  -9.6335     11.7149     41.9602   2.9188695590e+02   7.2154263052e+00   0.02941803   0.01819207  20.38  0.002956534    1.748    0.428
       187  -8.8048     52.8085    151.8118   2.9207097965e+02   5.7091591091e+00  0.009146686  0.007473257  54.20 0.0007956206    1.300    0.231
       188 -10.5160     34.8914    150.2897   2.9226628617e+02   5.8298601945e+00   0.01820262   0.01624105  29.92    0.0012625    1.140    0.123
       189 -11.5865     21.5983     44.2120   2.9178741860e+02   7.1326024568e+00   0.03308685   0.02515465  75.66  0.003043365    1.555    0.357
       190 -11.0216     15.5097     33.7484   2.9179467886e+02   7.2884575659e+00   0.03129532   0.02166435 -85.98   0.00323955    1.727    0.421
       191 -10.6285     38.9383    146.0875   2.9219518592e+02   5.8551897366e+00   0.02555937   0.01713788 -63.30  0.001601157    1.465    0.317
       192  -9.8847     66.9241    147.9458   2.9188705184e+02   5.6725859346e+00   0.01543308  0.009836058 -83.12  0.001498653    1.929    0.482
       193 -10.5614      6.6538    143.8889   2.9255043709e+02   6.0661848981e+00   0.03844265   0.03122489  20.45  0.004482353    1.282    0.220
       194  -9.9101     12.5842    117.0339   2.9232341013e+02   6.3427284220e+00   0.02273664   0.01223376  47.77  0.001463028    2.070    0.517
       195  -9.1278     28.5039    121.5402   2.9216847669e+02   6.1991122545e+00   0.01640416  0.009952209 -73.87   0.00159473    1.833    0.454
       196 -10.3131     27.1428    127.4161   2.9221890455e+02   6.1389840929e+00   0.02982018   0.01750784  31.02  0.002402513    1.698    0.411
       197 -10.1603     20.3271    128.4230   2.9230265870e+02   6.1665195623e+00    0.0199815   0.01635131   5.66  0.001149823    1.344    0.256
       198 -10.5040    192.2166     39.6080   2.8981275621e+02   6.2000118313e+00   0.02569249   0.02421252  10.67  0.000879744    1.096    0.088
       199 -10.2094    210.5578     32.7503   2.8956281249e+02   6.1726872335e+00   0.02398241   0.01450602 -57.34  0.001511284    1.582    0.368
       200 -10.2629    207.0980     43.7492   2.8966800767e+02   6.0658806041e+00   0.02149433   0.01887725  76.59  0.001999528    1.224    0.183
       201 -10.8398    202.7535     37.7495   2.8968160540e+02   6.1603176228e+00   0.02501877   0.01913807 -11.63  0.002214862    1.549    0.355
       202 -10.4119    199.6985     31.4681   2.8967883201e+02   6.2505141594e+00   0.01925272   0.01373736  57.67 0.0005441771    1.592    0.372
       203 -10.3249    194.7629     31.1273   2.8973302256e+02   6.2830863428e+00   0.02130234   0.01154539 -49.92  0.001318159    1.800    0.444
       204  -8.7364    152.5825     45.3424   2.9029879401e+02   6.3635482047e+00   0.01205328  0.006500782 -69.50 0.0008832396    1.998    0.499
       205  -9.0583    248.8073     44.7033   2.8919896864e+02   5.8126253738e+00   0.01346746  0.007816535 -41.71  0.001288337    1.852    0.460
       206  -9.9598    232.2863     43.3474   2.8937883837e+02   5.9242603308e+00   0.02115587   0.01130283 -36.13  0.001690407    2.307    0.567
       207  -7.9165      1.3785     44.2975   2.9201900728e+02   7.2478080337e+00  0.007043383  0.004861329 -24.72 0.0007023788    1.756    0.431
       208  -8.8468    214.9970     42.0840   2.8956809797e+02   6.0392403378e+00   0.01109074   0.00747826 -30.48  0.001123108    1.741    0.426
       209 -10.9747    162.2169     39.0016   2.9015104827e+02   6.3809317393e+00   0.02448763   0.01297742 -61.80   0.00196441    1.834    0.455
       210  -9.7359    180.5553     38.7654   2.8994059663e+02   6.2773668472e+00   0.02161974   0.01507902  74.00  0.001848097    1.815    0.449
       211  -9.2388     77.1170     41.2446   2.9113551086e+02   6.8470885899e+00    0.0122545  0.008234872  46.18 0.0008591289    1.566    0.361
       212  -8.5665      4.8223     41.1507   2.9196091354e+02   7.2643776370e+00  0.008298065  0.007257957 -12.24 0.0007966227    1.237    0.191
       213  -8.4542    229.0562     38.9833   2.8938949175e+02   5.9933624173e+00   0.01005557  0.007464204 -26.12 0.0004689425    1.551    0.355
       214  -9.0748    173.9116     39.3381   2.9001974290e+02   6.3092745718e+00   0.01344199  0.008287214  46.88  0.001336908    1.737    0.424
       215  -9.6001    168.7003     36.4569   2.9006192219e+02   6.3727300733e+00   0.01536381   0.01340913  81.92  0.001210047    1.234    0.190
       216  -9.7735    246.8011     33.3632   2.8915392465e+02   5.9550630821e+00   0.02487011   0.01410069  10.79  0.001765131    2.294    0.564
       217 -10.8843    237.2391     32.7260   2.8925891392e+02   6.0179872087e+00   0.02461242   0.01986331  35.92   0.00179823    1.251    0.201
       218  -9.3020    242.3015     31.3286   2.8919294217e+02   6.0046787723e+00   0.01004447  0.008930349 -15.15 0.0004294105    1.206    0.171
       219  -8.3347    221.9675     35.7174   2.8945064480e+02   6.0722075677e+00  0.008122852  0.005871227  25.18 0.0006765854    1.423    0.297
       220  -9.3135     38.5821     32.9202   2.9152606215e+02   7.1652976689e+00   0.01893152   0.00959113   7.32  0.001481134    3.119    0.679
       221 -10.5241    226.5162     28.6968   2.8935684900e+02   6.1267579819e+00   0.02875868   0.01860293  87.03  0.002765489    2.074    0.518
       222 -10.1564      3.7115    135.4035   2.9253368592e+02   6.1812325679e+00   0.02375986   0.01807487  75.38  0.002024899    1.550    0.355
       223  -9.5840    219.7661     25.2965   2.8941334916e+02   6.2051843400e+00   0.02320705   0.01303044  70.21  0.001897649    2.931    0.659
       224  -9.6510      9.0071    134.7363   2.9246929885e+02   6.1585394607e+00   0.01285167   0.01076561  25.63  0.000402877    1.221    0.181
       225  -9.7471    213.8603     21.1286   2.8945565675e+02   6.2875509243e+00   0.02614517    0.0116843  36.93  0.002291374    2.184    0.542
       226 -11.5514     13.6599    129.5240   2.9238527660e+02   6.1920976798e+00   0.04357543   0.02889022 -69.44  0.004553026    1.556    0.357
       227  -8.6064     60.5059    147.5207   2.9195771617e+02   5.7144712110e+00  0.006524141  0.006325959 -45.24 0.0003526394    1.023    0.022
       228  -9.7255     30.2139    145.4938   2.9229117864e+02   5.9122344937e+00   0.01379845   0.01206859  20.71 0.0008657651    1.180    0.153
       229  -8.7676     97.8416    141.0024   2.9149326699e+02   5.5746374450e+00   0.01116556  0.007408097  77.48  0.001077458    2.013    0.503
       230  -9.5923    241.3597     23.7392   2.8915822738e+02   6.0976620456e+00   0.01914031   0.01213648 -88.93  0.000650309    2.090    0.522
       231  -9.8688     48.7231    138.2438   2.9203700039e+02   5.8896066901e+00   0.02752791   0.00984789  44.87  0.002019803    3.220    0.689
       232  -8.7992    239.2108     18.7798   2.8915298960e+02   6.1673309070e+00   0.01094976  0.009659173 -28.06  0.001315625    1.190    0.160
       233  -8.7511    201.4267     25.3291   2.8962241550e+02   6.3112975311e+00  0.008454392  0.006357929 -76.49 0.0005222789    1.419    0.295
       234 -11.3308     55.3941    130.0953   2.9191249094e+02   5.9454390717e+00   0.04652083   0.01319352 -58.51  0.003299193    3.099    0.677
       235  -9.6684     22.2276    137.5428   2.9233510382e+02   6.0501157242e+00   0.02368926  0.009076102 -49.11  0.001895497    2.559    0.609
       236 -10.3185     97.7499     22.5503   2.9078832400e+02   6.9438017613e+00   0.01789768    0.0116928  26.90 0.0006099421    1.561    0.359
       237  -9.9226     64.0784    138.2051   2.9186162908e+02   5.8016346744e+00   0.01534555  0.008315374  35.76  0.001464624    1.822    0.451
       238  -9.5635    198.0836     16.6903   2.8960880817e+02   6.4303388366e+00   0.01960188   0.01063546  22.44  0.001729353    1.989    0.497
       239 -10.8856     65.3054    130.4672   2.9180164415e+02   5.8840504269e+00   0.02114892    0.0133803  23.05  0.002159133    1.661    0.398
       240 -10.6421     72.3807    128.7597   2.9171079134e+02   5.8630259632e+00   0.02381394   0.01822292  25.28  0.002649784    1.341    0.254
       241  -9.8832     74.1998    125.3579   2.9166981407e+02   5.8918770611e+00   0.02565428  0.008686968  39.19  0.001955733    2.892    0.654
       242  -8.9389     95.8655    130.4116   2.9145279548e+02   5.7084981173e+00   0.01400134  0.007606511 -45.96  0.001311767    1.877    0.467
       243  -8.7164     61.4986     15.6475   2.9116117980e+02   7.2326885236e+00  0.006371277  0.006184163  33.24 0.0007913507    1.049    0.047
       244 -10.4300     37.3360    128.0857   2.9210657261e+02   6.0726155062e+00   0.02467629    0.0139355 -31.86  0.002171403    2.288    0.563
       245 -10.2414     47.9942    125.3869   2.9196893273e+02   6.0424921896e+00   0.01718283  0.009238875 -63.27  0.001621012    1.830    0.453
       246 -10.5666     67.5501    122.8499   2.9173075097e+02   5.9592002086e+00   0.03637886   0.01549892 -41.81  0.002879995    2.772    0.639
       247 -10.1198     66.9642    114.9834   2.9169064986e+02   6.0535341711e+00   0.03044441  0.009879075  38.74  0.001806744    2.981    0.665
       248  -8.4924    239.4456    124.4803   2.8978225776e+02   4.9462477920e+00  0.006493911  0.006321474 -87.65 8.399802e-05    1.035    0.034
       249  -9.8291     91.8670    119.6815   2.9143454250e+02   5.8556270651e+00   0.02430401   0.01225667 -47.83  0.002221399    1.979    0.495
       250  -8.9832     93.0677    111.7356   2.9137355154e+02   5.9405602947e+00   0.01843918   0.01073301 -53.78  0.001825911    1.643    0.391
       251  -9.7312     17.7121    249.5096   2.9304952223e+02   4.7806001428e+00   0.01605292  0.006026148  30.45 0.0009217626    2.568    0.611
       252 -12.0131     75.6213     74.5206   2.9135097318e+02   6.4713247334e+00   0.07783852   0.05636131  19.40  0.008531286    1.468    0.319
       253  -9.6353     34.6021    246.1759   2.9283751910e+02   4.7221368150e+00   0.01919157  0.007720599 -49.35  0.001571602    2.429    0.588
       254  -9.8349    141.8289    243.7045   2.9160242258e+02   4.1330963570e+00   0.01538038   0.01056981 -29.73 0.0006568122    1.700    0.412
       255  -9.2557    210.9851    240.5049   2.9079701925e+02   3.7705867679e+00   0.01081816  0.008570862 -65.03  0.001067438    1.248    0.199
       256  -9.3112     13.0081    238.5231   2.9303817910e+02   4.9347370129e+00  0.009881481  0.006514256  25.52 0.0009326584    1.560    0.359
       257  -9.5155     12.4006    232.3631   2.9300869659e+02   5.0095042757e+00   0.01417575  0.008747971  61.62  0.001336609    2.084    0.520
       258  -8.4349    226.9579    231.5424   2.9056220475e+02   3.7817731360e+00  0.009049094  0.005605614 -10.86 0.0006946356    2.359    0.576
