#   1 NUMBER                 Running object number                                     
#   2 MAG_AUTO               Kron-like elliptical aperture magnitude                    [mag]
#   3 X_IMAGE                Object position along x                                    [pixel]
#   4 Y_IMAGE                Object position along y                                    [pixel]
#   5 X_WORLD                Barycenter position along world x axis                     [deg]
#   6 Y_WORLD                Barycenter position along world y axis                     [deg]
#   7 A_WORLD                Profile RMS along major axis (world units)                 [deg]
#   8 B_WORLD                Profile RMS along minor axis (world units)                 [deg]
#   9 THETA_WORLD            Position angle (CCW/world-x)                               [deg]
#  10 FWHM_WORLD             FWHM assuming a gaussian core                              [deg]
#  11 ELONGATION             A_IMAGE/B_IMAGE                                           
#  12 ELLIPTICITY            1 - B_IMAGE/A_IMAGE                                       
         1 -15.2923      7.5110    121.7101   1.3651302573e+02   4.8153945551e+01     8.706479     1.528787 -81.26   0.02469902    6.632    0.849
         2 -13.2808    200.8233     31.4934   6.1023477541e+01   3.0839764439e+01     1.467889     1.055819  44.85  0.006780851    1.431    0.301
         3 -13.4672    218.7080     11.9197   5.3422280907e+01   2.8447530459e+01     1.001478    0.8596217  31.05  0.002947187    1.308    0.235
         4 -13.1059     59.3957    173.4720   1.2841212405e+02   3.2249805585e+01    0.4512914    0.2549638 -47.57   0.00214268    2.279    0.561
         5 -13.0223    236.7897    247.7739   1.0308633731e+02  -4.6520874321e+00    0.7013049    0.3474718  31.07  0.004520084    1.459    0.315
         6 -11.4195    161.4785    248.5823   1.1609570525e+02   5.7144554067e+00    0.2355072    0.2087124 -20.14  0.001902708    1.458    0.314
         7 -12.3905    140.4541    248.4172   1.1981795867e+02   8.6931720520e+00    0.4811417    0.2720046  49.59  0.003060801    1.602    0.376
         8 -12.5915      9.8212    206.9887   1.4065268882e+02   3.0714430044e+01    0.6330619    0.3633951  31.37  0.002803381    1.843    0.457
         9 -13.0033     42.2237    211.7552   1.3492627597e+02   2.6833944743e+01    0.8484745    0.6462848  88.90  0.005166826    1.267    0.210
        10 -12.8729     26.3508    229.1511   1.3866121444e+02   2.5447455253e+01     0.245564    0.2084038 -71.87 0.0007575966    1.545    0.353
        11 -14.0193     31.4369    222.9495   1.3749585704e+02   2.5988115669e+01    0.6846188    0.4519091  57.81  0.002398435    1.122    0.109
        12 -10.7050     97.6885    249.0271   1.2745807570e+02   1.4334612833e+01    0.1485296    0.1184192  51.86  0.001185062    1.100    0.091
        13 -11.7639    108.1354    247.0213   1.2544776729e+02   1.3269099322e+01    0.3034018    0.1140681  39.90  0.001653434    1.932    0.483
        14 -10.9611     62.9108    245.9521   1.3327305018e+02   1.8972171601e+01    0.2627001    0.1495458  58.57  0.001101191    1.416    0.294
        15 -13.0378     36.0502    246.5023   1.3779286621e+02   2.1752413810e+01    0.9844837    0.8199889  43.27  0.008812403    1.379    0.275
        16 -11.9747    125.2006    249.5732   1.2264698276e+02   1.0638421832e+01    0.6034472    0.1609291  34.07  0.002428796    3.662    0.727
        17  -9.7520    206.6531    242.3105   1.0737600760e+02  -7.5597401981e-03    0.1031406   0.07763494  46.71 0.0007045325    1.709    0.415
        18 -10.4742    185.6109    239.7776   1.1072369592e+02   3.2903538256e+00    0.1257102     0.110733 -44.92 0.0009511698    1.686    0.407
        19 -11.3965    203.7036    249.5170   1.0884896806e+02  -3.4479829604e-01    0.3055097    0.1046691  35.54  0.001561625    2.137    0.532
        20 -14.2142      9.7242    238.3883   1.4174540034e+02   2.5478598761e+01     1.748833     1.292348  76.64   0.01574231    1.207    0.172
        21 -11.3854    249.1188    236.4930   9.9426624266e+01  -5.2449512556e+00    0.2184104    0.1757204 -16.86  0.001704943    1.624    0.384
        22 -12.5116    105.7100    230.4259   1.2439239807e+02   1.6037825360e+01    0.9317023   0.04415152  40.72  0.002655452    6.587    0.848
        23 -11.5121     91.7837    227.5341   1.2674646118e+02   1.8336494447e+01    0.3942638   0.09706854  41.24  0.001725195    2.862    0.651
        24 -12.1239     59.1742    213.5365   1.3182631735e+02   2.4674915412e+01     0.798609    0.1795766  50.24  0.003207568    3.824    0.738
        25  -8.4488    152.6030    212.8416   1.1329832820e+02   1.1844833166e+01    0.1312918    0.1192722 -78.74 0.0003283992    1.477    0.323
        26 -11.7418     54.8406    196.8631   1.3143583397e+02   2.8185744289e+01    0.3675359    0.2283498 -52.43 0.0008984712    2.055    0.513
        27 -11.9398    176.4095    249.1324   1.1352695102e+02   3.5324283751e+00    0.4835852    0.1933719  28.22  0.002366695    2.515    0.602
        28 -10.7457     73.3038    175.5433   1.2547737570e+02   3.0138423871e+01    0.2161278    0.1932545  70.12 0.0003170915    1.049    0.047
        29 -10.3875     90.6497    168.1988   1.2057085497e+02   2.9293468062e+01    0.4648456    0.2170919  58.10  0.001500291    2.751    0.637
        30 -11.7957     80.7005    167.0674   1.2276924948e+02   3.0903861536e+01    0.5714748    0.4598356 -63.94  0.002308707    1.303    0.233
        31 -11.9235     62.0133    188.1170   1.2921176744e+02   2.9030005756e+01    0.2205234    0.2061453  74.42  0.000414025    1.187    0.158
        32 -10.2341     94.7296    151.4614   1.1714811619e+02   3.2193862638e+01    0.2746449    0.2520252  39.96  0.000834824    1.098    0.089
        33 -11.9558     83.1644    150.2027   1.1987619636e+02   3.4141612761e+01    0.2743309    0.2364751 -51.40 0.0006549122    1.257    0.204
        34  -9.2292     98.1952    147.1403   1.1557105276e+02   3.2590760957e+01    0.1897316    0.1804472 -19.11 0.0004239545    1.189    0.159
        35 -11.6795     68.6475    143.4795   1.2264620645e+02   3.7548658808e+01    0.5120609    0.3566822  80.91  0.001738867    1.568    0.362
        36 -10.9101     65.0018    141.7497   1.2336104527e+02   3.8386648006e+01    0.3035212    0.2276012 -61.04  0.000914835    1.308    0.236
        37  -9.7438    107.3771    136.9681   1.1138260189e+02   3.3307641880e+01    0.3691549     0.254485 -14.62  0.001086761    2.277    0.561
        38 -10.3506     94.5612    133.7780   1.1419549999e+02   3.6073016587e+01     0.225695    0.2240122  -8.75 0.0004266298    1.081    0.075
        39  -9.1754    105.6303    123.4181   1.0914181826e+02   3.6564135603e+01     0.171973    0.1373217  27.45 0.0003007528    1.320    0.242
        40  -9.4012    159.6062     77.7944   8.2841312194e+01   3.4555384306e+01     0.219831    0.1430236 -43.46 0.0003317317    1.627    0.385
        41 -11.3488      4.7175    184.2601   1.4070201253e+02   3.5304560652e+01    0.5020179    0.1491525  58.42  0.002515138    2.827    0.646
        42 -12.1466    187.8189    248.8823   1.1150364761e+02   1.9465427221e+00     0.604426    0.1653794  32.91  0.002492603    3.319    0.699
        43 -11.2559     88.0893    248.8839   1.2912408865e+02   1.5557817158e+01    0.3136123    0.1240409  44.59  0.001223552    1.804    0.446
