#   1 NUMBER                 Running object number                                     
#   2 MAG_AUTO               Kron-like elliptical aperture magnitude                    [mag]
#   3 X_IMAGE                Object position along x                                    [pixel]
#   4 Y_IMAGE                Object position along y                                    [pixel]
#   5 X_WORLD                Barycenter position along world x axis                     [deg]
#   6 Y_WORLD                Barycenter position along world y axis                     [deg]
#   7 A_WORLD                Profile RMS along major axis (world units)                 [deg]
#   8 B_WORLD                Profile RMS along minor axis (world units)                 [deg]
#   9 THETA_WORLD            Position angle (CCW/world-x)                               [deg]
#  10 FWHM_WORLD             FWHM assuming a gaussian core                              [deg]
#  11 ELONGATION             A_IMAGE/B_IMAGE                                           
#  12 ELLIPTICITY            1 - B_IMAGE/A_IMAGE                                       
         1 -12.5108    214.8827     26.0717   3.8922817759e+01   2.8444827774e+01     1.018052    0.7567713  37.90  0.005732326    1.781    0.438
         2 -12.5411    202.1220     38.5659   4.3493620103e+01   2.9915342993e+01      1.15533    0.9327093  54.97  0.006400621    1.301    0.232
         3  -9.8340      7.5934      7.1787   9.0693630096e+01   7.3105079344e+01    0.1676711   0.07655293 -34.69 0.0009573387    1.731    0.422
         4 -10.6055    241.7255      3.1038   3.1558660524e+01   2.5033079294e+01    0.5565692    0.2770692  61.64  0.003040045    2.107    0.525
         5 -10.0409    236.5114      2.4822   3.1791545181e+01   2.6208037901e+01     0.314349    0.2057011  76.80  0.001557468    1.415    0.293
         6  -8.7987     56.6203      5.8353   6.4977537251e+01   6.7088668126e+01    0.1576538    0.1058663 -30.06 0.0003586914    1.655    0.396
         7  -8.5189     92.3648    216.9442   1.0817249465e+02   1.7329257989e+01    0.1750371    0.1543169  88.94 0.0007562632    1.162    0.140
         8 -12.5557      7.9247    188.8755   1.2395582323e+02   3.3408147617e+01     2.209696    0.6795168 -51.65  0.008326663    4.899    0.796
         9 -14.5383      2.8533    176.4517   1.2424920516e+02   3.6560887108e+01     12.90734    0.5858914 -75.73   0.02425175   10.262    0.903
        10 -10.3130     70.5737    171.0202   1.0744059054e+02   3.0706729908e+01    0.3409356    0.3151464 -27.47 0.0009543789    1.309    0.236
        11  -9.6007     40.8297    178.5661   1.1572115008e+02   3.2581972291e+01    0.2244157     0.172931 -57.22 0.0006790661    1.392    0.281
        12  -7.5869    150.0000    177.9440   8.8731852966e+01   1.5698490007e+01    0.2316968   0.08547529 -48.25 0.0007924872    2.874    0.652
        13  -9.5065     61.9066    199.6864   1.1302402430e+02   2.5263218557e+01    0.2980879    0.1935222 -71.52 0.0005193636    1.508    0.337
        14 -10.4020     86.5610    155.2151   1.0071881649e+02   3.2183370695e+01    0.5758312    0.4144855 -14.90  0.001534756    2.064    0.515
        15 -11.3650     79.7624    161.4152   1.0359508442e+02   3.1708186430e+01    0.7930229    0.4697873  63.02 0.0005994178    2.084    0.520
        16 -11.8993     67.7943    157.1297   1.0613884958e+02   3.4439795705e+01    0.6574711    0.4671724 -28.77  0.001467725    1.899    0.473
        17 -10.9523     23.2339    155.2248   1.1768163684e+02   3.9820441439e+01    0.4066126    0.2684252 -64.24  0.002378264    1.352    0.260
        18 -10.3360     21.7763    143.6233   1.1683309207e+02   4.2725747994e+01    0.5153241   0.09816688 -70.37  0.001653362    4.111    0.757
        19  -8.4956    134.0000    147.9933   8.6531082306e+01   2.5403677910e+01    0.2573799   0.08868686 -48.97 0.0008040929    2.954    0.661
        20  -9.3063    100.9821    140.3539   9.3845635338e+01   3.3417948646e+01    0.5171907    0.2968745 -27.70  0.001879197    2.821    0.645
        21  -9.6705     81.2906    141.1555   9.9635881408e+01   3.6436290671e+01    0.4354239    0.2471676  65.49  0.001634947    2.700    0.630
        22 -10.4710     88.4298    140.0137   9.7358920649e+01   3.5602956980e+01    0.2993663     0.259572 -35.79  0.000528478    1.231    0.187
        23  -8.2665     31.7658    137.9894   1.1339642690e+02   4.3228582072e+01    0.1804239    0.1502987 -73.41 0.0004710287    1.031    0.030
        24  -9.1148     25.3972    137.2758   1.1509924060e+02   4.3961386148e+01    0.2227916     0.134771  52.87  0.001183329    1.802    0.445
        25  -8.7929    110.4501    130.6809   8.9026709282e+01   3.4024229644e+01     0.257865    0.1923528  10.97 0.0005919824    1.718    0.418
        26  -8.2535    106.0018    131.0073   9.0373951156e+01   3.4770690205e+01    0.2497318    0.1910196  77.17   0.00113607    1.695    0.410
        27 -12.3901     68.3832    144.4347   1.0392718267e+02   3.7481616881e+01     1.429658    0.7830006  72.32   0.00535485    3.056    0.673
        28  -9.0729     97.9420    126.6378   9.1729524180e+01   3.7263180328e+01    0.3081547    0.2499505 -10.62 0.0009479199    1.496    0.331
        29  -9.6257     33.4055    156.1502   1.1516073063e+02   3.8662358187e+01    0.3538975    0.1608486 -75.38  0.001617708    2.017    0.504
        30  -8.2197    107.2384    119.1895   8.7215342117e+01   3.7345555975e+01    0.2218288    0.2012863 -15.22 0.0006263776    1.165    0.142
        31  -7.7174     86.2955    119.6844   9.3658844112e+01   4.0909167863e+01    0.1488091    0.1170335  79.43 0.0002885149    1.604    0.376
        32 -12.5824     40.3002    201.9887   1.1801889009e+02   2.7362830551e+01    0.9958094    0.6329637 -85.56  0.001932499    1.444    0.308
        33  -9.1411     32.9803    108.7893   1.0860828382e+02   5.0252958836e+01    0.3018765    0.1470307 -64.88  0.001409732    1.762    0.432
        34  -8.6983    109.8927    200.9293   1.0211655516e+02   1.7932069367e+01     0.195531    0.1843952 -10.30 0.0004268481    1.249    0.199
        35  -8.1834    205.7126    110.0186   6.1070975923e+01   1.7676282777e+01    0.2126976    0.1888969 -37.25 0.0005096528    1.069    0.065
        36 -13.4222     50.1420    192.1379   1.1492106115e+02   2.8409356376e+01     2.293647     1.354504  81.41   0.01065202    1.774    0.436
        37  -7.9551     99.4322    180.7666   1.0159729507e+02   2.4086083977e+01    0.1935263     0.130934 -48.51  0.000910509    1.600    0.375
        38 -14.2579     38.5294    249.5446   1.2176735273e+02   1.8043065785e+01     7.760383     2.281485  26.77   0.01828046   13.599    0.926
        39  -8.4408    112.6538     82.2938   7.5336859225e+01   4.4410337909e+01    0.1515656    0.1244816  85.33 0.0005999492    1.667    0.400
        40 -12.7728     24.4187    226.4325   1.2297801799e+02   2.3987671228e+01     1.374561    0.5847948  68.52  0.003719897    2.285    0.562
        41 -10.1346     13.2790     59.9396   1.0594108082e+02   6.2903350042e+01     0.259149    0.1875468 -59.15  0.000772559    1.245    0.196
        42 -11.0333    188.2268     50.7498   4.8685626187e+01   3.1649186108e+01    0.5201751    0.3766351 -62.05   0.00262742    1.474    0.322
        43  -8.6297     82.6260    228.7315   1.1154247103e+02   1.6382010779e+01    0.1147982   0.09680025   4.92 0.0006993292    1.675    0.403
        44 -11.2975    193.1460     45.1661   4.6442704745e+01   3.1218356953e+01    0.5390402    0.4164945 -82.05   0.00210595    1.340    0.254
        45  -9.1304     77.0654    226.6694   1.1249334453e+02   1.7563899444e+01    0.1798205    0.1392038  49.56 0.0007047994    1.110    0.099
        46  -9.2081    139.5484     45.3574   5.6214575664e+01   4.4563450517e+01    0.3253706    0.2439133 -87.29  0.001078436    1.741    0.425
        47  -8.1041    142.9845     40.4761   5.3874121364e+01   4.4387733467e+01    0.2178445    0.1334916  57.44 3.394365e-05    1.502    0.334
        48 -15.1390      8.3650    241.0916   1.2662945428e+02   2.2776378492e+01      6.28807     4.428018 -87.11   0.04795314    1.314    0.239
        49 -10.3629     66.0057    176.1413   1.0928703964e+02   3.0108978236e+01    0.4483955    0.2958381 -40.17  0.002242176    1.944    0.485
        50 -13.6237      9.3007    207.3308   1.2477684372e+02   2.9345580756e+01     1.791829     1.192754 -34.07  0.004071878    2.671    0.626
