#   1 NUMBER                 Running object number                                     
#   2 MAG_AUTO               Kron-like elliptical aperture magnitude                    [mag]
#   3 X_IMAGE                Object position along x                                    [pixel]
#   4 Y_IMAGE                Object position along y                                    [pixel]
#   5 X_WORLD                Barycenter position along world x axis                     [deg]
#   6 Y_WORLD                Barycenter position along world y axis                     [deg]
#   7 A_WORLD                Profile RMS along major axis (world units)                 [deg]
#   8 B_WORLD                Profile RMS along minor axis (world units)                 [deg]
#   9 THETA_WORLD            Position angle (CCW/world-x)                               [deg]
#  10 FWHM_WORLD             FWHM assuming a gaussian core                              [deg]
#  11 ELONGATION             A_IMAGE/B_IMAGE                                           
#  12 ELLIPTICITY            1 - B_IMAGE/A_IMAGE                                       
         1  -8.3380    101.3196     29.0922   8.7375486817e+01   5.5031008769e+01    0.1785606    0.1600513 -12.85 0.0006335011    1.160    0.138
         2  -8.1061     30.0451     16.0572   1.0686987472e+02   6.7673291945e+01    0.1420749    0.1330629 -25.57  0.000679405    1.617    0.382
         3  -8.5666    233.4116     12.2304   6.0582668414e+01   2.5912109724e+01    0.2140282    0.1244591 -28.40  0.001080388    2.090    0.521
         4  -7.9466     83.4093     11.1910   8.5676474996e+01   6.0443544815e+01    0.1528262     0.108501 -30.79 0.0006929616    1.583    0.368
         5  -7.8824     76.5164     10.9952   8.7663484275e+01   6.1698148783e+01    0.1549338   0.09535336 -46.62 0.0008096771    2.519    0.603
         6  -8.6059     55.8268     10.2525   9.4262010450e+01   6.5115173058e+01    0.1774399    0.1415099 -21.63 0.0005893624    1.335    0.251
         7  -8.0489     47.5375     10.0679   9.7260599363e+01   6.6308265791e+01    0.1636936   0.09728891 -27.50  0.001018569    1.577    0.366
         8  -8.4720     90.6795      9.0421   8.2791022613e+01   5.9284461524e+01    0.1955155     0.173438  87.49 0.0009248062    1.615    0.381
         9  -7.5783    101.2923      7.7288   7.9549522192e+01   5.7300393064e+01    0.1084419   0.09700121 -83.24 0.0002614313    1.514    0.340
        10  -8.5802     33.5438      5.3635   1.0078410855e+02   6.8617277367e+01    0.2284922    0.1629563 -52.96  0.001365993    2.983    0.665
        11  -8.4955     79.0220      3.5840   8.3905617452e+01   6.1956894720e+01    0.2121638      0.15162 -35.82  0.001196975    1.745    0.427
        12  -7.9332     44.4192      3.2035   9.5432922677e+01   6.7480607462e+01    0.1419543   0.09309307 -30.66 0.0005722009    1.642    0.391
        13  -7.9046     16.1167      3.1362   1.0746412450e+02   7.0711415915e+01    0.1311986    0.1074847 -15.06 0.0006006251    1.331    0.249
        14  -8.3215     62.3452      1.6075   8.8274694088e+01   6.4983234342e+01    0.1747036    0.1279287  47.79 0.0004758511    1.555    0.357
        15  -7.7019     39.3297      1.6587   9.6736107400e+01   6.8313614080e+01   0.09301896   0.08661263 -29.07 0.0007051422    1.744    0.426
        16  -8.5511    139.5076    244.9955   1.2809558609e+02   4.5790083573e+00    0.1673503    0.1252455 -66.66  0.001014365    1.583    0.368
        17  -8.3913     94.1161    249.5764   1.3702654747e+02   1.1188245448e+01    0.2776404     0.140618  70.84  0.001354171    2.377    0.579
        18  -7.1928     86.3092    250.6941   1.3852488871e+02   1.2169832600e+01    0.1250491   0.07225634  68.01 0.0006094175    1.612    0.380
        19  -7.9640     67.5191    245.5068   1.4135011475e+02   1.5838637565e+01    0.1202977   0.08863717  69.86 5.060296e-05    1.028    0.027
        20  -8.2937     50.3896    244.6099   1.4421508328e+02   1.8309644769e+01    0.2214143   0.08556676 -87.65 0.0009562433    3.435    0.709
        21  -9.3708    248.6015    242.4586   1.0738081125e+02  -1.3169200880e+01    0.2409348    0.2287203 -68.01 0.0009676788    1.778    0.438
        22  -9.2797    247.9327    235.0997   1.0623195498e+02  -1.2142734085e+01    0.3395269    0.2048135 -38.79  0.001244244    1.911    0.477
        23  -9.2549    246.6127    229.2220   1.0543227975e+02  -1.1174257691e+01    0.3912809    0.1836646 -33.53  0.001429029    2.181    0.542
        24  -8.6269    201.9454    243.1843   1.1598037985e+02  -5.8922206907e+00    0.2503677    0.1759405 -53.91  0.001092541    1.975    0.494
        25  -8.8378    169.0036    243.5219   1.2227084414e+02  -2.8781809400e-01    0.2048315    0.1759011 -89.42 0.0005665211    1.466    0.318
        26  -8.9055     77.8667    243.2383   1.3931972017e+02   1.4785060536e+01    0.2948219     0.148663  77.59   0.00127736    2.404    0.584
        27  -7.4795     58.3418    244.6485   1.4286453149e+02   1.7255074818e+01    0.1288302   0.06579857  69.08 0.0002307538    1.806    0.446
        28  -8.9257    194.5397    240.4204   1.1693691058e+02  -4.2321523073e+00     0.356573    0.2168532 -56.32  0.001345197    2.425    0.588
        29  -9.9880    160.3289    240.5453   1.2350404215e+02   1.7102213398e+00     0.401177    0.2604654 -83.16  0.001685345    2.736    0.635
        30  -8.2142     88.3779    242.2725   1.3732810112e+02   1.3400666452e+01    0.1588227    0.1020638 -86.48 0.0004720277    1.606    0.377
        31  -8.4041    214.0723    241.3296   1.1342267934e+02  -7.6441076282e+00    0.1785161    0.1381067  31.51 0.0006948896    1.093    0.085
        32  -8.2852    240.7934    239.7990   1.0830716248e+02  -1.1669876640e+01    0.2007156    0.1361287 -24.23  0.001247174    1.507    0.337
        33  -9.0463    135.9830    239.2047   1.2801266729e+02   6.1862778733e+00    0.3110905    0.1631897  60.72  0.001448196    2.180    0.541
        34  -9.5172    109.4360    235.0951   1.3260023551e+02   1.1416413603e+01    0.5680411    0.2954245  67.39  0.002618962    2.379    0.580
        35  -8.1878    208.9839    238.5149   1.1390879953e+02  -6.4023744571e+00    0.1770932    0.1606414  -5.93 0.0005314233    1.185    0.156
        36  -8.5659    129.3021    239.1008   1.2928391202e+02   7.3512995611e+00    0.2542529    0.1376978  62.96  0.001138819    2.125    0.529
        37  -9.1876    231.1377    236.5402   1.0948815705e+02  -9.7431159190e+00    0.3384731     0.190819 -29.77  0.001169222    1.905    0.475
        38  -7.7795     13.6513    238.2921   1.4980616107e+02   2.3819252798e+01    0.1156674   0.05525714  67.48 0.0004700142    1.669    0.401
        39  -9.8639    214.8680    233.2417   1.1192799114e+02  -6.6286296798e+00    0.5314758    0.3797844 -84.73  0.002400528    3.686    0.729
        40  -8.9633    203.3663    234.9956   1.1438784269e+02  -4.9363914552e+00    0.2730924    0.2094453 -72.33  0.001253836    2.180    0.541
        41  -9.6657    175.8597    233.5839   1.1945161315e+02   1.0429315090e-01    0.4716731     0.252746 -60.14  0.002127046    2.886    0.653
        42  -8.1916    170.3811    235.7139   1.2084506616e+02   7.3014398870e-01    0.2096634    0.1273894 -54.03 0.0007052104    2.040    0.510
        43  -8.9140    122.9795    234.6470   1.2993455026e+02   9.2362994153e+00    0.2620862    0.1716097 -74.72  0.001273621    1.808    0.447
        44  -8.1403     57.9905    237.0000   1.4228930832e+02   1.8754669221e+01    0.1830137   0.05752041  40.64 0.0008027197    2.944    0.660
        45  -7.8635     25.2913    236.6324   1.4782878757e+02   2.2860713358e+01    0.1201786    0.0593145  71.76 0.0003840565    1.713    0.416
        46  -7.8385    243.6243    235.6895   1.0709716173e+02  -1.1568976673e+01    0.1304604    0.0798023  10.19 0.0007030095    1.784    0.440
        47  -9.3760    183.1777    240.2324   1.1906970952e+02  -2.2410003210e+00     0.398558    0.2501753  65.66  0.001756043    2.476    0.596
        48  -8.2670     99.6185    234.6303   1.3441824401e+02   1.3091961627e+01    0.2525955    0.1416988  69.94  0.001255201    1.983    0.496
        49  -9.1678     78.8382    234.3651   1.3828274673e+02   1.6331332484e+01    0.2720225    0.1559512 -81.66  0.000845848    1.811    0.448
        50  -7.9830     53.9774    234.9185   1.4282065014e+02   1.9689716478e+01    0.1907674    0.1043656  71.54 0.0004794245    1.654    0.395
        51  -9.0758     68.4923    232.5887   1.4000989472e+02   1.8168353295e+01    0.4229578    0.1787195  68.69  0.001781331    3.121    0.680
        52  -8.5125      8.3154    234.6808   1.5044475447e+02   2.5054429110e+01    0.1147419   0.05517012  69.68 0.0003539593    1.654    0.395
        53  -8.4089    194.5781    232.8320   1.1570912475e+02  -3.0862774740e+00    0.2096935    0.1607984 -60.77 0.0007257436    1.797    0.444
        54  -9.4183    186.7171    231.0140   1.1693116192e+02  -1.4133822455e+00    0.3513013    0.2606425 -82.85  0.001463461    2.266    0.559
        55  -9.2072    141.4794    231.0687   1.2583186815e+02   6.6764232982e+00    0.6203246    0.2525633  59.84  0.001994123    4.474    0.776
        56  -8.5355    132.7544    232.9416   1.2780581469e+02   7.8677128972e+00    0.2082503    0.1376598  80.68  0.001064851    1.970    0.492
        57  -7.9131    153.1843    242.1424   1.2510288462e+02   2.6952998366e+00    0.1775783    0.1381179  69.28  0.001065522    1.403    0.287
        58  -8.3541     92.2184    232.0118   1.3553032969e+02   1.4760345036e+01    0.2519271     0.127904  63.87  0.001118454    2.061    0.515
        59  -8.9267    236.1078    230.5762   1.0755443023e+02  -9.7208989457e+00    0.2471675    0.1642444 -29.36  0.000840338    1.559    0.359
        60  -8.9005      1.7674    230.9436   1.5127286597e+02   2.6414609107e+01    0.2058028   0.09766266  78.55 0.0009059955    1.677    0.404
        61  -9.1092    151.3340    228.9975   1.2358123200e+02   5.2897010717e+00    0.2993843    0.1945158  79.56  0.001216006    2.385    0.581
        62  -9.4025    148.9607    224.9274   1.2344957916e+02   6.4517820723e+00    0.3991124    0.2613186  79.02  0.001409933    2.268    0.559
        63  -8.0945    229.9499    229.0030   1.0840095312e+02  -8.5150231707e+00    0.1727071     0.156725  79.19 0.0006682569    1.706    0.414
        64  -8.8433    162.2755    227.7861   1.2122461255e+02   3.5269036581e+00    0.3063419    0.2015842  66.30  0.001212417    1.929    0.482
        65  -8.7599    128.0762    227.4726   1.2798888226e+02   9.6960263471e+00    0.2779582    0.1844615  73.05  0.001107121    1.744    0.427
        66  -8.3753    119.9880    227.3214   1.2957283541e+02   1.1121324157e+01    0.2530716    0.1490186  87.21  0.001040409    2.556    0.609
        67  -8.8597      8.2329    228.2335   1.5008977858e+02   2.6293578117e+01    0.1729053   0.06495829  89.97 0.0008840235    2.453    0.592
        68  -7.9055    223.4606    226.8218   1.0921697953e+02  -7.1355111579e+00    0.2402105    0.1209224 -33.59  0.001137262    2.152    0.535
        69  -8.8205    206.0388    226.1379   1.1238697353e+02  -4.0568292407e+00    0.2319445    0.1865331 -57.25 0.0008365798    1.669    0.401
        70  -8.2100     49.2731    226.7997   1.4297338403e+02   2.1897781104e+01    0.2375991    0.1368916  75.88  0.001180895    1.551    0.355
        71  -8.0830    200.1292    226.1792   1.1352982530e+02  -3.0252452617e+00    0.1617158    0.1536626  75.17 0.0004697832    1.322    0.243
        72  -8.9191    104.7977    223.7632   1.3212533742e+02   1.4363683442e+01    0.3464445    0.2074247  87.73  0.001678456    2.123    0.529
        73  -8.7563     94.2429    224.3217   1.3426806329e+02   1.5954704812e+01    0.3626672    0.1848971  68.81  0.001632965    2.418    0.586
        74  -7.8686     38.4414    224.9411   1.4475124908e+02   2.3611913081e+01    0.1706039   0.07498528  81.17 0.0008075854    2.547    0.607
        75  -8.7007    216.5031    223.0480   1.0985706204e+02  -5.3987282894e+00    0.2764775    0.2087048 -53.73  0.000951893    1.795    0.443
        76  -8.6455    180.4974    224.1605   1.1702969989e+02   8.3139291126e-01    0.2046578    0.1696718  60.12 0.0005602256    1.314    0.239
        77  -8.7488    172.9927    223.1700   1.1835872151e+02   2.3727273201e+00    0.2808253    0.1914528 -62.93 0.0008199261    1.947    0.486
        78  -7.8887    113.7838    224.0124   1.3037277416e+02   1.2816210503e+01    0.1612981    0.1042086 -63.46 0.0005407601    1.673    0.402
        79  -7.8359    233.3006    223.3821   1.0679002109e+02  -8.2641949032e+00    0.1342315   0.08760373   3.30 0.0007021711    1.775    0.436
        80  -9.4371    192.7259    221.5161   1.1417411169e+02  -9.5177489029e-01     0.357706    0.2706032  75.66  0.001153645    1.999    0.500
        81  -8.2982    140.5694    222.8573   1.2483227737e+02   8.3502590119e+00    0.1746105    0.1258254 -76.66 0.0009322602    1.691    0.409
        82  -9.1132    239.3091    221.0647   1.0527778059e+02  -8.9083841132e+00    0.3439616    0.2072058 -29.44  0.001434316    1.683    0.406
        83  -9.1060    225.5428    221.6121   1.0790512674e+02  -6.7214526592e+00    0.2230811    0.2025167   6.71   0.00075681    1.115    0.104
        84  -9.3301    160.2350    221.0562   1.2058105748e+02   5.0939074156e+00    0.5100586    0.2488979  58.32  0.002006505    2.702    0.630
        85  -8.9593      7.4103    222.0209   1.4985659805e+02   2.7583059440e+01    0.2190893   0.07392314  48.70  0.001194549    2.431    0.589
        86  -8.5374     82.9987    220.8249   1.3606240972e+02   1.8399201718e+01     0.286219    0.1490286  71.75  0.001333634    2.284    0.562
        87  -8.0211     72.9796    220.9484   1.3801338948e+02   1.9855003530e+01    0.2099261    0.1212992  72.98 0.0008469094    1.738    0.424
        88  -8.1004     27.5021    221.4924   1.4640959864e+02   2.5572076820e+01    0.1143018   0.08514844  81.11 0.0008102828    1.042    0.040
        89  -8.3405    202.9289    220.1382   1.1194419625e+02  -2.5651253504e+00    0.1928682    0.1721406  55.48 0.0005862804    1.293    0.227
        90  -9.0615    120.2072    219.2720   1.2844700160e+02   1.2647375708e+01    0.3880396    0.2059726  68.11  0.001601311    2.635    0.620
        91  -8.8452    248.7751    218.1939   1.0305670038e+02  -1.0007554152e+01    0.3739412     0.242804  65.88  0.001596184    4.050    0.753
        92  -8.4716    210.1397    218.8366   1.1032236692e+02  -3.6403364460e+00    0.2094476    0.1743895 -47.74 0.0006358236    1.455    0.313
        93  -8.6071    179.5392    217.8180   1.1615994905e+02   2.0922946386e+00    0.1753433    0.1322511 -63.43 0.0008712763    1.705    0.413
        94  -9.2184    132.8438    215.9210   1.2538411791e+02   1.1071728816e+01    0.4873346    0.2858208  80.32  0.001989584    2.936    0.659
        95  -8.9369     51.5221    217.2926   1.4172146491e+02   2.3537089555e+01    0.2854966    0.1493942  79.56 0.0009607822    1.963    0.490
        96  -8.7285    169.3371    216.3351   1.1796935828e+02   4.2549941071e+00    0.2895579    0.2270393 -76.17 0.0009992106    1.663    0.399
        97  -8.5937    142.9548    216.5723   1.2340294404e+02   9.1085159076e+00    0.2827008    0.1946524  86.40  0.001159887    1.990    0.498
        98  -7.8933    111.6883    217.3296   1.2991360874e+02   1.4496930286e+01    0.1401688     0.091388  72.42 0.0006310695    1.670    0.401
        99  -8.2351     61.9854    217.0699   1.3972240492e+02   2.2195790247e+01    0.2066236    0.1172792  72.60 0.0007553542    1.718    0.418
       100  -8.2316    154.4709    215.4681   1.2086386267e+02   7.1901939851e+00    0.2377788    0.1737878  74.03 0.0008545947    1.680    0.405
       101  -7.9459     18.5927    216.2357   1.4758563871e+02   2.7595418096e+01    0.1535852   0.08322625 -70.66 0.0009529947    1.649    0.393
       102  -8.6274    232.3885    214.6264   1.0536409456e+02  -6.8348775515e+00    0.2374955    0.1952564 -39.84  0.001092387    1.418    0.295
       103  -8.5186    185.8040    214.3035   1.1429917341e+02   1.5368075740e+00    0.2727643    0.1821962 -54.92   0.00108995    1.849    0.459
       104  -8.9813     93.4270    214.2796   1.3322249092e+02   1.8125326337e+01    0.3661717    0.1791336  62.74  0.001209927    2.321    0.569
       105  -9.4438     73.1310    212.0158   1.3702154856e+02   2.1683407470e+01    0.5991426    0.2293409  62.74  0.002154601    3.834    0.739
       106  -8.6135    224.8426    212.0339   1.0628934735e+02  -5.1539707096e+00     0.293058    0.1617963 -34.32  0.001179684    1.888    0.470
       107  -9.3519    213.8386    212.0015   1.0837479966e+02  -3.2121969770e+00    0.3136387    0.2708441  68.19  0.001261589    1.546    0.353
       108  -8.6805    161.8667    212.6300   1.1887962767e+02   6.3354457537e+00    0.2463621    0.2040297 -73.10 0.0009135267    1.427    0.299
       109  -8.0776    106.5586    212.8074   1.3035632943e+02   1.6283051288e+01     0.178581    0.1193558 -82.27 0.0007263921    1.647    0.393
       110  -8.9592    204.3864    211.0116   1.1002710818e+02  -1.3415870098e+00    0.2783775    0.2361213 -79.33 0.0008618821    1.684    0.406
       111  -9.4710    175.1918    210.1395   1.1572102041e+02   4.2722258986e+00    0.4324753    0.2912801  77.66  0.001698856    2.505    0.601
       112  -9.9899    173.4371    205.0462   1.1518616049e+02   5.5442041544e+00    0.2641658    0.2396734  56.20 0.0003623152    1.105    0.095
       113  -9.3358      8.2244    212.0251   1.4909578273e+02   2.9490029947e+01    0.2444844   0.09488879  77.45  0.001184734    2.691    0.628
       114  -8.3623    192.3055    210.4005   1.1230645254e+02   9.9770662228e-01    0.2115973    0.1671206 -68.54 0.0006823019    1.727    0.421
       115  -8.7233    148.0726    210.5961   1.2140385567e+02   9.3136241529e+00    0.2771483    0.2024008  85.97  0.001008714    1.773    0.436
       116  -8.9681    116.4622    210.5480   1.2799503571e+02   1.5054573072e+01    0.3419608    0.2177833  74.29  0.001072087    1.871    0.466
       117  -9.1788    236.7078    207.6640   1.0326780662e+02  -6.5148311204e+00    0.4658887    0.2373257 -36.87  0.001627846    1.990    0.498
       118  -8.5521     85.5376    209.5538   1.3424184588e+02   2.0349455983e+01    0.3096146    0.1628979  73.36  0.001365726    2.444    0.591
       119  -7.9289     46.6888    209.9257   1.4195300486e+02   2.5681990056e+01    0.2309676     0.086591  64.93  0.000894818    3.550    0.718
       120  -8.4252    139.2265    208.2435   1.2287935270e+02   1.1423496630e+01     0.270081    0.1793983  75.43 0.0006635459    1.968    0.492
       121  -9.2819    246.2648    207.3034   1.0146965838e+02  -8.0465275671e+00    0.2639091    0.1937698 -25.41 0.0006067075    1.303    0.233
       122  -7.9827    156.4911    208.0570   1.1923008951e+02   8.2175429092e+00    0.1943053    0.1399989 -55.09  0.000636477    1.546    0.353
       123  -8.2201    126.3071    208.1325   1.2557984157e+02   1.3806233860e+01    0.1912437     0.165875  89.50 0.0006730601    1.152    0.132
       124  -9.2124     99.3156    206.1692   1.3096566403e+02   1.8873058335e+01    0.3556914    0.2197462  81.64  0.001484867    1.943    0.485
       125  -8.4613     56.7133    205.5094   1.3957501538e+02   2.5335240060e+01    0.3360274    0.1373409  63.36  0.001390481    2.992    0.666
       126  -9.4544    194.9414    203.5380   1.1052412166e+02   1.6971542834e+00    0.4459058    0.3039903 -45.12  0.001310731    1.612    0.380
       127  -9.1996    192.4665    197.5706   1.0990367935e+02   3.2380888842e+00    0.3553766    0.2653292 -64.60 0.0009774895    1.782    0.439
       128  -9.1213    183.8730    204.0153   1.1285490187e+02   3.7267483442e+00    0.3234003    0.2505136  72.71 0.0009731451    1.692    0.409
       129  -8.7620    131.4364    204.3859   1.2391751052e+02   1.3640542496e+01    0.3155886    0.1911658  74.24  0.001062302    2.377    0.579
       130  -8.1601    109.0538    205.0981   1.2877219196e+02   1.7466930713e+01    0.2208368    0.1471471  77.86 0.0006365847    1.698    0.411
       131  -9.5988    163.9142    203.1765   1.1683945218e+02   7.7343737745e+00    0.4533385    0.2689127  60.51  0.001022022    2.059    0.514
       132  -7.5604     24.7048    204.6902   1.4562776133e+02   2.9321058667e+01    0.1038087   0.07978991 -60.06 0.0002308157    1.591    0.372
       133  -9.2516    250.1187    202.0077   9.9771927364e+01  -7.8909755636e+00    0.3492658    0.1751741 -35.39   0.00135809    1.934    0.483
       134  -9.1892    243.1074    200.8564   1.0080173136e+02  -6.5568323313e+00    0.3138497    0.1922131 -40.81 0.0009806099    1.730    0.422
       135  -7.9838    222.1381    201.4195   1.0479733800e+02  -2.9906483757e+00    0.2340524    0.1523251 -56.60  0.001082397    2.244    0.554
       136  -8.3219    210.9919    202.0634   1.0706805303e+02  -1.0614828948e+00    0.2000073    0.1705215  86.81  0.000556324    1.687    0.407
       137  -8.8292    140.4279    200.9665   1.2144539571e+02   1.2667166693e+01    0.3336662    0.2287909  88.64 0.0008870458    2.004    0.501
       138  -8.4952     80.2550    201.4951   1.3433740780e+02   2.2880116629e+01    0.3049961    0.1671561  69.70  0.001427131    2.089    0.521
       139  -7.7982     40.6873    202.3493   1.4240061583e+02   2.8017010079e+01    0.1310589   0.07262771  73.03 0.0003153184    1.720    0.419
       140  -8.1644    228.5401    200.9740   1.0350280561e+02  -4.0614236490e+00     0.185797    0.1089346 -12.46 0.0003937021    2.413    0.586
       141  -9.1418    237.0615    198.1949   1.0138436563e+02  -5.1124682226e+00     0.455835    0.1825807 -36.62  0.001915791    2.490    0.598
       142  -8.6139    177.1080    199.1937   1.1336675720e+02   5.9287690160e+00    0.2451386    0.1828375 -80.77 0.0005840183    1.948    0.487
       143  -9.4936    149.5775    198.6040   1.1908419943e+02   1.1403283281e+01    0.4714359    0.3080071  86.74  0.001650827    2.483    0.597
       144  -8.9107    123.9137    199.2213   1.2471692981e+02   1.6088356195e+01    0.3340622    0.2264507 -87.52  0.001465399    1.844    0.458
       145  -9.3388    112.8596    198.6065   1.2700934041e+02   1.8189443213e+01    0.4805083    0.2766769  74.93  0.001993463    2.498    0.600
       146  -8.9458     88.6193    198.6128   1.3220744442e+02   2.2220501295e+01    0.3349671    0.2097915  78.32   0.00134139    1.781    0.439
       147  -8.3541    202.1943    197.7343   1.0797606496e+02   1.3376261774e+00    0.2306209    0.1851002 -52.96  0.000685944    1.461    0.315
       148  -9.0864     61.4313    197.0480   1.3770819743e+02   2.6538938839e+01    0.4072326     0.200924  75.03  0.001591496    2.613    0.617
       149  -8.7909     12.4359    197.2401   1.4731697214e+02   3.2125256751e+01    0.2681302   0.08796587 -84.66  0.001141691    3.127    0.680
       150  -8.7966    215.9307    195.6085   1.0486336710e+02  -8.8647777629e-01    0.2454984    0.1901693 -56.63  0.000682736    1.648    0.393
       151  -8.6503    132.9782    195.7572   1.2219021773e+02   1.5147351331e+01    0.2481497    0.1748325 -72.93 0.0006428275    1.627    0.386
       152  -9.2191    245.6469    193.6749   9.8943589297e+01  -5.8783816216e+00     0.289661    0.2480277 -85.90  0.001226265    1.899    0.473
       153  -9.0286    224.3759    193.6156   1.0285265835e+02  -2.1107620179e+00    0.4125229    0.2171665 -43.21  0.001328039    2.018    0.505
       154  -7.8039    209.2634    195.6382   1.0617072128e+02   3.6035579314e-01    0.1308372    0.1114242 -79.92 0.0003480035    1.638    0.389
       155  -8.9397    185.3597    194.8550   1.1084420804e+02   5.1256087089e+00    0.2567046    0.2174338  79.33 0.0008605027    1.466    0.318
       156  -8.9376    161.2064    194.5696   1.1587644155e+02   9.9478553233e+00     0.305719    0.2242224  76.28  0.001036085    1.771    0.435
       157  -8.9778     43.9292    193.4595   1.4089376349e+02   2.9553921863e+01    0.4118515    0.1877649  72.01  0.001818651    2.740    0.635
       158  -7.9377    230.8336    194.5751   1.0182687903e+02  -3.4370944327e+00    0.1748119     0.125144  51.50 0.0004794801    1.629    0.386
       159  -8.7019     77.0777    193.8455   1.3404095523e+02   2.5032432276e+01    0.2714666    0.1816418  81.43  0.000714728    1.501    0.334
       160  -8.3068    199.0904    191.6842   1.0742635407e+02   3.0177515884e+00    0.2351836    0.1933183 -52.74 0.0006289138    1.387    0.279
       161  -8.1711    179.1513    191.4591   1.1148942240e+02   6.9983083367e+00    0.2216405    0.1725161 -53.59 0.0006048959    1.423    0.297
       162  -8.4787    172.3627    191.9576   1.1301568870e+02   8.2536648660e+00    0.2576504    0.1949426  68.30 0.0008296309    1.585    0.369
       163  -9.1463    139.5299    190.5411   1.1986567408e+02   1.5004337343e+01    0.4078686    0.2784994 -87.18  0.001288254    2.018    0.504
       164  -8.7481     22.1374    191.4957   1.4502389474e+02   3.2388815930e+01    0.4095458      0.13601  62.73  0.001571634    4.107    0.756
       165 -10.3473     92.1743    188.8217   1.3007877405e+02   2.3819631580e+01    0.9070419    0.2759645  52.02  0.002908623    3.957    0.747
       166  -8.7295    148.6832    189.4246   1.1765610867e+02   1.3460571972e+01    0.3117125    0.1944657 -73.09  0.001069234    2.292    0.564
       167  -8.4167    237.1625    188.6288   9.9475952652e+01  -3.5986498940e+00    0.2200511     0.174547 -41.58 0.0006424312    1.360    0.265
       168  -9.1406    216.5352    187.5145   1.0314274374e+02   3.9315539624e-01    0.4053516     0.240904 -33.78  0.001619589    1.735    0.424
       169  -9.2535    155.9657    187.5325   1.1571547670e+02   1.2413018096e+01    0.4288474    0.2548907 -64.98  0.001136788    2.218    0.549
       170  -8.9476    129.3358    188.6245   1.2178981197e+02   1.7351701922e+01    0.3018563    0.2258071  85.56  0.001059139    1.546    0.353
       171  -9.8453    121.1070    187.0527   1.2335985843e+02   1.9220924458e+01    0.5727768     0.309291 -76.85  0.002161085    2.929    0.659
       172  -8.5515    242.8450    187.7538   9.8269260396e+01  -4.4596000584e+00    0.2621283    0.1412621 -24.61  0.001193524    2.059    0.514
       173  -8.3029    230.5102    187.4738   1.0047397235e+02  -2.2083243709e+00    0.2313144    0.1239644 -48.29   0.00101936    2.220    0.550
       174  -8.8044    191.4882    187.3698   1.0812769564e+02   5.3154922570e+00    0.3170039    0.2324237 -66.86 0.0009965573    1.849    0.459
       175  -8.7969    164.9873    186.9745   1.1365031917e+02   1.0721041042e+01    0.3091677    0.2327329 -78.82 0.0009875289    1.744    0.427
       176  -9.0894     54.9235    187.1284   1.3793179190e+02   2.9593583077e+01     0.409847    0.2067853  72.69  0.001561232    2.425    0.588
       177  -8.5722     34.0575    187.7454   1.4232043346e+02   3.1942553890e+01    0.2777788    0.1413056  78.98  0.001402088    2.084    0.520
       178  -9.1712    109.5297    186.2289   1.2581969175e+02   2.1479321859e+01     0.378361    0.2479416  78.09  0.001174601    1.864    0.463
       179  -8.6235    249.2401    185.3455   9.6647495330e+01  -5.1831173091e+00    0.2868043    0.1910083 -45.62  0.000955868    1.679    0.404
       180  -9.1469    182.9012    185.2247   1.0949045517e+02   7.4504533750e+00    0.3307615    0.2113982 -51.49 0.0008063978    1.734    0.423
       181  -7.5071    205.2712    191.6652   1.0618348070e+02   1.8216415479e+00     0.132415    0.1131865 -84.76 0.0002887741    1.596    0.373
       182  -9.0184    210.1557    184.5679   1.0379750535e+02   2.1433901135e+00    0.2489439    0.2247443 -55.17 0.0005579208    1.276    0.216
       183  -9.0124    202.7979    184.7786   1.0530691727e+02   3.5496217689e+00    0.2647557    0.1977723 -52.59 0.0006407609    1.532    0.347
       184  -9.0081     66.6642    184.6437   1.3510748892e+02   2.8587201166e+01     0.337852    0.1987102  70.72  0.001080003    1.846    0.458
       185  -8.7778    224.3035    183.6372   1.0086661858e+02  -4.0597980303e-01    0.2654989    0.2258735 -77.17 0.0008707562    1.657    0.397
       186  -8.4792    197.2753    183.9461   1.0625794189e+02   4.8017241397e+00    0.2779159    0.1800629  69.74 0.0008746097    2.544    0.607
       187  -8.8948    174.3384    183.6930   1.1100449893e+02   9.4884054686e+00    0.2976266    0.2334786  84.32 0.0009340485    1.678    0.404
       188  -8.2010      1.8099    183.7912   1.4830326916e+02   3.5918422142e+01    0.1588944   0.09886022  72.81  0.001001959    1.367    0.269
       189  -8.6048    241.1154    181.6973   9.7357174932e+01  -3.1698253168e+00    0.3969629    0.2245983 -56.24  0.001653121    2.890    0.654
       190  -9.0758     44.2747    182.1493   1.3962304541e+02   3.2019907154e+01    0.3608084    0.1946563  84.59  0.001083143    1.982    0.495
       191  -9.2917    147.5553    180.7178   1.1629762830e+02   1.5521051141e+01    0.3715659    0.2687981 -87.29  0.001119213    1.834    0.455
       192  -9.6442     25.6609    178.9674   1.4318162486e+02   3.4764955580e+01    0.6559947    0.2488233  85.13  0.002307203    4.488    0.777
       193  -7.8000    235.2814    181.6728   9.8414231096e+01  -2.1103279160e+00    0.1272348     0.109599 -70.03 0.0003190667    1.600    0.375
       194  -8.5625    137.7076    179.4709   1.1828159375e+02   1.7735924158e+01    0.3474196    0.2291944  78.41  0.001319357    2.154    0.536
       195  -9.4967    191.4920    178.4532   1.0633258419e+02   7.0145170482e+00    0.3376905    0.2554646  64.58  0.000587831    1.593    0.372
       196  -8.1618    169.2658    178.7446   1.1111974140e+02   1.1525555169e+01    0.2494333    0.1810747 -51.22  0.000707103    1.460    0.315
       197  -8.5424    250.5167    172.9592   9.3900150968e+01  -3.4080969637e+00    0.2399979    0.1720105 -19.11 0.0006493339    1.383    0.277
       198  -9.2445    248.8945    177.3991   9.5095903459e+01  -3.8469229919e+00    0.3127595    0.2644684  71.55 0.0005672916    1.697    0.411
       199  -8.4277    247.3020    173.6942   9.4612930264e+01  -2.9574193134e+00    0.2118139    0.1551772 -31.54 0.0004762636    1.269    0.212
       200  -8.7768    231.1284    177.1427   9.8250114923e+01  -5.7187219147e-01    0.2944525    0.1834982 -42.04 0.0008315669    1.620    0.383
       201  -8.4634    217.3597    177.3542   1.0090805245e+02   2.0313437276e+00    0.2316507    0.2221646 -63.87 0.0006501813    1.215    0.177
       202  -8.5079    129.1695    177.3914   1.1984525754e+02   1.9845481441e+01    0.3037111     0.209824  84.53  0.001096773    1.899    0.473
       203  -8.9000     35.8288    176.5433   1.4080511078e+02   3.4237355620e+01    0.4265381    0.1833563  83.19  0.001657478    3.509    0.715
       204  -9.4349    183.2443    175.7009   1.0749889384e+02   9.2514976390e+00     0.472101    0.2491804 -42.26  0.000620111    1.974    0.494
       205  -9.2498    159.0561    175.3044   1.1268060510e+02   1.4341300587e+01    0.4568833    0.2940642  78.03  0.001262898    2.598    0.615
       206  -9.3385    104.6965    175.0214   1.2508387371e+02   2.4854887530e+01    0.5832003    0.2989974  68.13  0.002005422    3.258    0.693
       207  -8.0034     97.9232    177.5077   1.2705860205e+02   2.5438685291e+01    0.2012848    0.1346723  42.55 0.0005322682    1.512    0.339
       208  -8.6873     89.0758    176.7987   1.2898106003e+02   2.7044985922e+01    0.3011918    0.1874339  82.80  0.001053115    1.992    0.498
       209  -9.9165     57.2543    173.1874   1.3571370140e+02   3.2458740340e+01    0.8011679    0.3639651  83.27  0.002681124    4.410    0.773
       210  -8.6240     13.0363    176.8379   1.4555530716e+02   3.6438042344e+01    0.2520694    0.1197951  70.58  0.001103059    2.206    0.547
       211  -8.3966    204.9375    177.6264   1.0341588872e+02   4.4446968489e+00    0.2794374    0.1871275 -57.35 0.0007264351    1.885    0.470
       212 -10.6315     75.8376    170.0711   1.3102073259e+02   3.0626816091e+01     1.283691    0.4524026 -72.54  0.003859887    4.600    0.783
       213  -8.7605    224.6265    174.6246   9.8946450585e+01   1.1052172920e+00    0.2634434    0.1616529 -57.10  0.000901604    2.289    0.563
       214  -9.4545    175.8373    172.3352   1.0839195924e+02   1.1472529660e+01    0.3690375    0.2675845 -51.01 0.0007931964    1.458    0.314
       215  -8.3325    142.9729    172.5670   1.1577207862e+02   1.8203398197e+01    0.2766284    0.2068111 -75.31  0.000793611    1.567    0.362
       216  -9.1739    230.9136    170.4035   9.6882160369e+01   6.3849611239e-01     0.372549    0.2832315 -60.51  0.001759048    1.712    0.416
       217  -7.9770    194.0185    172.5194   1.0457836525e+02   7.6443271323e+00    0.2289476     0.141913  44.27  0.001000274    1.573    0.364
       218  -8.5576    134.7926    171.9054   1.1752642478e+02   1.9975185623e+01    0.2742943    0.2032277 -82.00 0.0009182629    1.614    0.380
       219  -9.5547    121.4295    170.5249   1.2037989584e+02   2.2856974276e+01    0.4559044    0.2924779 -78.98  0.001119519    2.030    0.507
       220  -9.2032     44.9612    171.2481   1.3821706889e+02   3.4407906958e+01    0.3432784    0.1826578  76.79  0.001100456    2.239    0.553
       221  -8.6193    205.8391    170.2911   1.0169761006e+02   5.6370550942e+00    0.3156648    0.1980434 -54.72 0.0009274099    1.927    0.481
       222  -8.6118    198.5245    170.3465   1.0319206970e+02   7.1320852107e+00    0.2929539    0.2272051 -79.47  0.000770748    1.827    0.453
       223  -8.4065    237.1806    169.7236   9.5590588866e+01  -4.3236832377e-01    0.2360012    0.1785385 -45.38 0.0007283294    1.389    0.280
       224  -9.1633    167.3646    168.8351   1.0952019766e+02   1.3975776249e+01    0.4094402    0.2738634  75.28  0.001163853    2.261    0.558
       225  -8.4452    149.8948    169.7960   1.1364295839e+02   1.7404356929e+01    0.2688807    0.1924721 -85.01 0.0006560867    1.905    0.475
       226  -7.9905    244.4771    169.4772   9.4233555908e+01  -1.7432316565e+00    0.1354316    0.1247151 -19.34 5.600855e-05    1.066    0.062
       227  -8.4515    219.0454    168.6117   9.8744261185e+01   3.2794872446e+00    0.2274566    0.1940681 -49.83 0.0005079355    1.272    0.214
       228  -8.0561     88.7585    168.8063   1.2779102666e+02   2.8945936810e+01    0.1990813    0.1486799  85.39 0.0005389539    1.381    0.276
       229  -8.7422    212.9513    163.7550   9.8885779922e+01   5.4100552331e+00    0.2889717    0.2083118 -32.81 0.0007796536    1.393    0.282
       230  -8.6732    111.5773    167.5616   1.2216307804e+02   2.5351907179e+01    0.3192162    0.2010108  79.50 0.0009111307    2.265    0.558
       231  -9.0526    191.9260    166.6363   1.0376656619e+02   9.2357205506e+00    0.2793463    0.2139432 -51.46 0.0004984822    1.392    0.282
       232  -9.2389    185.1091    166.6597   1.0520857511e+02   1.0671582129e+01    0.2998449    0.2308146 -75.95 0.0009360955    1.724    0.420
       233 -10.1521     95.3287    163.2912   1.2529534608e+02   2.9165560309e+01     0.835929     0.439542  76.41  0.002695674    4.105    0.756
       234  -9.2579     20.6269    166.2275   1.4297866546e+02   3.8087641361e+01    0.3538817    0.1662222  68.75  0.001278478    2.503    0.601
       235  -9.9242    136.5995    164.3373   1.1562435976e+02   2.1309486243e+01    0.6336027    0.3216406  61.24  0.002116045    2.829    0.647
       236  -8.0516    250.6057    165.2197   9.2274455664e+01  -2.1434481838e+00    0.1920387    0.1190131 -27.03 0.0005256659    1.590    0.371
       237  -8.2132    233.9711    165.0162   9.5178014708e+01   9.9639535886e-01    0.2104494    0.1705721 -67.84 0.0005385067    1.646    0.392
       238  -8.8244    159.4383    164.4994   1.1038819590e+02   1.6566847290e+01     0.313865    0.2486941 -88.49 0.0008349128    1.557    0.358
       239  -9.5157     33.3875    163.4169   1.3987158260e+02   3.7469151904e+01    0.5140924    0.2420201  62.27  0.002328842    2.542    0.607
       240  -8.8502    246.0024    163.1337   9.2631570307e+01  -9.5012633997e-01     0.237027    0.1835594 -32.30 0.0004384698    1.194    0.162
       241  -8.1617    239.9268    164.1909   9.3927318306e+01   4.6326458925e-03    0.1991446    0.1827526 -53.53 0.0005588073    1.245    0.197
       242  -8.4489     57.2381    163.9957   1.3448248215e+02   3.4587847684e+01    0.3028976    0.1796001  11.45  0.001289867    3.485    0.713
       243  -8.8354    204.9634    162.8410   1.0027359726e+02   7.2377548168e+00    0.2555025    0.2087063 -42.94 0.0005040327    1.236    0.191
       244  -9.4458      3.4349    162.3788   1.4625548677e+02   4.0403213010e+01    0.3654358    0.1661141  58.34   0.00187985    2.343    0.573
       245  -9.1195    177.6016    160.8627   1.0557605779e+02   1.3460948993e+01    0.3529535    0.2666808 -62.28 0.0008399113    1.520    0.342
       246  -8.7205    151.7038    160.9872   1.1141728347e+02   1.8956099236e+01     0.319676    0.2302338 -80.84 0.0009117707    1.855    0.461
       247  -8.4560     60.4200    160.1781   1.3318848656e+02   3.5070168311e+01    0.2611847    0.1701785  83.28 0.0009053001    1.670    0.401
       248  -7.8136    242.0325    160.0392   9.2669204721e+01   3.2463074807e-01    0.1681347    0.1493698 -22.82 0.0003744609    1.034    0.033
       249  -8.7247    227.4264    159.2788   9.5149579371e+01   3.3031364523e+00    0.3266521    0.2123287 -54.21 0.0009456807    1.835    0.455
       250  -9.5609    250.2480    157.9476   9.0800647325e+01  -8.5363486468e-01    0.3302667    0.1742243 -36.36 0.0007834772    1.743    0.426
       251  -8.2909    237.0246    158.7099   9.3273969763e+01   1.5164999291e+00    0.1908379    0.1795821  -5.01 0.0004301706    1.037    0.035
       252  -9.1165    167.5952    157.6055   1.0707611783e+02   1.6304221342e+01    0.3605675    0.2717764 -87.62  0.001087741    1.797    0.443
       253  -8.3603    128.2722    158.8791   1.1650403364e+02   2.4199458779e+01    0.2864739    0.2189059 -87.91 0.0008031095    1.540    0.351
       254  -9.6992    105.6981    158.0177   1.2181830259e+02   2.8621914881e+01    0.4678624    0.3168286  85.66  0.001223141    1.909    0.476
       255  -8.5956    196.6833    158.1270   1.0092745072e+02   9.9103574637e+00    0.2491217     0.210344  65.34  0.000757168    1.325    0.246
       256  -8.2733    188.0021    157.9707   1.0270797967e+02   1.1810094426e+01    0.2361805    0.1881637 -87.73 0.0005830363    1.653    0.395
       257  -8.3408     79.4184    158.2419   1.2829940084e+02   3.2869163192e+01     0.218253    0.1647674 -52.46 0.0009308557    1.346    0.257
       258  -9.4301     81.6748    154.7845   1.2715961810e+02   3.3344768538e+01      0.49003     0.301888  84.31  0.001267088    2.195    0.544
       259  -8.4711    217.9784    156.5362   9.6334604319e+01   5.7272092970e+00    0.2897171    0.1938723 -54.55  0.001100165    1.736    0.424
       260  -9.1740    157.6570    155.9137   1.0896089559e+02   1.8806418423e+01    0.3974518    0.2549919 -56.67  0.001565416    1.691    0.409
       261  -9.3610    119.4899    155.2848   1.1790829989e+02   2.6725461301e+01    0.4310929    0.2827684 -81.32  0.001482503    2.062    0.515
       262  -9.0876     49.8252    155.4240   1.3503640577e+02   3.7494918925e+01    0.3988027    0.2181749  67.31  0.001872784    2.277    0.561
       263  -8.3928     22.7002    156.6427   1.4150267941e+02   4.0052808982e+01    0.1858049    0.1208696 -46.84  0.001100917    1.791    0.442
       264  -8.6223    144.9442    155.2618   1.1177941095e+02   2.1638690504e+01    0.3271348    0.2287197  67.68  0.001302534    1.723    0.420
       265  -9.2919    241.7035    154.2969   9.1492491558e+01   1.3877111896e+00    0.3474976    0.2611752  73.40  0.001742098    1.925    0.480
       266  -9.6785    242.5734    149.9149   9.0390532853e+01   1.9882872729e+00    0.3106113    0.2938082  61.72  0.001660891    1.213    0.176
       267  -9.7311     67.8781    153.8909   1.3041921606e+02   3.5552783585e+01    0.4288744    0.2584247  79.58  0.001378903    2.162    0.537
       268  -7.9661    232.7997    153.9956   9.3012255882e+01   3.1854469096e+00     0.228819    0.1597477 -63.00 0.0006130218    1.955    0.488
       269  -9.6640    132.7469    152.9020   1.1419134930e+02   2.4675159432e+01    0.4768359    0.3407984  86.63  0.001201195    1.873    0.466
       270  -9.0936    133.4936    148.4890   1.1306667592e+02   2.5531452522e+01    0.3619199    0.2729363 -46.88  0.001461743    1.345    0.257
       271  -8.8168    151.8586    152.9008   1.0964581663e+02   2.0706352296e+01    0.2875398    0.2077039 -54.29 0.0008445955    1.421    0.296
       272  -8.5551     20.1124    152.8335   1.4166332806e+02   4.1147592232e+01     0.184833    0.1336839  81.04 0.0005492481    1.275    0.216
       273  -8.7573     98.2686    150.7964   1.2229105162e+02   3.1610346385e+01    0.3241882    0.2143005 -82.39  0.001007878    1.862    0.463
       274  -9.8730     29.1067    150.3339   1.3928420225e+02   4.0888047687e+01    0.4805413    0.2360867  81.74   0.00214969    2.716    0.632
       275  -8.2694    250.2744    140.9970   8.7146488272e+01   2.0557508977e+00    0.2130833    0.1815937 -10.95 0.0004645429    1.220    0.180
       276  -9.6241    248.9236    149.5494   8.9226444262e+01   8.3248435198e-01    0.3607692    0.1955134 -39.14 0.0008627829    1.688    0.408
       277  -9.0651    247.0288    144.0883   8.8360452228e+01   2.1448298482e+00    0.3118038    0.1898291 -34.32 0.0006516072    1.531    0.347
       278  -9.0976    189.3788    150.1715   1.0067172969e+02   1.3095217830e+01    0.3726117    0.2403358 -60.90 0.0008927147    1.957    0.489
       279  -8.1866    182.3325    151.0870   1.0238304120e+02   1.4458195408e+01    0.2184778    0.1920011 -53.89 0.0005426417    1.169    0.145
       280  -8.1362    162.4812    150.5442   1.0667070353e+02   1.8932483568e+01    0.2629101    0.1470525 -57.28 0.0007598271    2.090    0.522
       281  -9.0795      2.8848    150.2968   1.4526063475e+02   4.3099055112e+01    0.3034126    0.1358059 -81.90  0.001504493    1.883    0.469
       282  -8.1084    204.7162    155.2641   9.8657342197e+01   8.7551496582e+00    0.2270951    0.1833754 -61.00 0.0006346949    1.417    0.294
       283  -8.3059    212.8819    150.0542   9.5877903838e+01   8.0212904045e+00    0.2200826    0.1967974 -68.56 0.0004812774    1.263    0.208
       284  -9.7606     39.8144    147.8243   1.3639189089e+02   4.0385639951e+01    0.5071024    0.2576991  71.11  0.002075082    2.819    0.645
       285  -8.4048    198.9048    149.0717   9.8443196937e+01   1.1227496238e+01    0.2297276    0.2004766 -83.18 0.0004438027    1.348    0.258
       286  -9.9166     89.1946    146.3132   1.2373551741e+02   3.4173524793e+01    0.6725712    0.3772397 -88.11  0.002425473    3.229    0.690
       287  -8.8786    233.1892    147.6311   9.1542441586e+01   4.2559151923e+00    0.2851493    0.1942945 -31.83 0.0007418923    1.428    0.300
       288  -8.7440     77.8768    147.0166   1.2675107929e+02   3.5754373267e+01    0.2894436     0.184563 -84.51  0.000856081    1.874    0.466
       289 -10.3632     54.7440    144.2642   1.3215979445e+02   3.9520772530e+01    0.8345174    0.4374354  84.27  0.003226245    3.144    0.682
       290  -8.9301     57.1824    135.6028   1.3010000682e+02   4.1258518991e+01      0.24921    0.1370013  27.58 0.0007901083    2.275    0.560
       291  -8.6352    223.5262    146.8553   9.3134331854e+01   6.3828384451e+00    0.2521816    0.2335977 -76.37 0.0006596108    1.224    0.183
       292 -10.2462    148.9718    144.9174   1.0854858960e+02   2.3096548947e+01    0.5978941    0.4016406 -84.97  0.001847813    2.361    0.576
       293  -8.7373    150.6324    136.3730   1.0617881314e+02   2.4634750468e+01    0.5197662    0.3456584   3.74  0.001833249    3.067    0.674
       294 -10.1567    106.4437    144.4244   1.1895721681e+02   3.1679525177e+01    0.7194106    0.4284467  75.64  0.002087118    2.897    0.655
       295  -8.7377    104.3543    139.3163   1.1843039128e+02   3.3253584142e+01    0.2927456    0.1977947   7.34 0.0009780602    2.681    0.627
       296  -9.3453     13.3723    146.2238   1.4247275630e+02   4.3205045280e+01    0.3338282    0.1558532  58.92  0.001345233    2.566    0.610
       297 -10.4155    240.3915    145.2778   8.9753842319e+01   3.2365335821e+00     1.026586    0.1722398 -37.82  0.002470366    6.002    0.833
       298 -10.5428    242.6951    143.3060   8.8923663309e+01   3.1305711441e+00    0.8255478    0.2383496 -38.10  0.002708791    3.238    0.691
       299  -8.4216    175.3651    146.0730   1.0276119184e+02   1.7049333379e+01    0.2761476    0.2169139  80.12 0.0008115172    1.587    0.370
       300  -9.8188    138.9519    144.8638   1.1094230813e+02   2.5231030390e+01    0.4649438    0.3130684 -72.83  0.001298295    1.933    0.483
       301  -9.2887    139.5658    137.9484   1.0922254403e+02   2.6665968609e+01    0.4698628    0.3134685   4.44  0.001680905    3.044    0.672
       302 -10.9394     68.9990    140.3498   1.2784436771e+02   3.8600252376e+01     1.020815     0.390389 -60.40  0.003314483    2.342    0.573
       303  -9.9186    125.1308    142.7300   1.1387546769e+02   2.8535190665e+01    0.6003647    0.3824306 -82.73  0.001670164    2.501    0.600
       304  -8.1606    194.3922    144.1283   9.8239972027e+01   1.3211665948e+01    0.2196844    0.1403001 -53.52 0.0006207987    1.719    0.418
       305  -8.8445    165.4368    144.0849   1.0452858164e+02   1.9680119805e+01    0.2901915    0.2255879  58.69 0.0006800108    1.341    0.255
       306  -7.3823    230.3567    142.6975   9.0952474675e+01   5.7334215799e+00     0.145713    0.1147591 -78.39 0.0007038674    1.713    0.416
       307  -8.4046    182.1646    141.8899   1.0030726711e+02   1.6404756262e+01    0.3006042    0.2261919 -78.61 0.0007690472    1.773    0.436
       308  -9.3834      2.4183    141.4311   1.4448182350e+02   4.5090040961e+01    0.3201842    0.1660058  79.37  0.001749541    2.083    0.520
       309  -7.6753    238.5086    140.5327   8.9030655405e+01   4.4611807092e+00    0.1424339     0.132255 -31.87 0.0001233199    1.011    0.011
       310  -9.6753     23.6044    138.3534   1.3908490731e+02   4.4131851284e+01    0.4901653    0.2384224  70.83  0.002031813    3.016    0.668
       311  -7.8618    206.8114    146.7628   9.6326096135e+01   9.9605556112e+00    0.2005466    0.1773115 -80.17 0.0005621228    1.315    0.240
       312  -8.6488    172.2085    138.4055   1.0167553879e+02   1.9381099778e+01    0.3167229    0.2300095 -78.96 0.0008333075    1.903    0.475
       313  -8.3653    207.5006    137.9618   9.4165337877e+01   1.1527405130e+01    0.2271073    0.1454675 -42.91 0.0005904466    1.524    0.344
       314  -8.7810    197.6402    137.6503   9.6064171907e+01   1.3787864233e+01    0.3066537    0.2234823 -60.60  0.001124933    1.580    0.367
       315  -8.6479    162.5518    136.1594   1.0333324548e+02   2.2037162811e+01     0.313366    0.2245635 -52.23  0.001180593    1.427    0.299
       316 -10.3288     83.4851    133.0566   1.2263088470e+02   3.8209005218e+01    0.6172837    0.3598511 -63.11   0.00140058    1.672    0.402
       317  -8.5741     83.8280    124.1351   1.2067235022e+02   4.0246821780e+01    0.5233249    0.3216233 -24.84  0.002153724    2.633    0.620
       318  -9.3862     39.1846    136.1010   1.3485443740e+02   4.3172177768e+01    0.2855184    0.1915333 -87.71  0.000861612    1.512    0.339
       319  -9.0926    248.3914    135.2065   8.6187421532e+01   3.4334282694e+00    0.3027221     0.213224 -49.86 0.0008625896    1.426    0.299
       320  -8.7581    246.8834    130.1109   8.5307161782e+01   4.6290513172e+00    0.2539376    0.1853594 -42.32 0.0007722853    1.255    0.203
       321  -9.1106    231.1365    134.5938   8.8985649596e+01   7.0581252260e+00    0.2734171    0.2212569 -39.75 0.0004621911    1.161    0.139
       322 -10.0017    133.5202    109.7273   1.0378023022e+02   3.4219443196e+01     0.704092    0.3519474 -46.47  0.001988847    1.981    0.495
       323 -10.0760    131.0691    118.8479   1.0675018093e+02   3.2746160685e+01    0.6157511    0.4032808  89.97  0.001849971    2.772    0.639
       324 -10.2097    131.9869    131.0282   1.0948618469e+02   2.9820757576e+01    0.6915084    0.4385284 -74.40  0.002674014    2.358    0.576
       325  -8.1793    237.5053    133.9771   8.7738108894e+01   5.8461125072e+00    0.2236046    0.1320209 -41.41  0.001017205    1.572    0.364
       326  -8.6212    179.4727    133.8099   9.8979642040e+01   1.8698132227e+01    0.3046129    0.2085149 -62.69  0.000853211    1.765    0.434
       327  -9.3199    112.6593    133.2880   1.1496160682e+02   3.3137677810e+01    0.3462819    0.2585785  85.84 0.0009353112    1.700    0.412
       328 -10.4383     98.2655    130.1674   1.1806655137e+02   3.6467000073e+01    0.7137401    0.3234455 -57.12  0.001901753    2.191    0.544
       329  -8.5837     99.4967    120.3294   1.1550597071e+02   3.8532906153e+01    0.3982663    0.2496164 -16.87 0.0008935237    3.063    0.673
       330  -9.2884    143.0408    131.6010   1.0687895567e+02   2.7347720792e+01    0.3436127    0.2480095 -62.97  0.000833942    1.534    0.348
       331  -9.0792    250.6788    130.0329   8.4677711948e+01   3.8867084055e+00    0.4481196    0.1206165 -37.53  0.001405422    3.446    0.710
       332  -8.3293    204.7823    130.6522   9.2982369686e+01   1.3566088539e+01    0.2749817    0.1895793 -66.76  0.000770104    1.901    0.474
       333  -9.7084    152.8908    128.4885   1.0374745560e+02   2.5870495691e+01    0.6287583     0.306745 -49.08  0.001079024    2.089    0.521
       334  -9.8007     73.1206    129.1459   1.2464071730e+02   4.0666574899e+01    0.4706299    0.2405763 -68.17  0.001291604    2.148    0.534
       335  -9.9115     12.9324    129.3951   1.4057925536e+02   4.7020478619e+01    0.4211489    0.2248278  75.91   0.00208685    2.377    0.579
       336  -7.8595    220.5048    129.9894   8.9841116001e+01   1.0195089896e+01    0.1995884    0.1224721 -61.52 0.0004028163    2.185    0.542
       337  -8.2603    211.7099    129.2834   9.1318915452e+01   1.2275439036e+01    0.2858554    0.1716649 -50.76 0.0007965722    1.746    0.427
       338  -9.4777    168.4466    129.4901   1.0038041460e+02   2.2132259417e+01     0.367548    0.2778697 -75.60 0.0008234859    1.672    0.402
       339  -8.4095     25.9491    130.1880   1.3738280554e+02   4.5790305291e+01    0.2671841    0.1070543  14.01  0.001019064    5.002    0.800
       340  -8.1196      1.9555    130.4726   1.4340985202e+02   4.7543038882e+01    0.1413333    0.1125129  36.87  0.001021805    1.585    0.369
       341 -10.7456     44.9200    123.7171   1.3132346490e+02   4.5439672203e+01     1.028992    0.5452377  82.17  0.003992928    3.603    0.722
       342 -10.0911    118.1574    125.4059   1.1170373223e+02   3.3895944164e+01    0.6034196    0.4061017 -88.67  0.001349734    2.358    0.576
       343 -10.4228     59.9034    124.8988   1.2742896172e+02   4.3426438420e+01    0.7480397     0.429107  88.87  0.002574909    2.877    0.652
       344  -8.6602     59.0996    115.7115   1.2584466083e+02   4.5652521268e+01    0.4187634    0.2439029  -7.31  0.001626229    3.750    0.733
       345  -9.1220    179.3468    124.9368   9.6849294145e+01   2.0570436457e+01    0.3186063    0.2616343 -83.05   0.00067704    1.444    0.307
       346  -9.9152    159.1706    122.5473   1.0079577110e+02   2.5737334820e+01    0.5964816    0.3482254 -64.24  0.001705484    2.453    0.592
       347  -8.6710    228.1803    125.2229   8.7359024113e+01   9.4147111552e+00    0.2052296    0.1674789 -65.33 0.0006208046    1.357    0.263
       348 -10.2247     28.3766    122.4159   1.3558902999e+02   4.7348757524e+01    0.6932671    0.3455262  81.57  0.002792463    3.608    0.723
       349  -8.1542     27.0469    114.0000   1.3460332389e+02   4.9368176954e+01    0.1755961    0.1260878 -40.80 0.0005328039    1.428    0.300
       350  -8.0468    187.9467    135.9856   9.7682237856e+01   1.6316248195e+01     0.244544    0.1891254 -78.34 0.0005616493    1.658    0.397
       351  -8.2570    188.5128    124.0065   9.4672146865e+01   1.8627502269e+01    0.2361498     0.151399 -44.23 0.0004790692    1.541    0.351
       352  -7.9132    192.9895    130.0274   9.5206357745e+01   1.6376089182e+01    0.1886656    0.1743147 -44.26 0.0003842704    1.068    0.064
       353  -7.6979    203.2011    122.2288   9.1273891993e+01   1.5577101351e+01    0.2422336    0.1079826 -49.25 0.0004953306    2.418    0.586
       354  -8.0380    194.8895    121.6156   9.2776211069e+01   1.7622893957e+01    0.2659652    0.1755868 -46.86  0.000628895    1.503    0.335
       355  -9.0259    171.9906    121.6932   9.7658681766e+01   2.2956795115e+01      0.29343    0.2253918 -54.40 0.0004915819    1.344    0.256
       356  -9.7959     70.9709    119.6346   1.2329238780e+02   4.3187423725e+01    0.4689234    0.2488053 -69.40  0.001431147    2.214    0.548
       357  -9.8091    141.7172    118.7237   1.0403416320e+02   3.0482564828e+01    0.4646511    0.3197095 -77.69  0.001225507    2.126    0.530
       358  -9.7638      2.7000    116.7291   1.4157118272e+02   5.0523318943e+01    0.5529561    0.2347304 -87.04  0.002495557    2.920    0.658
       359  -7.6041    231.7063    117.3904   8.4938190163e+01   1.0086300182e+01    0.1557055    0.1082177 -66.20 0.0003160952    1.778    0.438
       360  -9.4055    249.4830    115.6389   8.1671555590e+01   6.6407809819e+00    0.2637322    0.2302561  -8.76 0.0006065037    1.308    0.235
       361  -7.7015    203.2821    116.6129   8.9891872125e+01   1.6651769298e+01    0.1622444     0.116859 -69.70 0.0007005064    1.739    0.425
       362  -8.1038    185.6938    116.0925   9.3296870802e+01   2.0885309981e+01    0.2460879     0.184293 -57.89 0.0004005216    1.431    0.301
       363  -8.1498    153.2485    115.9187   1.0051247010e+02   2.8505913000e+01    0.2071717    0.1332618 -46.35 0.0007334686    1.552    0.356
       364 -10.2986    109.2745    112.8047   1.1100256777e+02   3.8457566371e+01     0.918707    0.4032479 -51.76  0.002599677    2.261    0.558
       365  -7.9851    193.0344    115.3405   9.1601209867e+01   1.9302169279e+01    0.2111647    0.1993299  75.42 0.0004080323    1.073    0.068
       366 -10.1029     92.6727    112.3887   1.1551674487e+02   4.1516871635e+01    0.6043628    0.3319801 -65.44  0.001457393    2.305    0.566
       367  -8.9609     93.6799    104.6522   1.1331290582e+02   4.3076464012e+01    0.3286214    0.2056956  18.87  0.001404447    2.285    0.562
       368  -9.9580     79.0507    112.6456   1.1945764336e+02   4.3625914072e+01    0.5678473    0.3721128 -88.64  0.001805407    2.428    0.588
       369  -8.8878     78.7514    105.0472   1.1775316905e+02   4.5384681255e+01    0.3446729     0.235182 -14.67  0.001603469    2.115    0.527
       370  -8.3049    167.4026    114.3197   9.6817988874e+01   2.5563397267e+01    0.2180065    0.1474594 -52.56 0.0006309501    1.544    0.353
       371 -10.1982    121.5494    112.1929   1.0754138572e+02   3.6187496487e+01    0.4825198    0.3579929 -60.58 0.0009388197    1.443    0.307
       372  -9.1023    174.7508    111.7445   9.4527464693e+01   2.4356945857e+01     0.309607    0.2058854 -52.11 0.0006616326    1.571    0.363
       373  -9.0536    159.2065    111.9296   9.8077768272e+01   2.7975433655e+01    0.2882164    0.2469718 -67.79 0.0006490541    1.253    0.202
       374  -9.9901     66.2776    110.6902   1.2271061377e+02   4.5879101305e+01    0.4363825    0.3016428 -84.62  0.001300466    1.901    0.474
       375  -9.8318     14.0429    111.1689   1.3775894377e+02   5.1006660696e+01    0.3323548    0.1916585  80.36  0.001257719    2.293    0.564
       376  -8.1476    182.7890    109.7053   9.2286476763e+01   2.2852728585e+01    0.2455936    0.1144077 -49.66 0.0006137238    2.320    0.569
       377 -10.5510    248.5325    108.1041   8.0129440981e+01   8.1476240684e+00    0.4856862    0.2843835 -45.92  0.002282353    1.560    0.359
       378  -8.8575     42.8115    109.4451   1.2929275001e+02   4.8922029351e+01    0.2784644    0.1341358  22.19  0.001298462    2.726    0.633
       379  -8.4081      4.8188    109.3422   1.4001680712e+02   5.2011674249e+01    0.1387931    0.1041417 -14.14 0.0008237259    1.748    0.428
       380  -8.0062    196.6290    107.7795   8.8994885465e+01   1.9927205112e+01    0.2265726     0.137568 -49.56 0.0006102843    1.678    0.404
       381  -8.2394    189.1534    107.9230   9.0519760914e+01   2.1683300941e+01    0.2432461    0.2042355 -71.58 0.0005590461    1.297    0.229
       382  -9.6026    150.5766    103.1009   9.7781357502e+01   3.1804461737e+01     0.539924    0.3375516 -67.40  0.001450797    2.366    0.577
       383  -8.5321    150.6633     96.3177   9.5914709810e+01   3.3159245503e+01    0.4457746    0.2899196   1.19  0.001476222    3.097    0.677
       384  -9.8897    139.9394    104.3177   1.0071654633e+02   3.3963555309e+01    0.5359004    0.3080627 -50.87 0.0009173024    1.822    0.451
       385 -10.4588     45.5819    102.4300   1.2705983703e+02   5.0205841162e+01    0.6831784    0.4086343  76.87  0.002965882    3.158    0.683
       386 -10.5769     22.9396    102.8219   1.3386553469e+02   5.2191337459e+01     0.661094    0.3759229  79.17  0.002628591    2.871    0.652
       387  -8.7971    166.8287    104.5046   9.4390013721e+01   2.7705022605e+01    0.3062094    0.2189776 -52.60 0.0007919365    1.455    0.313
       388 -10.7425    108.9492     98.9349   1.0747498877e+02   4.1551995369e+01    0.9608361    0.5525175  68.86  0.001582939    3.653    0.726
       389  -9.0841    107.9952     92.7560   1.0604243482e+02   4.3034252659e+01    0.4803608    0.2922291  21.67  0.001954592    2.367    0.578
       390  -9.2112      6.8813    103.2547   1.3855696926e+02   5.3211463213e+01    0.2554244    0.1417866 -83.58  0.001084287    1.894    0.472
       391 -10.2763    128.6643    101.5042   1.0284047101e+02   3.7012080044e+01    0.5631046    0.3167865 -41.33  0.001732838    1.778    0.437
       392  -8.2041    175.4823    102.1463   9.1874046318e+01   2.6102530999e+01    0.2529836    0.2129456 -88.16 0.0008156938    1.339    0.253
       393  -8.3495    159.7404    100.9461   9.5048821259e+01   3.0102162188e+01    0.2848676    0.2064722 -59.27 0.0007208931    1.542    0.351
       394  -9.2356     82.0813    100.0249   1.1552496755e+02   4.5986009534e+01    0.3704594    0.2477132 -73.21  0.001004838    2.024    0.506
       395  -9.4756     94.9681     96.7466   1.1087599715e+02   4.4574368299e+01    0.4066899    0.2167661 -54.45 0.0006710992    1.953    0.488
       396 -10.1559     64.0157     95.9316   1.1996759691e+02   4.9465116635e+01    0.4878358    0.3237903 -84.24  0.001575317    2.402    0.584
       397  -8.3746    176.4676     93.4745   8.9365720326e+01   2.7542691215e+01    0.2732089    0.2025323 -73.27 0.0006079018    1.668    0.401
       398  -9.4483    139.1664     92.3417   9.7615320961e+01   3.6586750523e+01    0.4725721    0.3283085 -71.17  0.001016241    2.034    0.508
       399  -8.9473     46.0584     92.9506   1.2484253711e+02   5.2235979381e+01    0.3739624      0.20662   1.22  0.001645727    3.141    0.682
       400  -8.1285    164.7163     94.2064   9.2099014463e+01   3.0247431095e+01    0.2399207    0.1868221 -57.67 0.0003565087    1.372    0.271
       401 -10.3042    123.6223     91.4388   1.0137783534e+02   4.0158511176e+01    0.5924575    0.4264906  28.97  0.001294786    1.575    0.365
       402  -9.4996      4.9616     92.3684   1.3738997051e+02   5.5662713954e+01    0.2841626    0.1944949  61.24  0.001691558    1.941    0.485
       403  -8.2559    158.0113     91.7895   9.2948545218e+01   3.2320122924e+01    0.2838043    0.1913405 -53.81 0.0005753449    1.615    0.381
       404  -9.6810     34.7906     89.1682   1.2755098067e+02   5.4160103356e+01    0.6250551    0.2528661 -65.32  0.002670316    2.637    0.621
       405  -9.0223     22.8561     90.4745   1.3158047744e+02   5.4879346223e+01    0.2878989    0.1903268 -32.57  0.001301678    1.556    0.358
       406  -8.1379    151.0473     89.2744   9.3865466693e+01   3.4453370343e+01    0.2136131    0.2049019  73.82  0.000499361    1.052    0.049
       407 -10.3396     86.7749     85.6891   1.1027374231e+02   4.8278335107e+01    0.7889197     0.481989 -45.45  0.001536991    1.530    0.346
       408  -8.9188     64.8220     87.7479   1.1765291549e+02   5.1113212129e+01    0.3577592    0.1962235  13.12  0.001512261    2.903    0.655
       409  -7.7568    164.2217     87.0297   9.0238243364e+01   3.1736431687e+01    0.1982616     0.127199 -38.60 0.0003370326    1.587    0.370
       410  -9.8775     48.4146     84.3312   1.2204020877e+02   5.3818922269e+01    0.4551196    0.3144664  87.44  0.001736706    2.457    0.593
       411  -7.5856    179.3127     85.6753   8.6687015439e+01   2.8300895905e+01    0.1601003    0.1187386 -75.67 0.0002603247    1.661    0.398
       412  -9.7910    104.8318     83.4078   1.0426950655e+02   4.5534890514e+01    0.4267849      0.29711 -64.19 0.0009879721    1.892    0.471
       413  -8.9025    104.7113     77.6256   1.0258740845e+02   4.6684634420e+01    0.3305501    0.2127727  17.53  0.001435161    2.152    0.535
       414  -8.3541    157.9356     84.1216   9.0825786109e+01   3.3795003956e+01    0.2339814    0.2054162 -76.48 0.0004708884    1.247    0.198
       415  -9.4248    140.6331     82.6148   9.4471888880e+01   3.8140576462e+01    0.3885525    0.2363002 -47.00 0.0009493232    1.714    0.417
       416  -8.7060    127.9429     83.8918   9.8062595830e+01   4.0727737423e+01    0.3757355    0.1910242  28.32   0.00125041    3.243    0.692
       417  -8.2522    250.2407     82.2741   7.4098384633e+01   1.2153557901e+01    0.2352019   0.08940682 -46.53 0.0009015074    2.401    0.583
       418  -7.8284    185.3101     82.6804   8.4698079891e+01   2.7364904758e+01    0.1586899    0.1168517 -74.78 0.0003886746    1.643    0.392
       419  -9.7998     24.5047     80.3392   1.2893151109e+02   5.6889209542e+01    0.4086601    0.2384985 -81.88  0.001381372    2.598    0.615
       420  -9.3739      9.8252     81.0096   1.3384754878e+02   5.7763309805e+01    0.2864031    0.1842231  67.12  0.001209698    2.415    0.586
       421  -8.3906    150.4688     80.7535   9.1579346798e+01   3.6197972254e+01    0.3013789    0.2011963 -59.93 0.0008894075    1.847    0.458
       422  -9.1028    119.3486     80.3620   9.9310499374e+01   4.3234020232e+01    0.3360777    0.2453675 -60.60  0.001045649    1.669    0.401
       423  -8.8719     74.4738     80.3094   1.1256870594e+02   5.1295398636e+01    0.3354593    0.2128097 -63.82  0.001199128    2.066    0.516
       424  -8.3576    166.7119     79.7657   8.7678784878e+01   3.2465319263e+01    0.2506302     0.187449 -34.95 0.0005629855    1.394    0.283
       425  -8.5962    184.1408     78.5483   8.3817592291e+01   2.8385477183e+01    0.2496475     0.178676 -33.24 0.0006473027    1.482    0.325
       426  -9.2437     65.3937     78.2397   1.1489898313e+02   5.2997577443e+01    0.3326313    0.2202639 -60.99  0.001419595    1.743    0.426
       427  -9.9582     63.4039     73.6482   1.1424579629e+02   5.4178837890e+01      0.46331    0.2417954 -57.01  0.001610093    2.181    0.542
       428  -9.4627    128.0354     75.3939   9.5517912802e+01   4.2306011546e+01    0.3968623    0.2796111 -62.81 0.0007986037    1.856    0.461
       429  -8.8191    140.5100     75.1731   9.2319921068e+01   3.9540508987e+01    0.3002691    0.1993989 -51.11 0.0009004382    1.664    0.399
       430  -9.7205     82.3580     72.7530   1.0785602027e+02   5.1562305451e+01     0.421533    0.2900872 -65.95  0.001122126    2.112    0.527
       431  -8.9517     83.4836     65.6257   1.0529138154e+02   5.2708880867e+01    0.4008754    0.2330653  -3.32  0.001525908    3.335    0.700
       432  -8.7729    150.9956     73.5813   8.9379452305e+01   3.7365175592e+01    0.2813457      0.21642 -14.22  0.001338166    1.575    0.365
       433  -8.1888    175.4071     72.7281   8.3935345470e+01   3.1557827221e+01    0.1979129    0.1488079 -24.55 0.0003434773    1.527    0.345
       434  -8.2311    163.4030     73.2783   8.6554544915e+01   3.4420666395e+01    0.2121674    0.1396428 -48.14 0.0009423091    1.597    0.374
       435  -9.0107    115.6747     72.5056   9.7937647224e+01   4.5462602707e+01    0.3605922    0.1867684 -44.37  0.001020434    1.980    0.495
       436  -9.4391     95.1750     71.1914   1.0343060462e+02   4.9668713722e+01    0.3707313    0.2246478 -54.48    0.0010539    2.005    0.501
       437  -8.5141     42.6152     72.8616   1.2102388033e+02   5.6784827951e+01    0.2299659    0.1440693 -64.80 0.0007033615    1.859    0.462
       438  -9.1104     28.6483     70.6731   1.2526145687e+02   5.8524361879e+01    0.3977922    0.1804548 -26.72  0.001772829    3.002    0.667
       439  -8.2127     32.3200     68.2957   1.2337724904e+02   5.8679007147e+01    0.1816299    0.1347233 -47.07 0.0005776297    1.122    0.109
       440  -9.1197    105.8978     71.7819   1.0046105536e+02   4.7552640889e+01    0.2656882    0.2034871 -46.80 0.0005836447    1.362    0.266
       441  -9.5839     51.5452     69.9762   1.1717992120e+02   5.6377586176e+01    0.4431393    0.2613573 -68.05  0.001519106    2.654    0.623
       442  -8.9505     16.6588     70.0813   1.2926100824e+02   5.9552844533e+01     0.252906    0.1765608 -75.72  0.001073331    1.695    0.410
       443  -7.9901    157.0273     69.9410   8.6970990908e+01   3.6546859182e+01    0.1835726    0.1680224 -39.69 0.0003900786    1.129    0.114
       444  -8.8770    147.2827     68.4806   8.8728887382e+01   3.9130747234e+01    0.3001912    0.2407403 -66.07  0.000634045    1.467    0.318
       445  -8.8885    138.7169     66.3179   9.0095732163e+01   4.1500703367e+01    0.3325081     0.180358 -50.29  0.001038789    2.188    0.543
       446  -8.9166    121.6260     66.1152   9.4349427605e+01   4.5344673277e+01    0.2967492    0.2312123 -65.78   0.00068847    1.667    0.400
       447  -8.9790    110.1395     63.8774   9.6770037142e+01   4.8120329738e+01    0.2881284    0.2216071 -54.72 0.0006968374    1.543    0.352
       448  -8.7464     37.1545     64.0265   1.2051862378e+02   5.9061879347e+01    0.2827436    0.1839119 -74.98  0.001120493    2.529    0.605
       449  -8.7486     64.9192     63.2575   1.1062110993e+02   5.5955488343e+01    0.3783021    0.2156802   2.69  0.001603892    2.975    0.664
       450  -8.2792    158.1223     61.8270   8.4370425706e+01   3.7625510338e+01    0.1971046    0.1687002  30.94  0.000311253    1.255    0.203
       451  -9.4288     97.6125     60.6891   9.9359242917e+01   5.1097802046e+01    0.3026349    0.2519444  54.20 0.0009576519    1.391    0.281
       452  -9.6221     73.2796     59.6007   1.0665883274e+02   5.5405382264e+01    0.3555303    0.2168249 -50.58 0.0009059925    1.830    0.454
       453  -9.4218    242.8532     59.9338   7.0051322742e+01   1.7327585648e+01    0.1953517    0.1906402  -9.70  0.001219049    1.304    0.233
       454  -8.1488    147.1957     59.1969   8.5965129606e+01   4.0679789657e+01    0.1978516    0.1714227 -73.34 0.0004000727    1.317    0.240
       455  -7.8607    111.3426     59.3200   9.4968471649e+01   4.8645591566e+01    0.1488833    0.1061837  11.68 0.0007049821    1.722    0.419
       456  -9.7667     23.3902     56.5203   1.2342680115e+02   6.1691826680e+01    0.3933443     0.256078 -79.90   0.00209112    2.783    0.641
       457  -9.3744      7.4733     57.2124   1.2948092586e+02   6.2642832419e+01    0.2804843    0.1765955 -68.22  0.001087267    1.712    0.416
       458  -8.6244    130.0163     58.1403   8.9690489219e+01   4.4827449783e+01    0.2843056    0.1932006  34.40   0.00135807    1.544    0.352
       459  -8.9743    139.9778     55.9600   8.6619828790e+01   4.2889384347e+01    0.3427325    0.2065772 -30.01  0.001079782    1.791    0.442
       460  -9.2697    119.1913     55.2814   9.1539829970e+01   4.7656496981e+01    0.4747913    0.2229715 -45.07  0.001297966    2.422    0.587
       461  -9.6447     54.3305     55.6947   1.1189225743e+02   5.8713956742e+01    0.3267103    0.2079874 -54.93  0.001182042    1.852    0.460
       462  -8.9235     44.1449     55.3091   1.1542893589e+02   5.9971323557e+01    0.3363589    0.1782559 -56.61  0.001415437    2.237    0.553
       463  -8.0149    164.5396     59.7437   8.2441868567e+01   3.6383110816e+01     0.194896    0.1384417 -48.65 0.0004041515    1.493    0.330
       464  -8.6518    105.7339     53.2992   9.4558666217e+01   5.0750200991e+01    0.2779289    0.2062239 -53.35  0.000784465    1.675    0.403
       465  -8.4218     74.6573     52.0897   1.0370579785e+02   5.6482368118e+01    0.3683698    0.1962633   9.29  0.001354985    3.830    0.739
       466  -9.4581     92.3391     50.7304   9.7620358831e+01   5.3708905704e+01    0.3452168    0.2218394 -46.94  0.001025779    1.797    0.443
       467  -8.1147    144.7902     49.0668   8.3405495286e+01   4.2792639549e+01    0.1860901    0.1158424 -33.88 0.0006260471    1.698    0.411
       468  -8.1932    130.1342     49.1691   8.6807009663e+01   4.6178355637e+01    0.1893147    0.1699968 -79.82    0.0004932    1.324    0.245
       469  -7.9441    149.7240     48.6633   8.2220514257e+01   4.1671755503e+01    0.1449715    0.1085663  21.69 0.0002305018    1.609    0.378
       470  -8.7483    120.9415     47.5394   8.8555044483e+01   4.8456627034e+01    0.2551489    0.2035099 -27.10 0.0005128236    1.299    0.230
       471  -8.5252    112.1821     46.7637   9.0587601586e+01   5.0434794014e+01    0.2271637    0.1821984 -42.00 0.0006725173    1.376    0.273
       472  -9.0961     82.0285     46.6003   9.9406091114e+01   5.6166503792e+01     0.239088    0.1997515 -44.71 0.0006704011    1.400    0.286
       473  -7.7967    184.1953     45.0058   7.4723500361e+01   3.3677781514e+01    0.1860722    0.1126095 -33.77 0.0008564944    1.766    0.434
       474  -8.6473     44.9293     44.6780   1.1167781813e+02   6.1734500629e+01     0.219593     0.154221 -43.69 0.0006191797    1.395    0.283
       475  -8.8696     16.6469     44.7280   1.2261714825e+02   6.4348754015e+01    0.2036826    0.1544255 -59.54 0.0007753172    1.519    0.342
       476  -8.8597    132.9785     43.3939   8.4279566446e+01   4.6356096617e+01    0.2886098    0.1882619 -42.77    0.0009035    1.692    0.409
       477  -8.7045     92.4365     43.2285   9.4987010766e+01   5.4835799069e+01    0.2430794    0.1241803 -28.23  0.001114179    2.046    0.511
       478  -9.0598     58.1676     42.5247   1.0606600666e+02   6.0437259792e+01    0.3210098    0.1865598 -52.52  0.001357086    2.346    0.574
       479  -9.4023     69.5869     41.7075   1.0177679225e+02   5.8921521088e+01    0.3198229    0.2505279 -55.97    0.0011277    1.816    0.449
       480  -9.5545      5.1409     42.1450   1.2642876964e+02   6.5549424299e+01    0.2853737    0.1758052 -70.91   0.00150242    2.269    0.559
       481  -8.7894    106.0030     41.1718   9.0359117987e+01   5.2504783273e+01    0.3218652    0.1744307 -37.27 0.0008953286    1.933    0.483
       482  -8.5181     36.8777     40.7888   1.1341791677e+02   6.3254991991e+01    0.1858454     0.149086 -64.85 0.0006452312    1.909    0.476
       483  -8.8592     95.4230     37.8946   9.2208068524e+01   5.5035559888e+01    0.2230519    0.2089917 -84.76 0.0007962213    1.444    0.308
       484 -10.2005    138.8854     35.5495   8.0455569213e+01   4.6028474717e+01    0.3165119    0.2270493 -21.91 0.0002401152    1.553    0.356
       485  -8.2859     80.9467     36.9947   9.6308772038e+01   5.7775723611e+01    0.1784854    0.1583064 -63.89 0.0004520294    1.642    0.391
       486  -9.4234     26.0964     35.3858   1.1583426181e+02   6.5178260152e+01    0.2782366    0.1812124 -50.14 0.0009628663    1.631    0.387
       487  -7.6640    133.4915     36.4711   8.1931912522e+01   4.7163417725e+01    0.1373791    0.1276625  50.72 0.0001577613    1.052    0.050
       488  -8.0767    125.9790     35.7147   8.3408301132e+01   4.8967096762e+01    0.1905844    0.1642833  48.36 0.0003552207    1.084    0.078
       489  -8.6708    111.5867     34.3720   8.6508870129e+01   5.2265461260e+01    0.2785999    0.1534225 -36.29 0.0006526851    1.941    0.485
       490  -9.0233    119.2145     33.0111   8.4122642736e+01   5.0804743076e+01      0.35394     0.138669 -34.81  0.001440894    2.663    0.624
       491  -8.0296     88.4427     34.2548   9.2970053386e+01   5.6829546879e+01    0.1723332    0.1173443 -39.83 0.0009435064    1.646    0.392
       492  -9.0091     48.5960     33.5474   1.0632329040e+02   6.3064265730e+01    0.2087372    0.1800355 -22.45  0.000645467    1.218    0.179
       493  -8.6379     60.4993     32.6189   1.0159242453e+02   6.1608419477e+01    0.2163569    0.1854361 -60.99 0.0007445064    1.857    0.462
       494  -8.9728     72.1571     31.2230   9.7028420680e+01   6.0031894563e+01    0.2297119     0.187583 -44.60 0.0006902094    1.572    0.364
       495  -9.1192     12.9168     30.3953   1.1959095713e+02   6.7049881885e+01    0.2570952    0.1370971 -52.64    0.0010552    1.880    0.468
       496  -8.8054    218.6718    247.4250   1.1356616570e+02  -9.2167946269e+00    0.3629505    0.1377781 -41.19  0.001659592    3.118    0.679
       497  -8.6821      3.7294     27.8800   1.2268579378e+02   6.8062691877e+01    0.1780906     0.129572 -56.83 0.0007403498    1.604    0.377
       498  -8.6572     91.8743     26.6919   8.9157383652e+01   5.7158998395e+01    0.2293727    0.1747423 -32.03 0.0006782225    1.425    0.298
       499  -8.1966     34.7783     23.2069   1.0778841992e+02   6.6180937207e+01    0.1482837    0.1274066  85.33 0.0009345216    2.680    0.627
       500  -8.8633     81.4633     27.5846   9.2632449799e+01   5.8944610045e+01    0.2348882    0.2078688 -56.17   0.00102898    1.615    0.381
       501  -8.9341     63.5337     21.1849   9.6054579565e+01   6.2684089091e+01    0.2629148    0.1892641 -43.43 0.0009001088    1.832    0.454
       502  -8.7937     48.2281     21.6675   1.0184757903e+02   6.4788025014e+01    0.1893894    0.1621687 -28.25 0.0006105673    1.390    0.280
       503  -7.6864    120.6989     21.3296   7.9792365565e+01   5.1837855314e+01    0.1257944    0.1022307 -71.06 0.0003286987    1.646    0.392
       504  -7.9024     19.5609     21.5405   1.1355079546e+02   6.7901932683e+01    0.1100767   0.08227485 -20.25 0.0001212887    1.023    0.022
       505  -8.8162     74.1259     19.5671   9.1852932270e+01   6.1175981371e+01    0.2204789    0.1762497 -46.21 0.0007638968    1.741    0.426
       506  -8.5600     87.7319     17.4320   8.6854494065e+01   5.8997516759e+01    0.2080635     0.139956 -33.43 0.0005679092    1.657    0.396
       507  -8.3275     38.7252     18.4088   1.0425463929e+02   6.6393817038e+01    0.1409352    0.1374566 -25.05 0.0006997488    1.673    0.402
       508  -7.7582    112.9790     17.0109   8.0085015279e+01   5.3968485812e+01    0.1545213    0.1328798  36.30 0.0003939711    1.002    0.002
       509  -9.1777    175.7523    247.8015   1.2161270860e+02  -2.1189748140e+00    0.3165334    0.2454126  87.14  0.001183042    1.902    0.474
       510  -8.1715     17.0138     14.0539   1.1172213073e+02   6.9195926959e+01    0.1365492    0.1277625 -28.81 0.0006499537    1.652    0.395
       511  -8.7750    156.2080    248.5602   1.2540857479e+02   1.1229087063e+00    0.2473447    0.1792092  77.00 0.0009498616    1.799    0.444
       512  -7.5212    119.7030     11.3650   7.6603208169e+01   5.3058717160e+01    0.1241371    0.0974734 -66.52 0.0007031913    1.720    0.419
       513  -8.9019    132.4324    247.8961   1.2979675943e+02   5.2872447788e+00    0.3283618    0.1832736  65.22 0.0009442243    2.152    0.535
       514  -8.3163    113.0258    248.7970   1.3350798186e+02   8.3414284605e+00     0.209534    0.1426361  88.83  0.000937424    1.664    0.399
       515  -9.1258    104.0043    246.8877   1.3495429262e+02   1.0127293857e+01    0.4179737    0.2018097 -78.76  0.001898355    3.064    0.674
       516  -8.7479    243.1263    246.8963   1.0908990652e+02  -1.2910454484e+01    0.2767638    0.1614716 -28.08  0.001303943    1.799    0.444
       517  -7.9010      7.5999     15.8100   1.1668116294e+02   6.9685089179e+01      0.13346   0.08552267 -46.48 0.0004804629    1.606    0.378
       518  -8.9746    232.9053    247.1658   1.1095024315e+02  -1.1407564755e+01    0.2552649    0.2056333 -38.81  0.001157524    1.594    0.373
       519 -10.1261    224.1818    244.5657   1.1209739163e+02  -9.7133917905e+00     0.441211    0.2451809 -45.70  0.001743406    2.392    0.582
       520  -9.0464    210.9202    246.5236   1.1484393594e+02  -7.8450796771e+00     0.247628    0.1775949 -57.72 0.0009338192    2.179    0.541
       521  -9.0295    147.0638    245.9715   1.2679052615e+02   3.1181198395e+00    0.2845201    0.1937733  76.54  0.001491086    1.933    0.483
       522  -8.2810    146.3452    239.7915   1.2609420313e+02   4.2858188504e+00    0.3405043    0.2081761 -87.74  0.001362525    2.990    0.666
       523  -9.0212    119.7709    244.8822   1.3180470784e+02   7.9266765522e+00    0.3827265    0.2163848 -89.53  0.001780968    2.826    0.646
       524  -8.5909     10.3691    245.5783   1.5072150257e+02   2.2814310861e+01    0.2018044   0.06771569  87.34 0.0009498497    3.190    0.686
