#   1 NUMBER                 Running object number                                     
#   2 MAG_AUTO               Kron-like elliptical aperture magnitude                    [mag]
#   3 X_IMAGE                Object position along x                                    [pixel]
#   4 Y_IMAGE                Object position along y                                    [pixel]
#   5 X_WORLD                Barycenter position along world x axis                     [deg]
#   6 Y_WORLD                Barycenter position along world y axis                     [deg]
#   7 A_WORLD                Profile RMS along major axis (world units)                 [deg]
#   8 B_WORLD                Profile RMS along minor axis (world units)                 [deg]
#   9 THETA_WORLD            Position angle (CCW/world-x)                               [deg]
#  10 FWHM_WORLD             FWHM assuming a gaussian core                              [deg]
#  11 ELONGATION             A_IMAGE/B_IMAGE                                           
#  12 ELLIPTICITY            1 - B_IMAGE/A_IMAGE                                       
         1 -11.0326    122.8492     11.8590   1.1845864580e+01   5.2470011673e+01    0.1790178    0.1517763 -76.94 0.0002690775    1.233    0.189
         2 -11.9200     89.6868     11.3478   1.8921180546e+01   6.0741108589e+01     0.204685    0.1548795 -71.08 0.0007977881    1.735    0.424
         3 -11.6847     85.4417     10.2819   1.9591851874e+01   6.1849238023e+01    0.1761677    0.1247691 -36.77 0.0009392788    1.572    0.364
         4 -11.6230     92.3661      8.1813   1.6773068829e+01   6.0417224228e+01    0.1845944    0.1198585 -35.34 0.0007001355    1.695    0.410
         5 -12.1526     33.3619      7.7542   3.9695441345e+01   7.2532139606e+01    0.2117166    0.1821757   6.70 0.0003913833    1.071    0.066
         6 -10.6575    215.4418      2.5243   3.5901468554e+02   3.0621300723e+01    0.1214937    0.1018572 -66.85  7.70042e-05    1.043    0.041
         7 -10.4686    136.7301      1.2845   5.8628479718e+00   4.9862164511e+01    0.1325532   0.09275798 -65.24            0    1.498    0.333
         8 -10.5344    226.2967    246.3102   4.8605830296e+01  -5.2065682142e+00    0.1118537    0.0650662   2.62 0.0001907558    1.595    0.373
         9 -12.5187    245.8715    249.8352   4.5928398795e+01  -7.7526143579e+00    0.2467529    0.1551607  35.14  0.001740631    1.916    0.478
        10 -12.2665    139.6252    248.2572   6.4896419833e+01   5.6713619591e+00    0.2849399    0.1773802 -51.77  0.001647464    2.074    0.518
        11 -12.1017    124.3278    250.3151   6.8177344347e+01   7.4282351555e+00    0.2069852    0.1333583  20.94   0.00125268    1.510    0.338
        12 -12.1524     60.1794    249.1616   8.0998154948e+01   1.5814722035e+01    0.1758183    0.1397788  48.76 0.0005777128    1.056    0.053
        13 -11.3999     56.3618    249.3776   8.1772106584e+01   1.6222488612e+01    0.1758323   0.08134446 -53.85 0.0009266276    2.952    0.661
        14 -11.1845     44.7694    250.7590   8.4137325954e+01   1.7293529831e+01    0.1516833   0.06856015  39.25 0.0002604115    1.629    0.386
        15 -15.1043     37.4008    227.8301   8.4308404163e+01   2.2315647554e+01     2.409483     1.314003 -35.81   0.01098855    4.101    0.756
        16 -13.5659      1.8316    204.6262   9.0748829119e+01   3.0425422679e+01    0.5660688    0.1716111 -88.94  0.002455828    3.234    0.691
        17 -13.3919     21.8603    217.4605   8.7024755868e+01   2.5972120794e+01    0.3951025    0.2307525  61.94  0.002058878    1.416    0.294
        18 -15.0625     17.3779    211.2179   8.7675061770e+01   2.7676862362e+01    0.9844914     0.506793  49.04  0.005749017    1.531    0.347
        19 -14.0530      2.3014    218.7047   9.1161761401e+01   2.7523744115e+01    0.3516451    0.1798368  83.18  0.002122091    1.744    0.427
        20 -14.9791      7.9084    249.0474   9.1077414461e+01   2.1338872623e+01    0.8867915     0.308654  25.67  0.004388722    3.163    0.684
        21 -15.6019     15.0950    226.5153   8.8855955022e+01   2.4834669840e+01    0.7179424    0.5962757  31.01  0.005357258    1.387    0.279
        22 -16.2135     12.7058    238.5331   8.9808489460e+01   2.2787125025e+01     1.240759    0.8430766  -7.43   0.00746647    2.871    0.652
        23 -15.9532      5.5313    230.7661   9.0929864243e+01   2.4900454042e+01     1.076994    0.4810085  68.26  0.006261215    1.899    0.473
        24 -11.9214     83.9519    250.6886   7.6343616315e+01   1.2655568352e+01    0.2645245   0.08949997  31.57  0.001189603    2.508    0.601
        25 -11.0813    168.8069    244.9025   5.8773472487e+01   2.2008641099e+00    0.1436736     0.123724  36.69 0.0004433671    1.336    0.252
        26 -11.4957    102.4941    246.4718   7.2202702684e+01   1.0957139577e+01    0.1202219   0.09443659  37.85 0.0002044508    1.018    0.018
        27 -11.9676     39.6577    242.6601   8.4696116163e+01   1.9292743658e+01    0.2148529    0.1412578  39.00 0.0005235084    1.262    0.207
        28 -12.7601     40.5835    238.6201   8.4282460843e+01   1.9930367089e+01    0.3802075    0.2280594  80.77  0.002392834    1.694    0.410
        29 -11.5918    143.0483    242.2327   6.3492631732e+01   6.1048483667e+00    0.2415702     0.119539  29.60 0.0006868613    1.692    0.409
        30 -12.6909    148.0162    239.0550   6.2098391250e+01   5.8953835606e+00      0.30065    0.1644306  26.04 0.0006999499    1.616    0.381
        31 -11.2020    198.7652    241.0539   5.2647049903e+01  -1.2286191604e+00    0.2078725    0.1252819  48.23  0.001152056    2.526    0.604
        32 -11.1958    187.0033    241.2073   5.4828998371e+01   2.7790357577e-01    0.1574955    0.1164481  19.34  0.001074094    1.051    0.049
        33 -12.2541    107.1681    240.8070   7.0674078738e+01   1.1271495424e+01    0.1908785    0.1735966 -63.43 0.0007606417    1.368    0.269
        34 -13.5049    103.6409    237.2593   7.1044606235e+01   1.2351867152e+01    0.3384011    0.2775253  25.00  0.001232109    1.194    0.162
        35 -11.6497     36.0512    245.7010   8.5571995147e+01   1.9133387171e+01     0.414883   0.07559191  49.02  0.001651186    3.619    0.724
        36 -10.8823    239.6554    239.2928   4.5362506452e+01  -5.9497942470e+00   0.09154423   0.07922211  23.11 0.0002935115    1.662    0.398
        37 -12.1528     47.6407    237.3990   8.2769334988e+01   1.9370537576e+01    0.3225932    0.1721841  60.35  0.001005704    1.687    0.407
        38 -11.0920     79.7416    237.3633   7.6083600526e+01   1.5494980866e+01    0.1606685   0.09770253  29.91 0.0009258341    1.495    0.331
        39 -10.8772     55.1379    236.7908   8.1182085868e+01   1.8619810474e+01    0.1386403    0.1270538  30.90  0.000336724    1.302    0.232
        40 -11.7135    177.0437    235.6905   5.5934708732e+01   2.3620599486e+00     0.178462    0.1476922   0.55 0.0005385304    1.149    0.130
        41 -11.1439    137.2587    235.9590   6.3894663570e+01   7.8863242193e+00    0.1559688    0.1398864  24.47  0.001090074    1.123    0.109
        42 -12.1665    122.2336    236.0210   6.7013181728e+01   9.9913862692e+00    0.2376959    0.1211711  42.60  0.001047257    1.667    0.400
        43 -12.0086     71.2791    236.0707   7.7754596045e+01   1.6798806948e+01    0.2244608     0.151119  32.55 0.0005069943    1.327    0.246
        44 -13.0395     73.5152    230.2604   7.6791940307e+01   1.7589010736e+01    0.3421912    0.2081474 -69.20 0.0009054969    1.902    0.474
        45 -10.9026    210.6551    235.6891   4.9732114510e+01  -2.0673240327e+00     0.121102   0.07164081   4.41 0.0006010802    1.705    0.413
        46 -11.2715     57.1315    232.1615   8.0436524668e+01   1.9247315371e+01    0.1912131    0.1596185   3.93 0.0005847368    1.631    0.387
        47 -11.6070     62.6517    233.9261   7.9402916899e+01   1.8255096048e+01    0.2023299    0.1045696  87.34 0.0007534015    2.509    0.601
        48 -11.3795     61.8485    230.6995   7.9325829904e+01   1.8956557449e+01    0.2908058    0.1114184  36.38  0.001406094    2.030    0.507
        49 -10.7065    158.4704    233.4902   5.9270433939e+01   5.2664003291e+00    0.1231709   0.09898933  23.92 0.0002042406    1.018    0.018
        50 -11.7856    181.8092    231.6104   5.4436741071e+01   2.2792258146e+00    0.2237928    0.2138383  76.00  0.001612623    1.640    0.390
        51 -12.1933    178.2761    228.6092   5.4678143392e+01   3.1953208268e+00    0.1922651    0.1657528  11.97 0.0003174695    1.124    0.110
        52 -13.2768    237.4134    220.2042   4.2749314997e+01  -3.4850190532e+00    0.3187576    0.2200197 -21.17  0.002223427    1.309    0.236
        53 -12.3235    232.0842    227.2603   4.4754788374e+01  -3.6870863208e+00    0.4289292    0.1861708 -21.31  0.002186562    2.584    0.613
        54 -12.7442    232.9750    220.2149   4.3484509223e+01  -2.9440348362e+00    0.2383093    0.1951802  -8.34 0.0003816617    1.232    0.188
        55 -11.2303    194.0180    228.7090   5.1702021586e+01   1.0134076482e+00    0.1725665    0.1283456  20.53 0.0008240125    1.098    0.089
        56 -11.9005    149.6307    229.2822   6.0489942942e+01   7.1767095330e+00    0.1841065    0.1366971  58.01  0.001092209    1.768    0.434
        57 -10.8372    139.4662    229.5856   6.2629396745e+01   8.5948111415e+00    0.1256796    0.1013095  28.37 4.006206e-05    1.015    0.015
        58 -13.2367    116.1901    225.4070   6.7047544573e+01   1.2662732507e+01      0.25967    0.1616863  37.25 0.0006543777    1.319    0.242
        59 -13.2232     92.2405    225.4595   7.2270506570e+01   1.6014464753e+01    0.3901105    0.2204209  76.43  0.001842307    2.774    0.639
        60 -12.5628    128.9996    225.9565   6.4366324909e+01   1.0715341622e+01    0.2788777    0.1757837 -44.21  0.001053959    1.890    0.471
        61 -12.7049    100.1756    225.9782   7.0591606910e+01   1.4825737156e+01    0.2266245    0.1658776  73.71  0.001351854    1.636    0.389
        62 -12.5921    105.9631    226.0565   6.9340305849e+01   1.4001653857e+01    0.1894823     0.146545  -0.40 0.0009095693    1.664    0.399
        63 -13.5349     86.6920    221.0548   7.3041657694e+01   1.7598869739e+01      1.06153    0.6005606  -7.97  0.003098075    7.886    0.873
        64 -12.6144     80.2826    222.3456   7.4592230166e+01   1.8209887124e+01    0.2820116    0.2091181 -49.51 0.0008857538    1.676    0.403
        65 -12.8861     77.3111    219.8255   7.5010299567e+01   1.9088874594e+01    0.3506999    0.2369033  50.63  0.001970368    1.272    0.214
        66 -10.9265    222.4524    225.5261   4.6112900774e+01  -2.2897038699e+00    0.1156206   0.08810811   4.94  0.000133383    1.018    0.017
        67 -11.3601     68.0820    224.4669   7.7472049944e+01   1.9375657039e+01    0.1754228     0.162376 -65.69 0.0006006288    1.321    0.243
        68 -13.0477    246.1771    220.6395   4.1403846556e+01  -4.5790373362e+00    0.2589796    0.1665105  -8.02 0.0004485156    1.286    0.223
        69 -11.1367    211.7612    223.0107   4.7587383080e+01  -5.9491529330e-01    0.1449515   0.08963686 -30.52 0.0008865499    1.630    0.387
        70 -12.4330    159.7820    222.3813   5.7447347694e+01   6.7877251943e+00    0.3726839    0.2138365  40.08   0.00160464    1.587    0.370
        71 -12.1418     55.9154    222.8581   8.0002111986e+01   2.1179972534e+01    0.1956254    0.1510067  62.55 0.0002750701    1.132    0.116
        72 -13.2318    124.1601    221.7186   6.4866521384e+01   1.2155885289e+01    0.3892184     0.176109  41.18    0.0018477    1.879    0.468
        73 -12.7272    173.7877    219.3884   5.4181311775e+01   5.2007589720e+00    0.2962815    0.2255682 -40.49  0.001104006    1.537    0.349
        74 -10.7905    223.3720    220.2460   4.5114450272e+01  -1.7432646592e+00    0.1197322   0.07153634   7.73 0.0006943462    1.627    0.385
        75 -11.4986    193.4025    220.1940   5.0508111037e+01   2.2783260914e+00    0.1529562    0.1137842 -43.77 0.0009572089    1.718    0.418
        76 -12.4428    143.1718    205.2122   5.8411493204e+01   1.2200465446e+01    0.3650892    0.1966102  49.34 0.0008412527    2.082    0.520
        77 -13.8645    145.0337    201.1361   5.7374857254e+01   1.2639064425e+01    0.6114278    0.3842714  66.06  0.002670825    2.905    0.656
        78 -12.9310    144.9475    216.9601   5.9757114553e+01   9.8818763399e+00    0.3620542    0.3442032 -49.01  0.002102805    1.290    0.225
        79 -13.6555    140.0641    212.4112   6.0152984512e+01   1.1407022536e+01    0.4762256    0.3606492 -14.01  0.001844804    1.578    0.366
        80 -13.3336    129.9244    216.6696   6.2951292844e+01   1.2192570122e+01    0.2761961    0.2004214 -26.14  0.001089771    1.715    0.417
        81 -11.6832     94.4524    218.4662   7.1034731493e+01   1.7025495398e+01    0.1284974    0.1070348  44.59 2.169371e-05    1.013    0.013
        82 -14.0153    107.6776    214.7094   6.7628647595e+01   1.5850357388e+01    0.4770142    0.3196194  72.92  0.002507968    2.026    0.506
        83 -13.2736    103.8855    206.8775   6.7519049873e+01   1.7918432177e+01    0.5532151    0.2661484  44.39  0.002579653    1.848    0.459
        84 -12.7630     65.3002    215.6405   7.7320536683e+01   2.1463647514e+01    0.3730063    0.2724798  27.38  0.001376303    1.402    0.287
        85 -11.0411    225.9620    216.4766   4.4059862234e+01  -1.5954345467e+00    0.1621293   0.09763188  28.00 0.0003738434    1.493    0.330
        86 -12.4464     84.1350    214.7649   7.2964924406e+01   1.9167861021e+01    0.4357773    0.2130397  58.22  0.001979494    2.384    0.581
        87 -11.4486     79.9732    212.6802   7.3697789104e+01   2.0145917673e+01    0.3080018    0.1846407  48.35  0.001276114    1.451    0.311
        88 -12.5911    247.9343    213.5249   3.9965070290e+01  -3.9465007746e+00    0.2314952    0.2193813 -34.11  0.001064021    1.862    0.463
        89 -11.3972    207.9216    215.3316   4.7046812768e+01   9.4638852564e-01    0.1664965    0.1257253  10.16 0.0004159029    1.080    0.074
        90 -10.7589    176.2680    214.6621   5.2958688424e+01   5.5599853256e+00    0.1104227   0.09851156  61.01 0.0006834435    1.596    0.374
        91 -13.5212    118.9539    213.4728   6.4945517378e+01   1.4415287960e+01    0.4434647    0.1924958  48.22  0.001216173    2.408    0.585
        92 -12.4022    113.9240    210.4979   6.5687205733e+01   1.5725011729e+01    0.2628048    0.1062005  38.77  0.001134188    2.066    0.516
        93 -11.3713    156.4165    213.2088   5.6787218574e+01   8.7736220419e+00    0.2702918    0.1868918 -66.89  0.001174314    2.327    0.570
        94 -13.8392    159.2286    206.2256   5.5119248089e+01   9.5105358520e+00    0.4435736    0.3161825  10.90   0.00122169    1.470    0.320
        95 -13.7599    123.7295    210.5199   6.3484105787e+01   1.4241809228e+01    0.3915663    0.2839153 -86.09  0.001160033    2.025    0.506
        96 -11.1176     75.4960    211.9999   7.4655348013e+01   2.0880670856e+01    0.1701522    0.1240543 -73.65 0.0004093529    1.520    0.342
        97 -11.7765     90.9478    210.1013   7.0894928029e+01   1.9148170753e+01    0.1919378    0.1628955  49.69 0.0003369238    1.038    0.036
        98 -13.3202    228.6977    206.6155   4.1954006483e+01  -6.7533612703e-01     0.323762    0.2973891 -61.01 0.0008165726    1.956    0.489
        99 -11.2470     62.0302    199.2724   7.6559972010e+01   2.5283296987e+01    0.3210658    0.1550212  79.76  0.001307718    3.070    0.674
       100 -13.0209     60.0556    207.7199   7.7814249943e+01   2.3740464794e+01    0.3828176    0.3645418 -83.03  0.002558462    1.226    0.185
       101 -11.0392     64.7817    203.1507   7.6281042951e+01   2.4106007086e+01    0.2317329    0.1561994  30.01 0.0006672862    1.454    0.312
       102 -15.2136      8.0836    216.0840   8.9870420956e+01   2.7540705271e+01    0.8628275    0.4474204  55.57  0.005240357    1.497    0.332
       103 -12.0140    242.2106    208.0695   3.9968715111e+01  -2.5875864093e+00    0.1729032    0.1194701  -4.64 0.0003396587    1.185    0.156
       104 -12.1603    180.0478    208.0043   5.1143961561e+01   6.0282549967e+00    0.2711779    0.1673408  24.93    0.0010626    1.473    0.321
       105 -11.6175     68.2392    207.6333   7.5903767652e+01   2.2723322448e+01    0.2308738    0.1396734  26.19  0.001030138    1.714    0.417
       106 -11.6206     71.6555    206.1084   7.4954755566e+01   2.2594642218e+01    0.2460001    0.1836035  75.44  0.001063899    1.375    0.273
       107 -12.2276     42.6173    206.8512   8.1768112902e+01   2.5980892699e+01      0.40698    0.1430412  42.76  0.001856943    2.212    0.548
       108 -12.4527     35.8744    191.9227   8.2230888525e+01   2.9953657006e+01    0.4625612    0.3053971 -32.35  0.001889356    2.379    0.580
       109 -12.8086     36.4412    203.0693   8.2916015708e+01   2.7462001864e+01    0.4464982     0.237152 -45.60  0.001694124    2.781    0.640
       110 -12.5889     38.2500    197.9628   8.2120960313e+01   2.8367959109e+01    0.3467569    0.2234405  79.84 0.0009263887    1.494    0.331
       111 -10.6947    205.2763    206.2838   4.6031832992e+01   2.5820762915e+00    0.1219579   0.08124287   1.08 0.0001802461    1.508    0.337
       112 -13.3015    116.8295    205.2037   6.4318980384e+01   1.6297697961e+01    0.3018181    0.2411745  88.95  0.001538536    1.590    0.371
       113 -13.8550     82.5229    195.4864   7.1189706137e+01   2.3355336334e+01     1.042649     0.615652  87.65  0.004859038    2.326    0.570
       114 -13.4119     61.8181    177.3107   7.4284520155e+01   3.0227563580e+01    0.5219544    0.2812711  31.12  0.002000446    1.810    0.448
       115 -13.4695     90.1276    201.4211   7.0070953592e+01   2.1025669529e+01    0.6307234    0.3492141 -42.94  0.002398756    2.365    0.577
       116 -14.7667     94.1764    193.6300   6.8119552998e+01   2.2063663170e+01     1.024801    0.5306774  42.53  0.003945459    1.700    0.412
       117 -13.9714     75.6456    185.1943   7.1657198009e+01   2.6570948821e+01     1.014615    0.3395238 -63.98  0.003836994    3.134    0.681
       118 -12.9377     69.1215    186.9250   7.3511721989e+01   2.7073332719e+01    0.6212884    0.2420317  40.56  0.001831877    2.185    0.542
       119 -13.2886     64.8170    183.1079   7.4171104597e+01   2.8504676197e+01    0.5362582    0.4267347  34.59  0.002611673    1.236    0.191
       120 -13.8673     89.8224    183.0991   6.7789780003e+01   2.4990052024e+01    0.5106918    0.3582098 -75.49  0.001176025    1.609    0.379
       121 -13.0404     92.0063    188.0174   6.7909736888e+01   2.3587698351e+01    0.3574595    0.2834106  -8.70  0.000909642    1.687    0.407
       122 -14.5451     93.8862    183.8274   6.6864853511e+01   2.4217146199e+01    0.6222532    0.4663326 -77.75  0.003361796    1.508    0.337
       123 -11.6020    238.9601    204.5339   3.9896371226e+01  -1.7345457609e+00    0.1628814   0.09959664  27.83 0.0004497282    1.544    0.352
       124 -12.3654     50.3446    203.4911   7.9712320153e+01   2.5805397373e+01    0.5500345    0.1675034  30.74  0.002192196    2.948    0.661
       125 -11.8196     50.3204    199.0808   7.9343903826e+01   2.6755741721e+01     0.267665    0.2328282  -3.24  0.001537337    1.534    0.348
       126 -10.9807     50.5367    195.5179   7.8979897562e+01   2.7507105293e+01    0.1896767    0.1000536  43.28 0.0008497925    1.611    0.379
       127 -14.0311    120.8697    200.6403   6.2750764243e+01   1.6556015669e+01    0.5296143    0.2952886  63.72  0.002152892    3.032    0.670
       128 -13.5321    122.3689    196.0702   6.1735321950e+01   1.7213458083e+01    0.3756546    0.2739443  59.20  0.001612525    1.560    0.359
       129 -11.9430    110.1890    203.1870   6.5577635501e+01   1.7702198645e+01    0.1855771    0.1425979  57.10 0.0002533782    1.337    0.252
       130 -11.1208     98.4663    202.0191   6.8170278533e+01   1.9690174584e+01    0.1738113    0.1319655 -61.33 0.0004762756    1.482    0.325
       131 -13.2268    136.4352    200.3228   5.9159857237e+01   1.4158457135e+01    0.3218063      0.21881 -85.01 0.0009921596    2.657    0.624
       132 -11.7255    212.0627    199.5564   4.3645565126e+01   2.5759091045e+00    0.2062752    0.1681483 -41.50 0.0008877073    1.567    0.362
       133 -11.4880     44.1899    199.6768   8.0849085391e+01   2.7335711082e+01    0.2197391    0.1446729  86.43  0.001261296    1.508    0.337
       134 -12.9471    219.5110    198.2789   4.2100738015e+01   1.7014212913e+00    0.2350081    0.1866809 -11.16 0.0004298622    1.097    0.088
       135 -12.3699    180.3074    197.9910   4.9420663987e+01   7.5810888661e+00    0.2473929    0.2379527  68.06  0.001116119    1.434    0.303
       136 -12.1316    176.3833    198.6944   5.0332853764e+01   8.0808098270e+00    0.2159635    0.1856556  61.08 0.0007283418    1.614    0.380
       137 -13.1115    173.0216    195.6040   5.0493577848e+01   9.1252535099e+00    0.2685867    0.2387409  25.62 0.0004494043    1.130    0.115
       138 -12.4561    166.3658    196.4536   5.2022008906e+01   1.0046220956e+01    0.2414822    0.2089121   9.44 0.0004426834    1.046    0.044
       139 -13.7007    160.6181    191.2602   5.2359199218e+01   1.1887072533e+01    0.4912927    0.3106695  52.87  0.002134122    1.981    0.495
       140 -13.7481    151.9227    195.4428   5.4949411677e+01   1.2559115537e+01    0.5540873    0.2369395  36.10  0.002201566    2.098    0.523
       141 -13.2227    109.9381    196.6568   6.4742111478e+01   1.9045928085e+01    0.3561025     0.228173  16.18  0.001419563    1.947    0.487
       142 -10.8395     30.4500    197.4618   8.3922673532e+01   2.9302902135e+01    0.1203172    0.1045817  67.02 0.0003835104    1.085    0.078
       143 -12.2029     26.1081    196.5403   8.4878935815e+01   2.9942988308e+01     0.207388    0.1565351 -75.84  0.000360289    1.357    0.263
       144 -12.3913    201.9783    195.8949   4.4854785955e+01   4.5893912404e+00    0.2149509    0.1652136 -24.58  0.001054159    1.257    0.205
       145 -13.7123    190.4522    194.2992   4.6773341386e+01   6.5922252756e+00    0.4974763     0.339015  40.25  0.001887347    1.514    0.340
       146 -11.1041     69.6922    193.9283   7.4150043541e+01   2.5449185413e+01    0.1695462    0.1477601  80.17 0.0002701451    1.130    0.115
       147 -14.5227      6.8569    197.5747   8.9350844720e+01   3.1493649224e+01     0.931802    0.5856593  61.27  0.005891403    1.284    0.221
       148 -11.3642    212.3987    193.2237   4.2470996136e+01   3.4429735053e+00    0.1636516    0.1109914 -40.99 0.0009457358    1.666    0.400
       149 -13.4661    133.9254    190.3024   5.8158578035e+01   1.6473488755e+01    0.3706217     0.231996  23.27  0.001790608    1.701    0.412
       150 -12.5789     50.8303    189.9204   7.8398242883e+01   2.8713058544e+01    0.3399119      0.23044  15.50  0.001134816    1.855    0.461
       151 -11.8017     26.8246    189.1003   8.4214570052e+01   3.1515866235e+01    0.3976159    0.2540989 -84.47  0.002317777    1.477    0.323
       152 -12.6545     26.1048    183.1953   8.3976676005e+01   3.2920494361e+01     0.453199    0.1748586  32.82  0.002094144    2.298    0.565
       153 -13.4924     11.8131    188.6770   8.7773997766e+01   3.3007375828e+01    0.4353703    0.3587494 -41.52  0.002027191    1.632    0.387
       154 -12.2835     18.9767    187.0143   8.5971895544e+01   3.2735368977e+01    0.4925753     0.179407  34.68  0.002069249    2.315    0.568
       155 -14.1244      5.5138    183.4045   8.8995436701e+01   3.4710355777e+01    0.6746167    0.4094039  23.02  0.003970591    1.850    0.459
       156 -14.1796    118.4668    179.8904   6.0148793659e+01   2.1143818203e+01     0.512391    0.3868079  62.46  0.001244274    1.515    0.340
       157 -13.9075    121.8634    186.9193   6.0453148485e+01   1.9128354030e+01    0.3827568     0.364042  48.86  0.001504905    1.079    0.074
       158 -13.9989    127.8573    185.9993   5.8881136466e+01   1.8327483500e+01    0.3818508    0.3243068 -29.66   0.00195867    1.307    0.235
       159 -14.3482    111.2589    187.6103   6.3115275254e+01   2.0698864998e+01    0.7425935    0.2907939  39.59  0.002964075    2.240    0.554
       160 -13.3658    209.0743    185.3591   4.1650485865e+01   5.1105740325e+00    0.5253627    0.2611329 -16.85  0.001634543    2.966    0.663
       161 -11.9845     43.3028    186.7442   7.9981160852e+01   3.0300710401e+01    0.2203198    0.1629131  67.27 0.0006922742    1.216    0.177
       162 -11.8623    247.5716    185.7553   3.5234592541e+01  -4.1833893088e-01    0.2113807    0.1429546  23.52  0.001369648    1.444    0.307
       163 -11.9346    194.2944    186.5826   4.4646714619e+01   7.2172631867e+00    0.2448752    0.1166227  41.55  0.001013019    2.127    0.530
       164 -12.3695    163.8462    184.9323   5.0557351923e+01   1.2482995943e+01     0.261375    0.2176734 -53.28   0.00102699    1.445    0.308
       165 -12.3832    156.8829    185.8259   5.2227109428e+01   1.3491316997e+01    0.2179271    0.1774049   4.89  0.001232365    1.257    0.204
       166 -13.2938     39.0972    181.6521   8.0594528158e+01   3.1930043085e+01    0.3473231    0.2816644   5.99  0.002089194    1.606    0.377
       167 -11.5586     37.7657    177.9205   8.0608548410e+01   3.2937917989e+01    0.2114016    0.1785988 -27.37 0.0009171178    1.576    0.365
       168 -12.5849     49.7260    182.8409   7.8000183746e+01   3.0448083894e+01    0.3424518    0.2015738  52.33  0.001522266    1.547    0.353
       169 -12.8296    201.8638    182.4913   4.2453660802e+01   6.6708855827e+00    0.2569722    0.2077726  18.70 0.0003734574    1.133    0.117
       170 -11.4728    198.2651    180.3197   4.2728250482e+01   7.5878784060e+00    0.1841172    0.1548498  19.81 0.0001938583    1.118    0.106
       171 -12.1333    167.6841    182.4463   4.9288829714e+01   1.2282185559e+01    0.2359932    0.1231108 -42.30  0.001081466    2.013    0.503
       172 -12.4932    142.0808    181.0673   5.4724229275e+01   1.6908960921e+01    0.2109517     0.191769  25.92 0.0003757249    1.006    0.006
       173 -11.6163    246.2168    179.7505   3.4355428269e+01   5.5914807148e-01    0.1638884    0.1134412  -2.92 0.0004200974    1.322    0.244
       174 -14.3188    106.1103    176.7202   6.2718716687e+01   2.3853994964e+01    0.4201047    0.3746471 -78.55  0.001643559    1.217    0.179
       175 -11.2502     17.0593    179.3450   8.5960145270e+01   3.4648020297e+01    0.3078288    0.1237784  55.50  0.001038576    2.263    0.558
       176 -11.6414     16.9803    175.3021   8.5718337226e+01   3.5586426427e+01    0.2095232    0.1408001  81.54 0.0004033026    1.313    0.239
       177 -11.3631    170.3080    178.3150   4.7971696436e+01   1.2575704444e+01    0.1406768    0.1008587  -0.36 0.0002593285    1.629    0.386
       178 -14.5453    126.8830    166.7057   5.5792621282e+01   2.2496527416e+01    0.5310199    0.4234194   1.16  0.002523456    1.507    0.336
       179 -15.1040    127.1202    173.6758   5.6981673771e+01   2.0982128686e+01    0.9498591    0.6069083 -88.83  0.003667639    3.103    0.678
       180 -12.6645     22.9946    175.8557   8.4229970070e+01   3.4908772936e+01     0.460683      0.34137 -63.69  0.002813245    1.433    0.302
       181 -11.6517     21.1360    149.1700   8.2582216278e+01   4.1486626409e+01    0.2592511    0.1851252 -30.30 0.0009960212    1.853    0.460
       182 -15.3736     14.4625    140.1563   8.3745805152e+01   4.4271963792e+01     1.312143    0.5465499 -80.96   0.00575858    2.202    0.546
       183 -13.4339     12.6062    167.0671   8.6300622803e+01   3.7886104903e+01    0.7230224    0.3736739 -87.48  0.003737365    1.761    0.432
       184 -12.2551     28.5306    171.4878   8.2461726865e+01   3.5399223649e+01    0.3545946    0.2134604 -77.04   0.00191492    1.556    0.358
       185 -12.0829     31.2023    167.8221   8.1442448698e+01   3.6003503185e+01     0.234695    0.1819074  61.37 0.0006183568    1.149    0.130
       186 -12.6348      4.3917    159.5878   8.7994153564e+01   4.0295638766e+01    0.4093154    0.2782116   5.32  0.001783383    1.969    0.492
       187 -13.6846      3.7144    152.4897   8.7745982886e+01   4.2041035772e+01    0.8561314    0.2315237 -64.47  0.003394146    3.108    0.678
       188 -12.6010      9.2250    146.8147   8.5815615106e+01   4.3023379581e+01    0.2488441    0.2156175  78.80 0.0007267062    1.041    0.039
       189 -11.5585      7.6871    177.6708   8.8175061597e+01   3.5829712990e+01    0.2827676    0.1296332  48.04  0.001467403    1.851    0.460
       190 -12.6193      3.2145    175.4370   8.9156355337e+01   3.6692025866e+01    0.4168488    0.2378906 -86.50  0.002051676    1.536    0.349
       191 -11.6775      6.9214    172.7814   8.8097463462e+01   3.7012767831e+01    0.2192487    0.1457071  19.82  0.001050606    1.769    0.435
       192 -14.2705    149.1312    175.4374   5.2098359094e+01   1.6787677200e+01    0.7164385    0.3799941  52.26  0.002674771    2.349    0.574
       193 -13.0423    137.6116    176.8847   5.5031276349e+01   1.8508423810e+01    0.2651529    0.2259468  33.72 0.0002439238    1.083    0.076
       194 -11.1794     53.6829    177.3928   7.6423074667e+01   3.1231528978e+01    0.2228262     0.128763  57.83  0.001088548    1.704    0.413
       195 -12.2217    247.9578    175.9916   3.3395835112e+01   8.2870251762e-01     0.179023    0.1414309 -12.35 0.0002959983    1.029    0.028
       196 -11.9652     20.4912    197.2450   8.6227683367e+01   3.0336289475e+01    0.3705699    0.1523778 -68.82  0.001352685    2.371    0.578
       197 -11.9566    187.9306    176.3037   4.3977880196e+01   9.9417847084e+00     0.188686    0.1574469  17.57 0.0003529742    1.099    0.090
       198 -12.3234    101.1342    175.8567   6.3850283360e+01   2.4844513670e+01    0.1794694    0.1628976  -8.60  0.001020872    1.271    0.213
       199 -12.1798    224.8526    175.3584   3.7005315327e+01   4.2185988771e+00    0.2466964    0.2165741  64.49  0.001353053    1.811    0.448
       200 -14.5173     83.4576    166.2251   6.7034965250e+01   2.9791742950e+01    0.5750694    0.4498314 -11.51  0.002896662    1.736    0.424
       201 -14.2012     90.3865    172.1255   6.6070530673e+01   2.7370624755e+01      0.57554    0.3513571 -51.20  0.001186939    1.762    0.433
       202 -14.2146     91.8266    166.1833   6.4774253805e+01   2.8512508744e+01    0.5837352    0.2680112  48.92 0.0003058682    2.272    0.560
       203 -12.0070    208.2328    173.6271   3.9600183472e+01   7.0551712454e+00    0.1833647    0.1114198  26.72 0.0009482661    1.672    0.402
       204 -13.1079     77.4677    171.5043   6.9405376088e+01   2.9440235529e+01    0.3343853    0.2225309 -88.18  0.001504572    1.763    0.433
       205 -13.4857     72.0000    167.1055   7.0274689505e+01   3.1251430263e+01    0.4953479      0.17779 -61.19  0.001765091    2.735    0.634
       206 -12.8167    100.3220    171.2274   6.3332881537e+01   2.6007907498e+01    0.2433903    0.1901794 -77.45 0.0007969621    1.442    0.307
       207 -13.9491     61.7411    170.7274   7.3523776188e+01   3.1780740980e+01    0.4111213    0.3320896  83.31  0.002203423    1.210    0.173
       208 -11.9689     41.3268    172.0161   7.9131231402e+01   3.3935254859e+01    0.1856104    0.1555811  86.15 0.0008339392    1.099    0.090
       209 -11.6524    235.1634    170.9927   3.4470576932e+01   3.3257599059e+00    0.2186746    0.1262103  -9.00  0.001103722    2.071    0.517
       210 -11.7535    197.4909    170.4692   4.0992631694e+01   9.3190851472e+00    0.2350325    0.1166379 -28.08  0.001026467    2.223    0.550
       211 -13.3504    152.9719    169.9217   5.0193739884e+01   1.7182699244e+01    0.3600869     0.311285 -40.49 0.0006969653    1.221    0.181
       212 -14.7938    155.8067    165.7658   4.8750085622e+01   1.7482478084e+01    0.9002842    0.3719444  43.19  0.002533064    2.370    0.578
       213 -10.9626    231.3165    170.6990   3.5040625677e+01   3.9348421450e+00    0.1090314   0.09876943 -56.06  0.000224715    1.617    0.382
       214 -13.4838     53.9984    168.2401   7.5323752683e+01   3.3353203577e+01    0.4715796    0.2101327  35.37  0.002071999    2.053    0.513
       215 -12.0599     50.4757    165.0427   7.5920183818e+01   3.4548749707e+01    0.2551437    0.1809409 -82.68 0.0006669119    1.382    0.276
       216 -14.5605     47.4392    161.2113   7.6324674192e+01   3.5836517626e+01    0.7065966    0.3988995  53.99  0.003402035    1.743    0.426
       217 -12.9717    200.5770    165.8036   3.9490200800e+01   9.5721301317e+00    0.4023037    0.2262658  51.71   0.00185718    2.348    0.574
       218 -11.1979    184.0000    166.0502   4.2771274049e+01   1.2381441017e+01    0.2242345   0.07556392 -41.39 0.0003359871    2.969    0.663
       219 -12.9578    212.3014    163.8984   3.6966933447e+01   7.9337540012e+00    0.2594032    0.2243247 -27.74 0.0005050731    1.173    0.148
       220 -13.0213    110.8977    165.1111   5.9562750976e+01   2.5624486480e+01    0.2745979    0.1974075  29.80  0.001319852    1.392    0.282
       221 -13.6690     64.8707    163.8869   7.1798521337e+01   3.2998832294e+01    0.3423628    0.1905169  30.30  0.001463667    1.811    0.448
       222 -13.7124     37.7572    161.5215   7.9058060873e+01   3.6842543305e+01    0.4552815    0.3309326  21.81  0.002540153    1.562    0.360
       223 -11.9123     32.4992    157.9824   8.0172873391e+01   3.8251010910e+01    0.3530296    0.1745134  68.91  0.001210088    2.284    0.562
       224 -12.4103     28.9905    156.4673   8.1014033529e+01   3.8968593942e+01    0.3416012    0.2450088  58.35  0.001638553    1.294    0.227
       225 -11.9413     26.0077    153.9960   8.1626612636e+01   3.9858331252e+01    0.2493581    0.2192544 -18.79  0.001125926    1.447    0.309
       226 -14.4385     26.5016    148.5540   8.0965267297e+01   4.1156274267e+01    0.6921748    0.4747326  81.98  0.003421607    1.374    0.272
       227 -12.8287     24.8849    162.0155   8.2648385665e+01   3.8010738475e+01    0.4164795    0.3768051  24.97  0.002713334    1.291    0.225
       228 -15.4586     78.5730    154.4879   6.6574111233e+01   3.3323650196e+01    0.9661363    0.6550403  89.78  0.002545712    1.778    0.438
       229 -13.7634     84.5033    149.7901   6.4099616364e+01   3.3550786542e+01    0.5213423    0.2947733 -46.13  0.002048097    1.946    0.486
       230 -14.0864     82.8984    145.2875   6.3777793463e+01   3.4897995376e+01    0.4598459    0.3749938  38.30  0.002420561    1.208    0.172
       231 -13.7817    130.4798    169.4857   5.5414703696e+01   2.1274048077e+01    0.4244676    0.3141224  23.66  0.001689412    1.404    0.288
       232 -13.4595    169.7507    159.1978   4.4359263810e+01   1.6189627206e+01    0.3534439    0.3034355  81.19  0.001907274    1.605    0.377
       233 -13.5704     95.9124    158.0047   6.2319425997e+01   2.9760163610e+01    0.3755679    0.2775096 -40.07 0.0007648127    1.539    0.350
       234 -12.6867    135.2963    158.6916   5.2194497883e+01   2.2681427476e+01    0.2302854    0.1856377  37.40 0.0004276639    1.182    0.154
       235 -12.6935    105.1381    158.4150   5.9895252325e+01   2.8122219119e+01    0.2798582    0.2213811 -71.58  0.001018009    1.395    0.283
       236 -13.5350    117.7039    157.6854   5.6445615435e+01   2.6094886613e+01    0.3179055    0.2439065  -8.27  0.001525905    1.717    0.417
       237 -12.6038     20.3362    154.9181   8.3308699764e+01   4.0145057048e+01    0.3521716     0.184531 -66.47  0.001769791    1.760    0.432
       238 -12.6955    190.7979    155.6812   3.9312250235e+01   1.2993075307e+01    0.2737925    0.1859093 -48.82  0.001142622    1.666    0.400
       239 -14.3327     62.7728    153.3038   7.0935274220e+01   3.5856348940e+01    0.5315772    0.3392364 -69.40  0.002063359    1.555    0.357
       240 -11.6568    141.4702    155.5125   5.0057050772e+01   2.2201742324e+01    0.1458451    0.1395921  28.44 9.858848e-06    1.026    0.025
       241 -12.0495    237.5624    153.9010   3.0769237146e+01   5.4436159872e+00    0.2440064    0.1675677  24.14  0.001104679    1.557    0.358
       242 -12.3139    212.0424    153.2559   3.4862348773e+01   9.6807203351e+00    0.2343178     0.159563 -45.68 0.0004778541    1.603    0.376
       243 -13.1936     88.5960    153.1103   6.3507676304e+01   3.2103014910e+01    0.2903122    0.2546127 -35.34 0.0008730981    1.284    0.221
       244 -13.3939    172.0189    151.3000   4.2228689243e+01   1.7254594605e+01    0.4609776    0.2550229 -57.27  0.001841885    2.616    0.618
       245 -12.9255    167.6332    150.5650   4.3016701837e+01   1.8226937967e+01    0.2769001    0.2595229 -82.70  0.001390506    1.296    0.228
       246 -12.5552     50.9701    153.0094   7.4323585182e+01   3.7432131722e+01    0.2726811    0.1846654  39.88 0.0003507698    1.426    0.299
       247 -13.1907     54.9243    150.5035   7.2835891657e+01   3.7567038573e+01    0.2998361    0.2322456  43.06  0.001231805    1.255    0.203
       248 -13.4733     57.3797    144.1115   7.1195755525e+01   3.8851066077e+01    0.4168015    0.2549728 -42.81 0.0006346259    1.922    0.480
       249 -11.9653    249.2005    151.9394   2.8631894732e+01   3.9746256243e+00    0.1815368    0.1562876  -4.21 0.0003226905    1.118    0.106
       250 -11.8118    224.8430    152.1348   3.2450049873e+01   7.7244199591e+00    0.1822864    0.1358511  -7.28 0.0002924127    1.326    0.246
       251 -13.6361    133.3954    151.1847   5.1158354365e+01   2.4639617079e+01    0.3374214    0.3029763 -22.56  0.001493009    1.177    0.150
       252 -13.4981    108.9006    149.3503   5.7189156169e+01   2.9555442550e+01    0.4261173    0.3156131 -45.92 0.0009739009    1.417    0.294
       253 -12.9217     69.3347    151.2591   6.8726508157e+01   3.5457259715e+01    0.2464778    0.2009461  44.16 0.0006936634    1.185    0.156
       254 -13.2970     96.0110    149.0125   6.0690559984e+01   3.1864995190e+01    0.3550445    0.2577569 -36.27  0.001324497    1.613    0.380
       255 -12.2703    146.9815    148.7959   4.7342314600e+01   2.2549591079e+01    0.2491589    0.2127407 -42.64 0.0003555905    1.201    0.168
       256 -14.1165     40.1646    148.5731   7.6947538425e+01   3.9775778830e+01    0.6230757    0.4133166  -2.92  0.003009134    2.227    0.551
       257 -13.8779    119.2605    144.3965   5.3405109094e+01   2.8798956179e+01    0.5078253    0.3751106  85.30  0.002291427    1.899    0.473
       258 -12.6112    123.0020    143.5205   5.2231764031e+01   2.8292052650e+01    0.2610695      0.21945 -57.01 6.072981e-05    1.248    0.199
       259 -12.8282    151.4743    145.6471   4.5606525860e+01   2.2325114853e+01    0.2706526    0.2574655  21.21 0.0002990567    1.019    0.019
       260 -13.8763    102.0652    142.6948   5.7774923860e+01   3.2321545403e+01    0.6331021    0.3987934  65.31  0.002608309    2.164    0.538
       261 -13.3562     70.5618    143.0143   6.7045591483e+01   3.7321801847e+01     0.340953    0.2677898 -58.23 0.0004596042    1.272    0.214
       262 -11.4493    210.6821    143.2966   3.3018150284e+01   1.1541829001e+01    0.1252896    0.1071145 -69.20 0.0004172684    1.611    0.379
       263 -12.7542     51.0908    142.8794   7.2927472346e+01   3.9948598151e+01    0.3034534    0.2204341  45.48  0.001154629    1.347    0.257
       264 -12.0093    222.4898    140.5638   3.0443209613e+01   9.9238694496e+00    0.2948434    0.2102794 -54.60  0.001219646    1.793    0.442
       265 -12.2490    178.6777    142.4083   3.8909398988e+01   1.7647679485e+01    0.3321028    0.1788847  49.35  0.001416893    2.035    0.509
       266 -12.5281     12.2652    149.6117   8.5159846489e+01   4.2108674287e+01     0.251085    0.2065729  64.21 0.0005674553    1.113    0.101
       267 -13.1319     95.0991    140.4353   5.9318861148e+01   3.4070543868e+01    0.3308927    0.2299959 -30.44  0.001485482    1.836    0.455
       268 -13.4289     45.4546    135.9814   7.3699284362e+01   4.2360647434e+01    0.4058361     0.273504  80.00  0.001282071    1.604    0.377
       269 -13.1163     39.6454    140.6971   7.6140578170e+01   4.1810842121e+01    0.4086034    0.2564795 -17.01  0.001095484    2.512    0.602
       270 -12.6620     35.9464    138.5075   7.7008962806e+01   4.2753890522e+01    0.1960396    0.1720348  -5.08 0.0006791934    1.393    0.282
       271 -11.1350    140.3146    140.3003   4.7118241629e+01   2.5637990731e+01    0.1519447    0.1183259  -1.16 0.0004125857    1.612    0.379
       272 -12.0747    131.9438    140.0813   4.9172592287e+01   2.7332252655e+01    0.2400417     0.186532  -2.68 0.0006774971    1.649    0.394
       273 -13.2388     30.5797    139.1315   7.8742178012e+01   4.3130463883e+01    0.3966926    0.2039364 -62.58  0.001873908    1.775    0.437
       274 -11.7378     77.3130    139.3116   6.4369980863e+01   3.7235853092e+01    0.1470916    0.1140205 -24.87 0.0003559229    1.632    0.387
       275 -11.4187    232.8722    137.0461   2.8063022056e+01   8.7160420546e+00    0.1886853    0.1596809 -40.79 0.0004203872    1.242    0.195
       276 -14.0837    118.0973    134.9612   5.1700146231e+01   3.1166060155e+01     0.670912    0.3785141  48.85  0.002762433    1.846    0.458
       277 -13.5646     31.3735    147.1298   7.9386828919e+01   4.1045157845e+01    0.4799838    0.2875853  46.47  0.001702279    1.607    0.378
       278 -11.4924     89.8903    135.8582   5.9942868032e+01   3.6062392487e+01    0.2117947    0.1696663  62.86 0.0005030931    1.330    0.248
       279 -12.6497     84.4541    136.0454   6.1606713441e+01   3.6915128876e+01    0.3962163    0.2122294  13.24  0.001302582    3.612    0.723
       280 -11.7675     26.4983    135.2418   7.9568647669e+01   4.4495438918e+01    0.3629823    0.1343009  55.06  0.001315391    3.291    0.696
       281 -14.2496     35.4305    130.3448   7.6124366976e+01   4.4882363437e+01    0.5884582    0.4401664  89.10  0.002447374    1.290    0.225
       282 -10.9550    209.6951    134.3024   3.1249903571e+01   1.3207463657e+01    0.1288481    0.1065108 -65.94 0.0003222469    1.596    0.373
       283 -13.2692    102.0144    134.1229   5.6030987193e+01   3.4364402180e+01    0.5093134    0.2350288  30.01  0.001817809    2.561    0.610
       284 -12.7950     54.4531    132.7858   7.0362198623e+01   4.2087132266e+01    0.2764161    0.1911853 -40.87  0.001190421    1.646    0.392
       285 -13.3175     60.8108    134.1782   6.8573183374e+01   4.0902844316e+01    0.4051968    0.2352828 -25.38  0.001555384    2.949    0.661
       286 -12.9780     57.6756    133.3040   6.9420546736e+01   4.1540586638e+01    0.2337671    0.1973177  66.29 0.0009689653    1.182    0.154
       287 -11.7400    175.3755    133.1754   3.7518720690e+01   2.0029734217e+01    0.2032503    0.1324966 -49.11 0.0004257617    1.634    0.388
       288 -12.0748    128.5707    133.1704   4.8503029819e+01   2.9520546314e+01    0.2491981    0.2019999  51.06 0.0005469552    1.258    0.205
       289 -11.5786     73.5021    132.4490   6.4282124339e+01   3.9524818038e+01    0.1468974    0.1385574  77.58 5.901448e-05    1.027    0.026
       290 -12.2891     20.0293    131.6815   8.1217526874e+01   4.5955080152e+01    0.2969161     0.184994  16.32  0.001541019    1.903    0.474
       291 -12.7184      2.5149    131.4126   8.6652754532e+01   4.7275598482e+01    0.2189772     0.181892 -87.35 0.0005019397    1.024    0.023
       292 -11.3736    230.0878    130.5173   2.7114078808e+01   1.0187924900e+01    0.1917087     0.151222 -29.16 0.0003390653    1.096    0.088
       293 -14.2409     82.1531    128.2786   6.0771530822e+01   3.9205425251e+01    0.5259878    0.4504028  60.47  0.002764647    1.195    0.164
       294 -12.6176     75.0260    125.0400   6.2364860247e+01   4.1145369718e+01    0.2446076    0.2160501  38.11  0.000361586    1.152    0.132
       295 -12.4223     22.9752    168.7799   8.3706138578e+01   3.6571319903e+01    0.3482117    0.2511347  75.12  0.002075444    1.228    0.186
       296 -11.3087    199.4850    130.4622   3.2207426910e+01   1.5774264443e+01    0.1396364    0.1276009 -17.84 9.017377e-05    1.002    0.002
       297 -11.8560    102.1940    129.8193   5.5052100661e+01   3.5355519371e+01    0.2104336    0.1826117 -15.61 0.0005482254    1.337    0.252
       298 -12.9537     45.9246    128.8530   7.2498709398e+01   4.4123944001e+01     0.365503    0.2045264  65.36  0.001087774    2.223    0.550
       299 -12.1538    121.5675    127.2616   4.9008242774e+01   3.2237952393e+01    0.2858479    0.2264152 -35.09  0.001016005    1.347    0.257
       300 -11.9404    125.2908    124.0625   4.7246252291e+01   3.2207757355e+01    0.3015581    0.2374293 -17.33   0.00141289    1.553    0.356
       301 -14.8667     63.9891    127.1635   6.6329649554e+01   4.2242323090e+01     1.218921    0.2648219  37.36  0.003619696    3.953    0.747
       302 -13.1521     59.3276    124.6735   6.7399711620e+01   4.3515015103e+01     0.297547    0.2243343 -21.54  0.001119005    1.699    0.412
       303 -11.9582    109.0738    126.6655   5.2357110815e+01   3.4813343861e+01    0.2227434    0.1992004  43.67  0.001150439    1.104    0.094
       304 -13.7539     26.3080    125.1663   7.8440176294e+01   4.7074306049e+01    0.4101214    0.3384783 -17.25   0.00128886    1.481    0.325
       305 -13.5390     12.5437    117.6129   8.2171531331e+01   5.0086392466e+01     1.201573    0.3558658  16.01  0.004328276    4.142    0.759
       306 -12.9873     18.2927    114.8618   7.9882072201e+01   5.0367346356e+01    0.3219057    0.3043027 -79.05  0.001395734    1.088    0.081
       307 -13.4125     20.7495    122.9855   8.0019971288e+01   4.8103418987e+01    0.3677413    0.2981501 -16.64 0.0009741678    1.515    0.340
       308 -13.2813     15.5803    123.3180   8.1767960265e+01   4.8421597943e+01    0.2402637    0.2165968  87.81  0.000698467    1.048    0.046
       309 -12.2656     22.3406    117.7199   7.8841024709e+01   4.9316401586e+01     0.240951    0.1781296  75.07 0.0003056411    1.356    0.263
       310 -11.7637     24.2959    115.2939   7.7847352790e+01   4.9773027812e+01    0.2376223    0.1863244 -77.53 0.0001871687    1.142    0.124
       311 -13.3483      5.6803    122.5033   8.4927263096e+01   4.9302890174e+01     0.303859    0.1764003 -79.82  0.001607244    1.478    0.324
       312 -13.2941    103.8866    114.3477   5.0951343948e+01   3.8696691522e+01    0.6123903    0.3469778  31.60   0.00160642    1.977    0.494
       313 -12.1865    109.0804    111.9941   4.8820711091e+01   3.8222774775e+01    0.3058233    0.2173547  41.06 0.0008181362    1.404    0.288
       314 -13.5960    104.5052    121.4955   5.2487358062e+01   3.6897198577e+01    0.6736699    0.3259012  46.46  0.002552957    2.127    0.530
       315 -12.2403    100.0109    118.5068   5.3123640247e+01   3.8452398559e+01    0.2886812    0.2215495 -87.75 0.0008316621    1.654    0.395
       316 -13.9174     64.6436    120.8278   6.4916609283e+01   4.3754138590e+01    0.5315385    0.3051841 -77.06  0.002201919    2.105    0.525
       317 -12.2445    169.1935    126.1304   3.7179648835e+01   2.2637843191e+01    0.2310598    0.1995701   6.40 0.0005638772    1.249    0.199
       318 -12.8014     18.4425    168.3778   8.4866329357e+01   3.7077302834e+01    0.2547202    0.2246386 -78.13 0.0005513019    1.185    0.156
       319 -12.0244    189.0434    121.3499   3.2047776788e+01   1.9442112666e+01    0.1929101    0.1842298  28.71 0.0004688261    1.095    0.087
       320 -13.3772     57.3352    118.2438   6.6877549028e+01   4.5418274986e+01    0.3474768    0.2391095  14.16   0.00108457    1.782    0.439
       321 -13.9811     77.3143    118.3053   6.0219454848e+01   4.2463666172e+01    0.6086301    0.3938088  76.85  0.002486724    2.286    0.563
       322 -13.1457     72.1182    119.0558   6.2083202403e+01   4.3093014007e+01    0.3285702    0.2096489  40.47  0.001235209    1.575    0.365
       323 -12.3360     94.7245    117.6295   5.4531405005e+01   3.9638669850e+01    0.3080347    0.2577109 -77.76  0.001535913    1.315    0.239
       324 -11.7006    224.0958    120.4781   2.5859209743e+01   1.2815089996e+01    0.1770644    0.1327233  47.06  0.000517519    1.507    0.337
       325 -10.5974     29.2660    116.3495   7.6261850890e+01   4.9062973681e+01    0.1420211   0.09126104 -45.76 0.0002895613    1.617    0.381
       326 -11.6189    196.6849    115.5574   2.9275452179e+01   1.8910599291e+01    0.2500229    0.1362971  44.82 0.0009882693    1.955    0.489
       327 -13.3651     83.0876    111.4704   5.6783321039e+01   4.3191237611e+01    0.5748996    0.2495355 -54.12 0.0006551324    2.244    0.554
       328 -12.6191    115.8959    113.0853   4.7129451240e+01   3.6596019218e+01    0.2948592    0.2496164  19.25 0.0005001166    1.315    0.239
       329 -11.3155    113.3549    109.8299   4.7021305834e+01   3.7853615803e+01    0.2311435    0.1997891 -44.67   0.00115638    1.163    0.140
       330 -12.0363     63.4884    105.5201   6.2104543688e+01   4.7778449930e+01    0.2312242    0.2295402  56.95  0.001329549    1.050    0.048
       331 -13.1910     63.1881    112.3957   6.3703193338e+01   4.6093758864e+01    0.6624556    0.3402639  42.85  0.002767073    2.008    0.502
       332 -12.7002     62.2364    108.9954   6.3311981026e+01   4.7086645774e+01    0.3577478    0.1962737 -55.95   0.00121532    1.710    0.415
       333 -12.9777    170.3907    109.3210   3.2806021111e+01   2.5596410345e+01    0.2896414     0.259508 -56.44 0.0002269423    1.163    0.140
       334 -12.0028     90.0642    110.9711   5.4403997226e+01   4.2085851777e+01    0.2263691    0.2231394 -89.88  0.000304444    1.008    0.008
       335 -12.1218     53.1925    110.3646   6.6791459779e+01   4.7965697833e+01    0.3484871    0.2319084  27.78  0.001395335    1.610    0.379
       336 -11.5806    161.6823    110.2992   3.4908883456e+01   2.7317755214e+01    0.1505101    0.1206309 -81.73 0.0002624568    1.616    0.381
       337 -11.1614    216.4666    109.4865   2.4566253065e+01   1.5998578906e+01     0.136454    0.1213181 -31.54 4.032096e-05    1.006    0.006
       338 -12.0516    121.8558    108.2747   4.4214316952e+01   3.6431342392e+01    0.2482511    0.2369303 -73.47 0.0004930581    1.086    0.079
       339 -12.6345     72.3505    107.9611   5.9565118533e+01   4.5824425053e+01    0.3235132    0.2205658  71.42  0.001405577    1.985    0.496
       340 -11.6186    157.4619    107.0764   3.5011992767e+01   2.8880485701e+01    0.3619539     0.245552  11.91  0.001460493    2.322    0.569
       341 -11.2272    209.4968    107.4739   2.5199620522e+01   1.7695153710e+01    0.1387246    0.1248842 -39.82 -9.280195e-07    1.056    0.053
       342 -11.3361     92.3658    106.8687   5.2647081997e+01   4.2647277851e+01    0.2362117    0.1351205 -42.02 0.0009552175    1.847    0.459
       343 -12.2012      2.1856    107.1430   8.4679706768e+01   5.3361056716e+01    0.2109915    0.1699214 -26.32  0.001309746    1.447    0.309
       344 -13.6517     10.2953    105.3311   8.1572689720e+01   5.3348044334e+01     0.442093    0.3534387  60.82  0.002047324    1.301    0.231
       345 -11.7647     13.4819    102.4818   8.0044121296e+01   5.3862017574e+01    0.2221847     0.189113  79.26 0.0006194157    1.163    0.140
       346 -10.6583     19.3041    105.2156   7.8256140934e+01   5.2749365200e+01    0.1241193   0.09231059 -36.43 0.0003003236    1.461    0.316
       347 -11.6632    197.1355    103.8306   2.6383856741e+01   2.0834449630e+01    0.1880265     0.162115  -4.45 0.0003261599    1.270    0.212
       348 -11.5640    229.5943    103.1467   2.1199628888e+01   1.4494704141e+01    0.1897899    0.1765098 -75.90 0.0003948925    1.240    0.193
       349 -12.6870     78.8415    101.6104   5.5796004462e+01   4.6316358226e+01    0.3109349    0.2893571 -86.82 0.0006177453    1.123    0.110
       350 -12.4828     76.6454     97.0895   5.5395342857e+01   4.7779980116e+01    0.2812773    0.2547253 -19.43 0.0005759617    1.181    0.153
       351 -12.2954     31.6427     99.3546   7.2674430014e+01   5.3186831679e+01    0.4946169    0.2666853 -32.77  0.002144859    2.331    0.571
       352 -13.2180    162.6124     99.2966   3.1840017805e+01   2.9223542797e+01    0.3616422    0.2457484 -58.64 0.0009974261    1.728    0.421
       353 -11.4214    208.6674     99.6880   2.3491181888e+01   1.9135380351e+01    0.1389883      0.10641   7.96 0.0005202799    1.677    0.404
       354 -11.6813    152.1835     99.1494   3.4100046990e+01   3.1622181102e+01    0.2125082    0.1819789 -74.81 0.0004402626    1.334    0.250
       355 -11.8412     58.5699     97.6673   6.2085768031e+01   5.0440335869e+01    0.4187725    0.2804856  48.39  0.001987392    1.635    0.388
       356 -11.5374     25.8719     98.0271   7.4668699725e+01   5.4047102526e+01    0.3795374    0.2187193 -65.14  0.001867034    1.517    0.341
       357 -12.8791      8.7463     97.5905   8.1198949663e+01   5.5398145567e+01    0.3153807    0.2405238  80.67  0.001271495    1.303    0.232
       358 -12.6214     65.3837     95.2676   5.8977145961e+01   5.0034112375e+01    0.2872702    0.2445605  -3.48  0.001507092    1.340    0.254
       359 -10.9220    243.2100     94.1719   1.7437831181e+01   1.3329478219e+01    0.1673738     0.130028 -52.37 0.0003281557    1.274    0.215
       360 -12.8800     78.1343     92.6101   5.3673339976e+01   4.8593874722e+01    0.3144963    0.1919307  54.36  0.001315702    1.980    0.495
       361 -11.7892    170.8331     91.9921   2.8203347503e+01   2.8697625132e+01    0.2579234    0.1658396 -61.83   0.00109064    1.989    0.497
       362 -11.5682     41.2836     91.8094   6.7409176346e+01   5.4091822704e+01    0.2264583    0.1819085  44.60 0.0005325762    1.347    0.258
       363 -12.5244    188.8148     91.0349   2.4625643830e+01   2.4806684861e+01    0.2318135    0.2072107  58.79 0.0003148144    1.186    0.157
       364 -11.0372    139.7458     90.7593   3.4700286802e+01   3.6129828881e+01    0.2472351     0.128322  60.91  0.000886925    2.420    0.587
       365 -11.9341     69.2004     89.8282   5.6146211913e+01   5.0751519020e+01    0.2032434    0.1711182 -20.80 0.0002865521    1.307    0.235
       366 -11.0220     28.3186     90.3098   7.2313347659e+01   5.5782480510e+01     0.144035   0.09202946 -37.74 0.0003293428    1.640    0.390
       367 -11.6124     92.9139     99.3502   5.0502630767e+01   4.4316574502e+01    0.3234587    0.1332833  46.27    0.0011116    2.572    0.611
       368 -12.2671    125.7143     87.3870   3.7308274234e+01   4.0029101487e+01    0.5008939    0.2822028 -37.71  0.002024654    1.845    0.458
       369 -11.9458      3.3786     88.0159   8.2080801080e+01   5.8088306246e+01    0.2985712    0.1648116 -77.34  0.001533448    1.582    0.368
       370 -13.3561      8.9931     86.7419   7.9619406519e+01   5.8105086494e+01    0.3652076    0.2859395 -19.26  0.001077239    1.438    0.305
       371 -12.3703    149.3139     88.0260   3.1664245636e+01   3.4430922076e+01    0.2235079    0.1987509 -48.62  0.001152184    1.120    0.107
       372 -12.7167     54.6918     85.8362   6.0646013781e+01   5.3886315815e+01    0.4687214    0.3732928  -3.98  0.002442719    1.464    0.317
       373 -12.0587    160.7757     84.8169   2.8270072927e+01   3.2330065400e+01    0.2618993    0.1679192  14.04 0.0009622003    2.872    0.652
       374 -11.2386    133.2612     84.2500   3.4410648259e+01   3.8917488254e+01    0.1986822    0.1747345 -85.71 0.0002481481    1.276    0.216
       375 -12.0530    150.0031     83.0392   3.0077407934e+01   3.5203566034e+01    0.2287429    0.2242442 -28.07 0.0003373772    1.042    0.041
       376 -11.8395    112.2982     83.0592   3.9758845060e+01   4.3929233480e+01    0.3265098     0.217267  52.01 0.0005221612    1.543    0.352
       377 -11.9429    112.0862     78.2095   3.8309067479e+01   4.4971522583e+01    0.4269864    0.2854089 -67.67  0.001750609    2.111    0.526
       378 -11.8225     73.9620     82.5174   5.2311419159e+01   5.1674372897e+01    0.2140956    0.1467749  36.74 0.0003895607    1.492    0.330
       379 -11.8021    182.5176     81.4736   2.3222533103e+01   2.7838946607e+01    0.1468848    0.1351202 -59.41 0.0008090617    1.062    0.058
       380 -11.8442     88.8270     78.9372   4.5913841196e+01   4.9727714226e+01    0.2573206    0.2226352  36.23 0.0006052038    1.163    0.140
       381 -11.7304     51.7002     79.3042   6.0110358558e+01   5.5866449616e+01     0.440309     0.272425  70.34   0.00175879    2.814    0.645
       382 -11.3109     55.1513     77.8379   5.8282556910e+01   5.5734773195e+01    0.2451191    0.2327882  -4.44 0.0006268809    1.073    0.068
       383 -10.8167     11.6804     71.6752   7.5924192334e+01   6.1662022615e+01    0.2308359    0.1569186   7.06  0.001188618    1.683    0.406
       384 -12.7246      7.1740     77.2046   7.8921709917e+01   6.0569374723e+01    0.4855855    0.3044585 -23.07  0.002237358    1.798    0.444
       385 -12.1554      8.7067     73.6983   7.7648800530e+01   6.1344249411e+01    0.2718047    0.1498276 -59.53  0.001406714    1.489    0.328
       386 -11.2357    180.3439     77.2940   2.2478735265e+01   2.9036035778e+01    0.1463232    0.1136187  20.97 0.0002698466    1.662    0.398
       387 -12.1197    161.6837     77.0010   2.5870596768e+01   3.3500078893e+01    0.2182958    0.1964308 -39.28 0.0006707493    1.101    0.092
       388 -10.6198    227.7007     76.6918   1.5406000430e+01   1.8815174051e+01    0.1243802    0.1006479   5.73 0.0003480487    1.596    0.373
       389 -12.4837     75.4014     75.2194   4.9539687645e+01   5.3072144499e+01    0.3650843     0.216828 -38.26  0.001340125    1.759    0.432
       390 -11.8809    150.7564     73.4828   2.7102487592e+01   3.6749236141e+01    0.3275717    0.2181748 -27.88  0.001460311    1.655    0.396
       391 -12.4172     86.0357     74.0266   4.5306974235e+01   5.1336160778e+01     0.453554    0.2699357 -41.56  0.001338313    1.686    0.407
       392 -10.8551    214.6917     73.6433   1.6336046001e+01   2.1941867050e+01    0.1340527    0.1048248   8.69 6.412819e-05    1.728    0.421
       393 -11.7663    106.2622     73.0281   3.8373451901e+01   4.7309779427e+01    0.3029479    0.2277941  58.13  0.001428677    1.425    0.298
       394 -11.8249    204.1537     71.8841   1.7336774754e+01   2.4483325040e+01    0.1818744    0.1636359   1.06 0.0003701087    1.304    0.233
       395 -11.8116      2.6458     70.0337   7.9790994409e+01   6.2544689272e+01      0.36027    0.1862408  88.45  0.001693295    2.235    0.553
       396 -10.9616    236.2748     69.3533   1.2727458854e+01   1.8161095449e+01    0.1220608   0.09674426  -1.22 0.0002469743    1.642    0.391
       397 -10.7173    171.7400     69.3534   2.1796300329e+01   3.2372304244e+01    0.1528168    0.1066139 -62.01 0.0004584708    1.614    0.380
       398 -11.3554     72.6448     68.7661   4.8482465270e+01   5.4977475945e+01    0.1983554    0.1801515  13.50 0.0005899611    1.116    0.104
       399 -13.4709    241.7480     66.7885   1.1566577494e+01   1.7454562999e+01    0.2731523    0.2445509 -44.14 0.0007674983    1.084    0.078
       400 -11.0406     64.7789     68.4321   5.1471165490e+01   5.6402365600e+01    0.1976838    0.1390456  20.22 0.0008564687    1.605    0.377
       401 -11.6915     52.9703     68.4681   5.6402766967e+01   5.8215509003e+01    0.1907289     0.115279  55.49 0.0004775335    2.326    0.570
       402 -11.6354    225.1929     67.1725   1.3482668326e+01   2.0688215869e+01    0.1838699    0.1677908 -30.10 0.0003996498    1.147    0.128
       403 -12.3107     60.1451     67.0517   5.2916389639e+01   5.7454734053e+01    0.2204821    0.1828721 -22.58  0.000429546    1.237    0.191
       404 -12.0773     13.1317     61.2987   7.3062258522e+01   6.4059797921e+01    0.3664349    0.1804486 -62.86  0.001784096    1.726    0.421
       405 -11.5715    178.9515     64.2451   1.9135047313e+01   3.1455717257e+01    0.2367967    0.1960913 -38.66 0.0003259947    1.175    0.149
       406 -11.5642    164.7702     63.9908   2.1513035897e+01   3.4925997711e+01     0.202948    0.1831564 -44.49 0.0003498944    1.092    0.084
       407 -11.4165    115.8117     74.5322   3.6065880752e+01   4.4862627094e+01    0.2597671    0.1836582 -44.86    0.0011888    1.435    0.303
       408 -12.2646      9.8126     66.9107   7.5871338386e+01   6.2926762035e+01    0.2526993    0.2250102  13.22 0.0007401999    1.277    0.217
       409 -11.4510    100.6235     62.2880   3.6459339130e+01   5.0650278350e+01    0.2325503    0.1826876 -81.92 0.0006557752    1.725    0.420
       410 -11.2559     45.2958     62.3413   5.7859725310e+01   6.0652744573e+01    0.1472638   0.09852926 -26.12  0.000478587    1.661    0.398
       411 -11.9855    108.5747     59.6121   3.3119835473e+01   4.9342505137e+01    0.2893927    0.2656072  86.03 0.0008615165    1.199    0.166
       412 -12.3111     18.3666     59.3552   6.9975405339e+01   6.4144035748e+01    0.2937146    0.1952666 -59.57  0.001036802    1.327    0.246
       413 -13.4474    192.7318     57.8042   1.5296231283e+01   2.9167567191e+01    0.3162504    0.2604865 -43.41 0.0005611572    1.136    0.120
       414 -11.9482    159.9868     57.3078   2.0405447990e+01   3.7156644985e+01     0.209307    0.1878752  73.71  0.000612855    1.097    0.088
       415 -11.4368     54.8974     57.2311   5.1807279046e+01   6.0400080146e+01    0.1962915    0.1860362  57.63 0.0005107801    1.229    0.186
       416 -12.6906     23.8938     55.6336   6.6159207681e+01   6.4543587096e+01    0.3521657    0.2222749 -20.62   0.00101485    1.764    0.433
       417 -11.8448     19.8597     53.1190   6.7521827637e+01   6.5462960397e+01    0.2377976    0.1771172 -80.39 0.0004308969    1.587    0.370
       418 -12.5565    115.7743     53.6456   2.9001355346e+01   4.8683480292e+01    0.2995861    0.1849467  61.51  0.000769386    1.718    0.418
       419 -12.6110    112.4160     52.7689   2.9595932287e+01   4.9633643278e+01    0.3295884    0.2361865  11.41  0.001466956    1.924    0.480
       420 -11.2240     40.5284     53.4565   5.7139592575e+01   6.3227039565e+01    0.1356893    0.1232968 -27.19 3.006237e-05    1.017    0.016
       421 -11.9582    176.0170     50.9258   1.5845900839e+01   3.4153961738e+01    0.2166179    0.2014092 -71.30 0.0003782174    1.003    0.003
       422 -12.1518    131.3801     50.6686   2.4115320871e+01   4.5339572958e+01    0.3807443    0.2247032  24.66  0.001335158    2.784    0.641
       423 -13.7505     30.4944     49.7426   6.0905470624e+01   6.5209013282e+01    0.3579374    0.3150613  59.11  0.001771112    1.436    0.304
       424 -11.2967    162.4078     49.7989   1.7712061601e+01   3.7681242020e+01    0.1900724     0.142051 -17.70 0.0002415383    1.575    0.365
       425 -11.4160     40.9808     60.4460   5.9249854785e+01   6.1628412325e+01    0.2091471    0.1333293  27.75 0.0003314709    1.649    0.393
       426 -11.9934     19.0793     48.3684   6.6533166142e+01   6.6596336078e+01     0.293558    0.1382159 -49.24  0.000682739    1.772    0.436
       427 -11.0981    219.5413     47.4801   9.4203900491e+00   2.4567324696e+01    0.1307184    0.1134315 -54.64 7.726047e-05    1.015    0.015
       428 -11.6839     41.3547     47.1669   5.4451915546e+01   6.4452020020e+01    0.1916343    0.1633351   2.88 0.0006897699    1.156    0.135
       429 -11.5156    197.0155     44.0118   1.1084249137e+01   3.0082676732e+01     0.164711    0.1477329 -66.47 0.0003532614    1.010    0.010
       430 -12.1210    143.1396     43.5232   1.9238573988e+01   4.3446204035e+01     0.309882    0.1721092 -47.97  0.000778696    1.922    0.480
       431 -11.4200    158.3425     41.6021   1.5888223887e+01   3.9859917116e+01    0.2154162    0.1540574 -66.72 0.0005150871    1.529    0.346
       432 -12.8836     35.6077     40.4226   5.4776841425e+01   6.6572013122e+01    0.3847237    0.2308932  16.80  0.001923235    1.848    0.459
       433 -13.4809     24.1016     39.0506   6.0574079434e+01   6.8150766837e+01    0.5214856     0.319919 -25.57  0.002737151    1.682    0.406
       434 -12.1108    124.6264     39.5743   2.1764951692e+01   4.8687846974e+01    0.2373439    0.2276639  69.10 0.0001790445    1.016    0.016
       435 -13.0353      8.7288     36.4925   6.8767899547e+01   6.9961152864e+01    0.2392227    0.2123491  -5.63 0.0005809041    1.182    0.154
       436 -12.1804    225.4881     36.0177   6.1192946426e+00   2.4746886386e+01    0.2146689    0.1739676 -88.74 -2.422923e-05    1.233    0.189
       437 -10.9582     90.2844     43.6766   3.2775737717e+01   5.6245881977e+01    0.1409583    0.1155823 -74.74 0.0004569492    1.598    0.374
       438 -12.9370     78.9325     32.1340   3.1780947139e+01   6.0538826907e+01    0.4270411    0.3013756 -54.59  0.001079068    1.828    0.453
       439 -11.6028     42.7885     33.5733   4.8097372087e+01   6.6912164528e+01     0.245082    0.1978216  27.77 0.0009675742    1.248    0.198
       440 -12.2488     46.1503     31.1836   4.5293327146e+01   6.6830245324e+01    0.1977632    0.1914422  29.12 0.0008296197    1.248    0.198
       441 -13.6738     30.9163     32.2115   5.3914571985e+01   6.8768081268e+01    0.4274266    0.3171443 -23.89  0.001725754    1.252    0.201
       442 -11.4080    106.5083     32.0338   2.3315080287e+01   5.4218166207e+01    0.2143202    0.1419636 -31.82  0.001029478    1.589    0.371
       443 -13.0288     96.3382     30.7036   2.5568606161e+01   5.6831639183e+01    0.3116919    0.2593044  56.27 0.0006178635    1.165    0.141
       444 -12.7015     96.5005     27.5373   2.4189522501e+01   5.7220914442e+01    0.2862615    0.2398659 -56.69 9.156385e-05    1.388    0.279
       445 -11.2113    175.7928     31.1613   1.0198063249e+01   3.6836543981e+01    0.1808254    0.1591434  39.23 0.0002604265    1.327    0.246
       446 -10.8000    218.0066     30.2586   5.4230711870e+00   2.7054801481e+01    0.1483246     0.104534  79.20 0.0002748982    1.438    0.305
       447 -11.8246      2.2467     29.8530   7.0717332271e+01   7.1760287361e+01    0.2123326    0.1573565 -11.79 0.0005446484    1.325    0.245
       448 -13.3807     82.3075     28.4005   2.8949449822e+01   6.0351339000e+01    0.4400032    0.3094254  85.89  0.002012234    2.311    0.567
       449 -12.6707     60.4035     27.1917   3.6740244991e+01   6.5024968211e+01     0.397111    0.2243961 -18.49  0.001160648    2.257    0.557
       450 -12.5616     45.8031     25.8707   4.2912874983e+01   6.7793801081e+01    0.3290976    0.2538737 -51.20  0.001872484    1.597    0.374
       451 -12.7474     88.5742     24.3395   2.5130238795e+01   5.9488594301e+01    0.2558002     0.217495  32.63 0.0003797042    1.114    0.103
       452 -12.7603      4.5052     24.1069   6.7179009386e+01   7.2822246139e+01      0.25056    0.1767825 -42.72 0.0004520814    1.161    0.139
       453 -11.3230    133.0007     20.7651   1.3310998714e+01   4.8937307336e+01    0.2061246    0.1770262 -76.66 0.0002081507    1.192    0.161
       454 -11.3179    131.5160     17.5089   1.2405047731e+01   4.9672748030e+01     0.207008    0.1397797 -25.84 0.0001955771    1.617    0.382
       455 -10.4328     31.6490     20.3099   4.7807457071e+01   7.0831530548e+01     0.115552    0.1034106  69.78 0.0007044462    1.717    0.418
       456 -11.6905     81.3725     19.1635   2.5016352327e+01   6.1780477010e+01    0.1942789      0.12126 -39.29 0.0009501807    1.773    0.436
       457 -11.3865    140.7439     18.5807   1.1252340362e+01   4.7185258049e+01    0.2750025    0.1183238  63.20  0.001127995    2.047    0.511
       458 -11.1687     67.0000     15.9810   2.8470634483e+01   6.5289373102e+01    0.2088109   0.07493979 -29.79 0.0005274214    2.916    0.657
       459 -10.8847     31.8329     15.4059   4.5064235757e+01   7.1612706515e+01    0.1682962     0.107284  18.16 0.0003796989    1.598    0.374
       460 -10.6479     97.6522    249.3369   7.3457962344e+01   1.1122711511e+01    0.1258721   0.07174031  54.95 1.617724e-05    1.781    0.438
       461 -13.4583     70.0447    247.1964   7.8876833610e+01   1.4974437439e+01    0.4023367    0.2351649  35.36  0.001177432    1.385    0.278
       462 -11.2754     64.4773    245.5163   7.9881327478e+01   1.5940707636e+01    0.1528147    0.1100826 -82.74 0.0005220971    1.589    0.371
       463 -11.1039     29.6389    249.2099   8.6987960600e+01   1.9182996576e+01    0.1352925   0.09302887 -73.70 0.0009528003    1.692    0.409
       464 -10.6459    179.2880    250.6866   5.7555662378e+01   4.9386603081e-02    0.1022482   0.08140304  44.12 0.0003127249    1.584    0.369
       465 -12.7238    114.6360    246.6586   6.9746056274e+01   9.3046931211e+00    0.2783287    0.2016452 -40.28  0.001812416    1.774    0.436
