#   1 NUMBER                 Running object number                                     
#   2 MAG_AUTO               Kron-like elliptical aperture magnitude                    [mag]
#   3 X_IMAGE                Object position along x                                    [pixel]
#   4 Y_IMAGE                Object position along y                                    [pixel]
#   5 X_WORLD                Barycenter position along world x axis                     [deg]
#   6 Y_WORLD                Barycenter position along world y axis                     [deg]
#   7 A_WORLD                Profile RMS along major axis (world units)                 [deg]
#   8 B_WORLD                Profile RMS along minor axis (world units)                 [deg]
#   9 THETA_WORLD            Position angle (CCW/world-x)                               [deg]
#  10 FWHM_WORLD             FWHM assuming a gaussian core                              [deg]
#  11 ELONGATION             A_IMAGE/B_IMAGE                                           
#  12 ELLIPTICITY            1 - B_IMAGE/A_IMAGE                                       
         1 -13.5847     10.7882     37.1376   9.5930285350e+01   6.9342594253e+01     1.061587    0.5969535 -54.43  0.004656735    1.671    0.402
         2 -12.3343     15.3265     24.2367   8.7950119097e+01   7.1388468215e+01    0.5598216    0.2737165 -45.55  0.002926938    1.886    0.470
         3 -11.8293     85.8500     41.1964   6.2490102204e+01   5.7180504334e+01      0.82212    0.5266538 -15.92  0.003893623    1.929    0.482
         4 -14.0987    233.0854     27.5975   3.4137980701e+01   2.5502655464e+01    0.9378826    0.8890312 -35.34   0.00171955    1.352    0.260
         5 -12.6064      3.2286     37.0808   1.0048542545e+02   6.9861217651e+01    0.8176395    0.3638491 -65.00   0.00387605    2.418    0.586
         6 -12.7946     33.0207     19.7108   7.5231216799e+01   6.9974619953e+01    0.6319199    0.4215481 -33.59  0.003721414    1.496    0.332
         7 -12.1077    104.4480     17.4268   4.8053424898e+01   5.5950857345e+01    0.7010157    0.5146419 -88.89  0.003800188    1.642    0.391
         8 -12.9214    123.5472      3.2589   3.9352049037e+01   5.2660724274e+01     1.007725    0.5015697  80.74   0.00468922    2.070    0.517
         9 -12.8703    205.2928      5.4726   3.1419540246e+01   3.3525285648e+01    0.5439817    0.4026642 -81.39  0.003659708    1.148    0.129
        10 -12.0452    240.6442      3.5065   2.8841717912e+01   2.6655242586e+01     0.550036    0.2526108 -66.45  0.003144231    1.948    0.487
        11 -11.7742    216.4461      4.2780   3.0405302542e+01   3.1318857803e+01     0.413617    0.2118863 -68.74  0.002335415    1.798    0.444
        12 -11.7276    113.4939    217.6351   9.6867167388e+01   1.3789045443e+01     0.479859      0.34603  47.75  0.002452776    1.397    0.284
        13  -9.0868     61.3022    250.6680   1.1207914238e+02   1.4124113851e+01    0.1262183   0.07245232  56.36 0.0003305537    1.654    0.395
        14 -11.7756     44.5636    249.4385   1.1549897955e+02   1.6229649058e+01     0.394858    0.2116347  40.96  0.001400988    1.468    0.319
        15 -14.8941      6.5519    135.7794   1.1634162253e+02   4.5912743593e+01     5.160585     1.159049 -81.00   0.01440516    5.258    0.810
        16 -11.6093     42.9077    180.6579   1.1023085745e+02   3.1410601159e+01    0.3047348    0.2614819 -21.04 0.0005453387    1.424    0.298
        17 -13.4947      3.3121    233.5601   1.2317311296e+02   2.3363446582e+01     2.108549    0.6110886 -84.28  0.009182825    3.487    0.713
        18 -15.8348     13.6241    202.7968   1.1941990508e+02   2.9037910599e+01     3.098075     1.350436 -85.75   0.01484738    2.243    0.554
        19 -14.6121     29.2020    189.1728   1.1463485660e+02   3.0766553358e+01     2.041152     1.174675  67.43   0.00965092    1.767    0.434
        20 -10.6888     81.8197    208.0250   1.0326556885e+02   2.0233871703e+01    0.3372599    0.2858169  44.22  0.001947167    1.069    0.065
        21 -10.3015     86.3361    203.6707   1.0160601589e+02   2.0577320593e+01    0.3336141    0.2467421  12.82  0.001769228    1.530    0.346
        22 -10.8522     67.7080    206.3478   1.0656398673e+02   2.2444863431e+01    0.5251524    0.2134814  33.74  0.002245392    2.150    0.535
        23 -12.1167     53.1073    198.7165   1.0942072387e+02   2.5958983631e+01     0.460103    0.4277189  23.85  0.001685324    1.179    0.152
        24 -11.6305     49.3102    194.8534   1.0999939393e+02   2.7297252590e+01    0.4153973    0.3586665 -14.55  0.001537439    1.438    0.305
        25  -9.5575     87.3679    194.7994   1.0017504262e+02   2.2423833692e+01    0.1980869    0.1660056  50.01 0.0007642535    1.147    0.128
        26 -12.5683     73.3431    219.3770   1.0658585440e+02   1.8895874914e+01    0.8951259    0.3669772  40.44  0.003981001    2.065    0.516
        27 -11.5940     50.8978    174.0120   1.0728953301e+02   3.2148140306e+01    0.2753518    0.2511705 -38.31 0.0004079356    1.228    0.185
        28 -10.6074     63.8336    163.8698   1.0224893665e+02   3.3091671905e+01    0.2225389    0.2181471 -78.62 0.0003525213    1.047    0.045
        29 -12.9001     48.9633    160.3666   1.0612989912e+02   3.5803098710e+01    0.5408401    0.3153623 -35.68  0.001639825    2.203    0.546
        30  -9.8731    133.5220    160.5004   8.2317601168e+01   2.2806301880e+01    0.2349719    0.1952689  83.75 0.0005710395    1.591    0.371
        31 -11.5999     72.6354    157.1168   9.8612653795e+01   3.3602183231e+01    0.5033775    0.3941224 -18.53  0.002233819    1.556    0.357
        32 -11.3600     29.2799    150.8089   1.1086076826e+02   4.0293753347e+01    0.3390851    0.1736635  47.05  0.001531285    2.015    0.504
        33 -12.1605     67.9069    143.4462   9.7723516164e+01   3.7740253812e+01      0.74863    0.4128853  56.87  0.002965068    2.345    0.573
        34 -13.2500     29.8125    142.2269   1.0966188236e+02   4.2459623154e+01    0.8387114    0.5980268  26.40  0.002981101    1.504    0.335
        35 -12.0231     25.9784    138.7027   1.1044909497e+02   4.3714820565e+01    0.3852323    0.3096411 -19.28  0.001317245    1.458    0.314
        36  -9.7157     89.1313    144.0745   9.1301306593e+01   3.4384607091e+01    0.2368887    0.2046633 -22.82 0.0007817703    1.262    0.207
        37 -11.6119     76.7053    141.9643   9.4698112565e+01   3.6849081288e+01    0.2900319    0.2541375 -52.82 0.0003075724    1.123    0.109
        38 -10.3157    105.4151    131.2620   8.3693487314e+01   3.4714066459e+01    0.2977376     0.282319  26.23 0.0007955046    1.055    0.052
        39 -10.1731     90.2531    128.0428   8.7571222038e+01   3.8172524667e+01    0.2496754    0.2184724  26.07 0.0004538316    1.167    0.143
        40 -12.0400     76.9673    119.0907   8.9849156378e+01   4.2575390460e+01    0.5795459    0.4039488  -9.16   0.00251685    1.961    0.490
        41  -9.2420    102.8511    119.8512   8.1755191363e+01   3.7902979676e+01    0.1985881    0.1798483  77.05 0.0002472044    1.250    0.200
        42 -10.5605     62.5600    116.5528   9.4229275094e+01   4.5361046703e+01    0.3498785    0.2762221  84.42  0.001725252    1.538    0.350
        43 -13.0915     14.8791    103.5543   1.0952238573e+02   5.3634805310e+01    0.8363712    0.6742111  13.10  0.004066757    1.392    0.282
        44 -10.9896     18.0898     96.7769   1.0714944267e+02   5.5126012394e+01    0.3358531    0.2239548  35.98  0.001460185    1.674    0.403
        45 -12.2388     22.1009     88.8605   1.0401147803e+02   5.6797332461e+01    0.9243945    0.5034301 -47.21    0.0040068    1.615    0.381
        46 -11.9251      3.5813    106.5458   1.1421617858e+02   5.3539955295e+01    0.4361483    0.3801725 -33.29  0.002433385    1.204    0.170
        47 -11.6190     79.1912    103.8425   8.5374180019e+01   4.5936872922e+01    0.5289623    0.2532557 -57.49  0.001991326    2.250    0.555
        48 -11.5935     68.3372    105.0705   8.9518018379e+01   4.7380800848e+01    0.3660989    0.3359933  65.55   0.00198428    1.218    0.179
        49 -10.9258     39.9550    103.8005   9.9851346790e+01   5.1392359338e+01    0.2985868    0.2796834 -38.04  0.001400896    1.038    0.036
        50 -10.9327     26.6619     98.3918   1.0400096294e+02   5.4043273166e+01    0.4121737    0.3380812  65.80  0.002322983    1.421    0.296
        51 -12.0637     53.7646     96.1028   9.2745459326e+01   5.1651858585e+01    0.6081846    0.3915932 -54.71  0.002889484    1.466    0.318
        52 -12.3824      9.5604     90.3112   1.0954508226e+02   5.7295208962e+01    0.7393873    0.4398688 -49.87  0.003883645    1.439    0.305
        53 -11.2028     63.4972     93.3759   8.8302233775e+01   5.0932938958e+01    0.3749347    0.2555906 -65.74  0.001736398    1.676    0.403
        54 -12.0236     39.8417     90.0099   9.6837566526e+01   5.4832991811e+01     0.778075    0.4852408 -77.45  0.003523422    2.031    0.508
        55 -12.6676     74.0520     82.1578   8.1118910236e+01   5.1801778661e+01     1.036775    0.8508261 -57.65  0.005386713    1.328    0.247
        56 -12.5671     56.3091     82.5079   8.8111585363e+01   5.4527557238e+01    0.7491612    0.4305151 -23.78  0.003045461    2.360    0.576
        57 -11.4976     43.1012     81.3885   9.3288763251e+01   5.6523765346e+01    0.5873909     0.277139  20.14   0.00240411    2.413    0.586
        58 -11.2272     11.3655     55.5982   1.0132700497e+02   6.5398172818e+01    0.3205444    0.2448926 -37.74  0.001435687    1.097    0.089
        59 -13.7306     20.0217     72.4025   1.0131705940e+02   6.0930191914e+01     1.347967     1.007443 -23.33  0.005427731    1.301    0.231
        60 -11.9802      3.5792     75.2014   1.0953595198e+02   6.1299201466e+01    0.5838829    0.4010034  84.55   0.00305956    1.745    0.427
        61 -12.4137      2.5936     65.5986   1.0815357069e+02   6.3615847846e+01    0.8379976    0.3897273 -63.00  0.004067665    1.785    0.440
        62 -11.7760     59.6501     73.0015   8.3885608369e+01   5.6157825834e+01    0.4817896    0.2861788  28.77  0.002215684    1.726    0.421
        63 -11.7697     62.8434     70.8458   8.1894823449e+01   5.6117337821e+01    0.4117993    0.3218654  11.10  0.001542322    1.341    0.254
        64 -12.4332     16.9056     60.0743   9.9679723805e+01   6.4002426414e+01    0.6234431    0.4790781  -3.83  0.002587083    1.304    0.233
        65 -11.8694    118.3981     55.7239   5.8387508541e+01   4.7638307039e+01    0.6846817    0.2377212 -39.66  0.002408192    2.933    0.659
        66 -12.7835      4.2740     46.9775   1.0282672337e+02   6.7717833950e+01    0.6542534    0.5244749 -30.62   0.00288679    1.055    0.052
        67  -9.9975    191.3233    249.6763   8.4859528859e+01  -2.2084052864e+00    0.1049294   0.08841944  41.13 0.0007047349    1.683    0.406
        68 -12.9473     26.4162    242.4762   1.1884854701e+02   1.9456570764e+01     0.507324    0.3858755  49.18  0.002003237    1.070    0.065
        69 -11.4837    102.4352     41.4381   5.7604511027e+01   5.3480023411e+01    0.4768525    0.2651801  28.13  0.001938924    2.496    0.599
        70  -9.8041    132.3254    247.3203   9.6508819027e+01   5.7335015965e+00    0.1258289   0.08728639  -2.02 0.0004971866    1.680    0.405
        71 -11.9386    158.9585    244.2887   9.0524402054e+01   2.6946740014e+00    0.2859502    0.2298565  33.86  0.001609266    1.277    0.217
        72 -11.7834     28.0212    233.0225   1.1797730519e+02   2.1184589862e+01    0.2842961    0.1899122  48.35  0.001130088    1.226    0.184
        73 -11.1283     44.1290     26.3476   7.2737793087e+01   6.7283207058e+01    0.3757986    0.1953156  36.52  0.001864729    1.803    0.445
        74 -12.0153     29.2939     40.1927   8.6516107821e+01   6.6962402959e+01    0.6733484    0.3886403  24.51  0.002791343    1.711    0.415
        75 -10.2440     37.4930    231.5040   1.1582645243e+02   2.0523602646e+01    0.2939357    0.1937709 -59.55  0.001774897    1.742    0.426
        76 -10.5668     33.8213    228.9842   1.1646607611e+02   2.1425606844e+01    0.3731518    0.1921529  69.68  0.001939102    2.028    0.507
        77 -11.1712     50.0707     19.1621   6.6449156205e+01   6.7298886191e+01    0.3194033    0.2795563  15.86  0.001782062    1.075    0.070
        78 -14.6107     94.4893    223.3584   1.0204648067e+02   1.5290529172e+01     2.245522    0.9725401  34.17   0.01010051    1.964    0.491
        79 -11.4297     59.3953    226.3077   1.1050528982e+02   1.9150472633e+01    0.5264643    0.2958882  61.06  0.001944795    1.877    0.467
        80 -12.4864     61.1983    216.4058   1.0917462965e+02   2.1035547975e+01     1.047047    0.5871454 -84.48  0.005169388    2.127    0.530
