#   1 NUMBER                 Running object number                                     
#   2 MAG_AUTO               Kron-like elliptical aperture magnitude                    [mag]
#   3 X_IMAGE                Object position along x                                    [pixel]
#   4 Y_IMAGE                Object position along y                                    [pixel]
#   5 X_WORLD                Barycenter position along world x axis                     [deg]
#   6 Y_WORLD                Barycenter position along world y axis                     [deg]
#   7 A_WORLD                Profile RMS along major axis (world units)                 [deg]
#   8 B_WORLD                Profile RMS along minor axis (world units)                 [deg]
#   9 THETA_WORLD            Position angle (CCW/world-x)                               [deg]
#  10 FWHM_WORLD             FWHM assuming a gaussian core                              [deg]
#  11 ELONGATION             A_IMAGE/B_IMAGE                                           
#  12 ELLIPTICITY            1 - B_IMAGE/A_IMAGE                                       
         1 -10.8633     58.2177      3.7332   6.7653502419e+01   6.7065208134e+01     0.908918    0.3937694  41.38   0.00379407    2.085    0.520
         2 -12.6060     23.7751     84.5713   1.1100670318e+02   5.6273336015e+01     2.013386     1.447138 -63.62   0.01228945    1.160    0.138
         3 -12.2584     34.9015     69.5465   1.0346320313e+02   5.8757443100e+01      1.81691    0.8134847 -24.12  0.006836897    3.755    0.734
         4 -10.7642     65.9598     20.6811   7.2918766122e+01   6.3718385783e+01     0.512041    0.4257483 -73.02  0.002218036    2.229    0.551
         5 -11.2969     21.1160     61.5650   1.0680565173e+02   6.1628521438e+01     1.180062    0.7439181 -51.05  0.007011474    1.235    0.190
         6 -10.5266      6.5628     58.7180   1.1199326990e+02   6.3131569276e+01     1.230742    0.6420901 -80.55   0.00615544    2.451    0.592
         7 -11.7729     52.1790     21.7044   7.8945470987e+01   6.5757030468e+01      1.46402    0.5551584 -34.72   0.00357478    2.432    0.589
         8 -13.5664     70.9494     31.3130   7.5753456626e+01   6.1352137712e+01     2.693644     1.009948  38.72   0.01097511    2.674    0.626
         9 -11.1509      4.2394     90.5642   1.1863701870e+02   5.6105910767e+01     1.706259    0.3088747 -70.85  0.005554772    4.387    0.772
        10 -13.2170     90.4929     55.7347   7.8506163576e+01   5.3768606294e+01     2.467502      1.33334  38.18 0.0008763703    1.895    0.472
        11 -12.0551      8.5129     26.1010   1.0172405934e+02   6.9589776857e+01    0.7673184    0.3826256   4.08  0.004327247    2.311    0.567
        12 -13.8827      8.7733      9.4953   9.4736081078e+01   7.2441411432e+01     1.300898    0.9501563 -11.41  0.005647929    1.164    0.141
        13 -11.7004     25.1903      6.6952   8.4330096502e+01   7.1351677377e+01    0.6486607    0.2439174 -38.54   0.00322554    2.355    0.575
        14 -11.8953     15.8286     33.6634   1.0079377013e+02   6.7685807606e+01     1.168814    0.4776728 -46.54  0.004065335    1.823    0.451
        15 -10.7845    106.9236     32.2362   6.4469052121e+01   5.4110846769e+01    0.7092197    0.4805881  -7.54  0.001474142    1.655    0.396
        16 -10.8573    236.2602     28.5475   4.1437829585e+01   2.2780414092e+01    0.5512704     0.396999 -24.81  0.002915256    1.557    0.358
        17 -11.2806    214.2858     21.6456   4.1979928408e+01   2.8776617891e+01     1.037593    0.4348267 -48.19   0.00438397    2.314    0.568
        18 -10.3795    213.7006     12.0616   3.9628979552e+01   2.9994818071e+01    0.5630056    0.3124044  85.89  0.002314795    1.813    0.448
        19 -10.8590    200.2610      5.8704   3.9371985562e+01   3.3911260713e+01    0.5924326    0.3997403 -51.74  0.002354271    1.442    0.306
        20 -10.7560    208.4633      4.1203   3.8136631152e+01   3.2082595912e+01    0.5781157    0.3690409 -80.28  0.002200145    1.523    0.343
        21 -10.3355    157.2778      6.5041   4.4739768794e+01   4.4684561165e+01    0.7521441    0.3016681 -17.92  0.002974276    3.032    0.670
        22  -8.8949    185.1349     13.8514   4.3224794379e+01   3.6881218053e+01    0.6720479    0.2088796  60.25  0.001723226    2.687    0.628
        23 -11.2814    181.8563     31.9052   4.8878450855e+01   3.5647421402e+01    0.9013572    0.5513663 -63.35  0.004034579    1.957    0.489
        24 -10.2731    164.5298      6.0701   4.3589223427e+01   4.2881198443e+01    0.6911084    0.5258188  26.65  0.003831233    1.532    0.347
        25 -10.1944    151.8654      9.0477   4.6375950205e+01   4.5824380313e+01    0.4011957    0.2816457   0.00  0.001547327    1.740    0.425
        26 -11.8326    170.7045     14.8575   4.5416829746e+01   4.0452238858e+01     1.376173     0.656321 -82.89  0.004737427    3.584    0.721
        27  -9.6701    173.1906     10.7914   4.3859448918e+01   4.0227932001e+01    0.2496928    0.2170676  19.56 0.0004892609    1.343    0.256
        28 -10.7189    162.6150     17.3276   4.7368184467e+01   4.2264927767e+01    0.8009657    0.3735321  45.98  0.003336925    2.190    0.543
        29 -10.7821    154.1032     17.5508   4.8801207485e+01   4.4415429472e+01     0.502614    0.2996115  46.82 0.0003865343    1.612    0.380
        30 -10.8856    149.8729     15.6815   4.8894011422e+01   4.5683632711e+01    0.9002146    0.5387883 -47.97  0.004253203    1.917    0.478
        31  -9.9546    205.0158     15.9256   4.1500294375e+01   3.1688084899e+01    0.4561428    0.2905001  44.00  0.002298031    1.871    0.465
        32 -12.9683     32.0912     25.9527   8.9951181953e+01   6.7627420712e+01     1.306183     1.066761  14.33  0.008404952    1.322    0.243
        33  -9.9905    124.1567     22.2413   5.6272473115e+01   5.1358457592e+01    0.9778874     0.481679  17.66  0.003334394    3.757    0.734
        34 -11.3036    131.8697     19.3087   5.3526160105e+01   4.9807497936e+01     0.579183    0.3851371  44.10  0.001802587    1.391    0.281
        35 -10.9782     92.8935      8.9800   5.8736573330e+01   5.9858286366e+01    0.8781528    0.5506903  12.13  0.004538781    1.729    0.422
        36 -11.2840     99.8559      5.7004   5.5476848002e+01   5.8647823913e+01    0.3997003     0.267608  23.44 0.0003123415    1.466    0.318
        37  -9.5527    125.8147      7.2100   5.0297419340e+01   5.2469446415e+01    0.4172857    0.2081968  37.20            0    2.062    0.515
        38 -10.6573    102.1713     11.6690   5.7400565005e+01   5.7571428842e+01    0.5729031    0.3271564  34.63  0.002137834    1.674    0.403
        39 -11.2943    108.9451      6.1061   5.3455443185e+01   5.6557662006e+01    0.7645233    0.6092559 -85.10   0.00433141    1.661    0.398
        40 -12.2291    115.6999     15.2076   5.5518516703e+01   5.4122134169e+01    0.9722614    0.5566707  36.61  0.003415733    1.707    0.414
        41  -9.0690     72.3747     16.2689   6.8520677711e+01   6.3148365698e+01    0.6409587    0.2450102  42.02  0.002762601    2.413    0.586
        42  -9.5556     83.1547     20.5741   6.6794849478e+01   6.0578691460e+01    0.3782887    0.2585412   2.86  0.002024134    1.523    0.344
        43  -9.1913    230.4335      2.6716   3.5940334614e+01   2.7054917294e+01    0.3330511     0.193371  30.27   0.00150989    3.238    0.691
        44  -9.5198    239.6515     17.1905   3.8504061408e+01   2.3377064350e+01    0.3605707    0.1673686 -36.56  0.001754553    1.931    0.482
        45  -9.5595    243.2357     13.0404   3.7277915671e+01   2.3053857730e+01    0.2828726    0.2024888  68.39   0.00122391    1.445    0.308
        46  -9.6661    221.9291     12.1643   3.8882206453e+01   2.8022601460e+01    0.3825555    0.2907346 -40.92  0.002022378    1.293    0.226
        47  -9.7606    226.0404      8.4554   3.7636632345e+01   2.7460871807e+01    0.2978276    0.2447882  17.07  0.001125655    1.717    0.418
        48  -9.8062    230.7892     10.7593   3.7774202169e+01   2.6113758444e+01    0.5064189    0.1964971  73.03  0.002107197    2.457    0.593
        49 -10.1237    232.2965     17.3880   3.9188778244e+01   2.5022674087e+01    0.4668394     0.340984 -23.28  0.002276468    1.587    0.370
        50  -9.3029    223.9636     18.0369   4.0112097998e+01   2.6885091050e+01    0.3436832    0.2784407 -88.90  0.002087083    1.132    0.116
        51  -9.2202    198.6450     16.0932   4.2247174176e+01   3.3246714118e+01    0.2443798    0.2234642  38.36  0.001490619    1.274    0.215
        52  -9.4351    125.6491     15.5549   5.3444554806e+01   5.1716298333e+01    0.3302504    0.2034429  32.63  0.001374953    1.691    0.408
        53  -9.7342     38.5863     11.5336   8.0131444916e+01   6.9074223175e+01    0.4335106    0.3351854 -21.57  0.002924902    1.198    0.165
        54  -9.3619     36.3876      6.0533   7.8354060721e+01   7.0090809548e+01    0.2589441    0.1486862  28.30 0.0009833758    1.669    0.401
        55 -10.2636     41.8874      3.2533   7.4280630111e+01   6.9681037034e+01     0.399774    0.2276369 -28.15  0.002051807    1.633    0.387
        56 -10.0343     31.6494     11.9322   8.3693670570e+01   6.9874717868e+01    0.2608667    0.1610424 -26.58  0.000780052    1.346    0.257
        57  -9.3857    130.9815     10.2047   5.0396333161e+01   5.0937352564e+01    0.4108222    0.1590876  46.59  0.001638851    2.325    0.570
        58  -9.0112    134.3387      6.5307   4.8449690981e+01   5.0442294465e+01    0.6464584    0.1597552 -29.02  0.002239461    3.792    0.736
        59  -9.1384    131.6550      4.6896   4.8272584990e+01   5.1261906642e+01    0.3869165    0.2249643  27.45  0.001838866    1.969    0.492
        60  -9.5680     77.8045      8.8269   6.3204681759e+01   6.2957870271e+01    0.2461148     0.200856  32.10 0.0008484657    1.116    0.104
        61  -8.8762     77.7728      4.4568   6.1157717928e+01   6.3397616774e+01    0.2194743    0.1424796   9.67 0.0008587604    1.535    0.348
        62  -9.2789    249.6625      7.5495   3.5596881632e+01   2.2262438800e+01    0.2998508    0.1627792 -72.07  0.001590602    1.799    0.444
        63 -10.1642    243.7731      4.8602   3.5436901446e+01   2.3835138972e+01    0.3536937    0.1969682 -31.20  0.001928151    1.818    0.450
        64  -9.8131    248.5866      1.8732   3.4460118701e+01   2.3105456862e+01     0.290999      0.22625 -82.25  0.001579903    1.128    0.113
        65  -8.9776    139.5020      8.4742   4.8221713263e+01   4.8987219381e+01    0.2124923     0.123568  65.08 0.0006161187    1.555    0.357
        66 -10.7738    139.2519      4.1338   4.6755720801e+01   4.9429766045e+01      0.40981    0.2874208 -11.26  0.001276045    1.631    0.387
        67  -8.9559    233.9958      7.0598   3.6662756130e+01   2.5782490711e+01    0.1932778    0.1622539 -75.05 0.0005167289    1.024    0.023
        68  -8.8554    190.4282      7.2328   4.0767623616e+01   3.6218786003e+01    0.2555821    0.2103966 -60.11   0.00093187    1.191    0.160
        69  -9.2432    189.4261      3.5019   3.9858709719e+01   3.6828179662e+01    0.2068904    0.1886734 -76.06 0.0005842914    1.073    0.068
        70  -9.3632    217.8244      5.1857   3.7561831506e+01   2.9732683597e+01    0.2393746    0.1892888  50.78  0.001159711    1.466    0.318
        71  -8.8916    220.6794      2.7096   3.6726657069e+01   2.9311112100e+01    0.2151901    0.1653069  69.52 0.0006553801    1.285    0.222
        72  -9.9726    181.5978      4.3775   4.0965528294e+01   3.8710675157e+01    0.3413941    0.2678293  58.43  0.001525792    1.228    0.185
        73  -9.3421     71.4747      3.9693   6.2977760883e+01   6.4660329212e+01    0.3331732     0.250733 -35.89  0.001382719    1.640    0.390
        74  -8.5750     67.4327      5.2756   6.5015496063e+01   6.5280814452e+01    0.2348102    0.1656575 -24.63 0.0009976247    1.463    0.316
        75  -8.8657     29.6415      5.8370   8.1578741427e+01   7.0961979918e+01    0.1758966    0.1089535 -15.27 0.0008629771    1.386    0.278
        76  -8.9171     84.2904      3.8067   5.8871207466e+01   6.2145963244e+01    0.3070935    0.1718042  30.44  0.001307381    1.684    0.406
        77  -8.5744    176.2377      3.6577   4.1385236911e+01   4.0130204789e+01    0.1832307     0.106847  62.55            0    1.514    0.339
        78 -11.3371     66.5208    124.4132   1.0520939272e+02   4.2246802989e+01     1.140484     0.436815 -49.24  0.004359339    2.474    0.596
        79  -9.1073    211.1867    250.1587   9.3794006523e+01  -6.6477532670e+00    0.1542479    0.1264824  36.65  0.001082356    1.353    0.261
        80  -9.4587    182.8637    249.8605   9.8926741125e+01  -2.3296715348e+00    0.2345463    0.1190629  32.54  0.001262532    1.642    0.391
        81  -9.8235    124.7682    249.9813   1.0980322856e+02   6.6825647586e+00     0.225342    0.1337803  31.31  0.001278864    1.703    0.413
        82 -10.9452     69.9066    112.7234   1.0181035303e+02   4.4634820480e+01     1.077685     0.380348 -40.86  0.003320361    3.966    0.748
        83 -11.0010     34.5845    131.7911   1.1548044002e+02   4.4083966010e+01    0.9906157    0.5560235  80.88  0.003344112    2.132    0.531
        84 -12.2148     46.6353    123.3581   1.1080544642e+02   4.4908902100e+01     1.325685    0.7961426  86.09  0.006240663    2.084    0.520
        85 -10.7487     31.8050    109.6829   1.1294815049e+02   4.9681135348e+01     1.195544    0.2782941 -56.22  0.004385994    2.997    0.666
        86  -9.9599     37.2272    109.1321   1.1118708530e+02   4.9318908367e+01     0.366694    0.2167117 -57.97  0.001136497    1.396    0.284
        87 -11.2507     45.5900    113.7341   1.0944515126e+02   4.7365158144e+01      2.31203     1.111581 -16.14  0.005603872    9.693    0.897
        88 -11.1120     40.2238    124.0165   1.1276082594e+02   4.5417523357e+01    0.8202748    0.3146645 -64.19  0.003496809    2.135    0.532
        89 -11.3908     30.3105    119.7724   1.1497071455e+02   4.7379715000e+01    0.8179097    0.6647527  -6.20  0.004721107    1.615    0.381
        90 -10.3947     22.9107    136.4951   1.1919383137e+02   4.4000968384e+01    0.3347215    0.2038423 -65.08  0.001382761    1.362    0.266
        91  -9.3048     73.1159    129.3802   1.0426372616e+02   4.0122581627e+01    0.2499434    0.1864539 -69.32 0.0003648426    1.269    0.212
        92 -10.5021     55.9233    126.2891   1.0862267553e+02   4.3131908492e+01    0.4319209    0.2184039 -52.27  0.001383952    1.795    0.443
        93  -8.6194     74.3343    124.9331   1.0304113188e+02   4.1035606922e+01    0.1957588    0.1703174 -60.70 0.0004655214    1.051    0.048
        94  -8.8825     55.6196    238.1381   1.2144458198e+02   1.8454433389e+01    0.1483903   0.09292486 -64.25 0.0009523063    1.821    0.451
        95 -10.3585     91.0584    121.5043   9.7460634125e+01   3.9278772145e+01     0.500323    0.4481983   2.85  0.002556966    1.295    0.228
        96  -9.2600     61.7216    120.2105   1.0581095293e+02   4.3901704330e+01    0.2264187    0.1962782  34.05 0.0002142472    1.302    0.232
        97  -9.6867    116.1480    116.4197   8.9104081689e+01   3.5918744704e+01    0.2787288    0.2416667 -39.32 0.0006606407    1.142    0.125
        98  -8.3736    142.3852    114.7914   8.1682663671e+01   3.0780865520e+01    0.2189389    0.1484589 -33.22 0.0003426961    1.572    0.364
        99  -9.1076     82.4875    114.7628   9.8456371978e+01   4.2284425115e+01    0.2674837    0.2092119  35.75   0.00138304    1.386    0.279
       100  -9.2059    108.6355    114.3818   9.0703837184e+01   3.7845625554e+01    0.2332906     0.184856  82.49 0.0009826269    1.613    0.380
       101  -8.9349     99.6515    112.7209   9.2881958960e+01   3.9892610306e+01    0.3433173    0.1391163 -53.39  0.001199297    2.425    0.588
       102  -8.9353     63.5027    113.5089   1.0393449815e+02   4.5306298630e+01    0.1421385     0.125131 -55.54 7.902877e-05    1.040    0.039
       103 -10.3606     57.1373    112.9194   1.0576298057e+02   4.6250462955e+01    0.4673615     0.263067  29.15  0.002222371    2.048    0.512
       104  -9.5179     61.9282    109.3849   1.0355338044e+02   4.6509900229e+01    0.4437986    0.2756978  10.31  0.002014995    2.354    0.575
       105  -9.1732    195.1888    112.0087   6.8957707786e+01   1.9221651299e+01    0.3919616    0.1787928  61.76  0.001261072    3.271    0.694
       106  -8.8775     81.8726    124.3867   1.0074557862e+02   4.0047938171e+01     0.186358    0.1850221  25.36  0.000314052    1.111    0.100
       107  -8.9553    133.1938    110.8191   8.3011894842e+01   3.3662625624e+01    0.2261835    0.1912353  -5.39  0.001076143    1.375    0.273
       108  -9.4488     23.6586    108.9610   1.1531428137e+02   5.0529106156e+01    0.2945061    0.2073344  30.48  0.001773736    1.704    0.413
       109  -9.8903    104.3734    116.5776   9.2466340617e+01   3.8125925997e+01    0.3095925    0.2595031 -33.91  0.001567852    1.239    0.193
       110  -9.8474     51.4711     92.5113   1.0318489480e+02   5.1808384725e+01    0.4474626     0.391654 -74.06  0.002695853    1.191    0.161
       111 -10.8792     54.9520     86.3969   1.0050511802e+02   5.2823633366e+01    0.6110783    0.3755147  16.18  0.001608627    2.048    0.512
       112 -10.5362     49.8424    102.8144   1.0599365243e+02   4.9542879594e+01    0.6026618    0.4823866 -22.83  0.003467637    1.433    0.302
       113  -9.8425     54.0855    100.4755   1.0412087965e+02   4.9617232116e+01    0.3482829    0.2161124 -62.80 0.0006628527    1.466    0.318
       114  -9.3241     50.4330     97.7424   1.0471610716e+02   5.0689024432e+01    0.2648397    0.2379163 -35.99 0.0009891527    1.133    0.118
       115  -9.6619     46.0247     98.5994   1.0635103644e+02   5.0966607870e+01    0.3235877    0.2378593  19.37  0.001817766    1.627    0.385
       116 -11.1630    143.1548    101.2883   7.7799034448e+01   3.3513264965e+01     0.649964    0.3832313  28.69  0.002437715    2.254    0.556
       117  -9.7055    105.9436    102.8728   8.8479670073e+01   4.1017768434e+01    0.4070241    0.2834494 -62.83  0.001272532    1.638    0.390
       118  -9.7494    107.2493     96.4282   8.6309363697e+01   4.2221869193e+01    0.5517223    0.2712902 -32.59  0.001938133    2.619    0.618
       119  -9.8171    104.4049     92.1928   8.5945527674e+01   4.3712939235e+01     0.443658    0.2918167  17.83  0.001325757    2.081    0.519
       120  -9.4518    106.9841     86.9981   8.3634116634e+01   4.4340282275e+01    0.3309407    0.2193249 -43.14 0.0006421629    1.448    0.310
       121  -9.6420    109.1251     83.8107   8.2023141843e+01   4.4589550132e+01    0.3193063     0.262451   7.91  0.000699711    1.375    0.273
       122  -9.5827    133.7867    102.1477   8.0475206440e+01   3.5430870367e+01    0.3296302    0.2479837 -39.40 0.0007361518    1.311    0.237
       123  -9.5131    132.5314     98.0223   7.9638643334e+01   3.6594188701e+01    0.3891751    0.2603302 -45.36  0.001099442    1.479    0.324
       124  -8.2605     95.5466    103.4415   9.1735685212e+01   4.2797043296e+01    0.1522573    0.1387919 -29.00 0.0002352118    1.100    0.091
       125 -10.2339     78.0092    101.7843   9.6740623885e+01   4.6075303336e+01    0.5517136    0.2752328  30.92  0.002279819    2.300    0.565
       126 -10.2992     62.6459    102.5566   1.0182162544e+02   4.8060374836e+01     0.662855    0.4235927   0.31  0.002317125    2.425    0.588
       127  -8.8016     62.6817     98.3276   1.0082702930e+02   4.9062675356e+01    0.2182993    0.1774534  55.96   0.00120008    1.449    0.310
       128  -9.3154     39.3531    102.8441   1.0936671755e+02   5.0628165165e+01    0.2576436    0.1877554  22.39  0.000821067    1.647    0.393
       129  -8.8398     10.5847     99.7399   1.1795758274e+02   5.3617231285e+01    0.1647487   0.09844897 -79.44 0.0002347457    1.480    0.325
       130  -9.8475    156.1675     96.5406   7.3247525296e+01   3.1462918852e+01     0.487739    0.2536554 -30.42  0.001770182    2.217    0.549
       131  -9.4049     87.8695     97.2944   9.2470652737e+01   4.5544357770e+01    0.2834172    0.2481757 -69.21 0.0008558928    1.228    0.186
       132  -8.9125     44.4890     93.4670   1.0575828895e+02   5.2345476162e+01    0.3672823    0.1733732 -73.32  0.001453513    2.737    0.635
       133 -10.2181     39.0636     96.8162   1.0827553090e+02   5.2095244435e+01    0.3872879    0.2524731 -15.76  0.001932762    2.060    0.515
       134 -10.2623     39.4914     92.4713   1.0723054940e+02   5.3082076664e+01    0.2471168    0.2150284 -47.95 0.0005616451    1.072    0.067
       135 -11.4019     34.7675     91.2655   1.0857924254e+02   5.3807255560e+01    0.6700418    0.3550317   4.86  0.001588402    2.858    0.650
       136 -11.1427    122.9862     92.0555   8.0507778354e+01   3.9949232146e+01    0.7357482    0.5853145  38.08  0.003085422    1.290    0.225
       137 -10.9651    116.1300     95.1808   8.3361927243e+01   4.0717843187e+01     0.553231    0.4042175  51.15  0.001389582    1.479    0.324
       138 -11.3756     73.0160     95.0505   9.6637952106e+01   4.8402344372e+01    0.6737361     0.527905  35.55  0.002467419    1.403    0.287
       139 -10.4169     73.7597     89.5102   9.4927199158e+01   4.9572135912e+01    0.6604381    0.2334402  34.24  0.002369292    3.119    0.679
       140  -9.6425     77.3092     84.8601   9.2446520070e+01   5.0083155055e+01    0.4104449    0.2733482 -62.77  0.001262779    1.713    0.416
       141  -8.9638    189.1897     94.2988   6.5451915616e+01   2.3950233294e+01    0.2766641    0.2081361 -20.05  0.001271524    1.471    0.320
       142  -8.5879    136.9721     95.4913   7.7734770349e+01   3.6136031106e+01    0.2331398    0.1567858  45.11 0.0004212875    1.508    0.337
       143  -8.2493    174.6537     91.6806   6.7702858061e+01   2.7959891588e+01    0.1651324    0.1239942  14.30 0.0007049135    1.729    0.422
       144 -10.4149     88.8849     88.6662   8.9749821750e+01   4.7331562052e+01    0.6830918    0.4922023   9.86  0.001674012    1.781    0.438
       145  -9.2318     83.0315     89.7975   9.1958999442e+01   4.8058951424e+01    0.2550252    0.1497149  34.62   0.00113532    1.847    0.459
       146  -9.9133     82.8415     85.9335   9.0921329396e+01   4.8957951016e+01    0.4074646    0.2402761 -34.05  0.001780142    1.808    0.447
       147  -8.7791    214.3791     89.7206   5.9656095266e+01   1.8796875860e+01    0.2103959    0.1380387 -26.42 0.0008522691    1.584    0.369
       148  -8.8114    194.0603     89.6550   6.3249232416e+01   2.3620856081e+01    0.2121848     0.193497  48.06 0.0004570577    1.134    0.118
       149  -9.0275    187.2694     89.2942   6.4457283981e+01   2.5330863438e+01    0.2053901    0.1757035 -72.24  0.000411243    1.315    0.240
       150 -10.4307    112.3907     88.1203   8.2366948196e+01   4.3011327941e+01    0.4279934    0.2268637 -34.12  0.001649585    2.063    0.515
       151  -9.4272     53.0186     82.0150   1.0005523101e+02   5.4058205896e+01    0.4486558    0.2549076 -23.94  0.001971887    2.385    0.581
       152 -11.2104    138.8767     69.7069   6.9332918474e+01   4.0755366169e+01     0.907021    0.6055763  59.92  0.002486549    1.649    0.394
       153 -11.1502    135.4381     82.4339   7.4228202361e+01   3.9148362919e+01    0.9331554    0.6264482  -5.58  0.003668459    2.266    0.559
       154 -10.2109    150.5555     67.5512   6.5837842563e+01   3.8303737801e+01    0.5703922    0.3890786  19.35  0.002381401    1.991    0.498
       155 -10.7514    147.6336     80.3271   7.0507582036e+01   3.6682844581e+01     1.527216    0.6673984 -21.77   0.00371006    5.604    0.822
       156 -10.6196    145.5495     76.1222   6.9716706578e+01   3.7976079238e+01    0.6333878    0.4243206  15.97 0.0008803338    2.180    0.541
       157  -9.6823    153.2333     75.3859   6.7661958654e+01   3.6245977018e+01     0.597594    0.3850681  12.34  0.002220908    2.577    0.612
       158  -9.5760    155.4453     85.8875   7.0318366892e+01   3.3735371083e+01    0.3957292    0.2664077  20.82  0.001585433    2.063    0.515
       159 -10.7055    119.1429     86.6661   7.9976512207e+01   4.1908978053e+01    0.4219177    0.2712816  42.07  0.001277307    1.592    0.372
       160  -8.7372    222.5114     86.5266   5.7521648721e+01   1.7467651286e+01    0.1472213    0.1350846 -45.89 8.450654e-05    1.023    0.022
       161 -10.9088    163.4624     80.4237   6.6870619015e+01   3.2806513753e+01     1.053661    0.4757785  38.36  0.003332459    2.824    0.646
       162 -10.3617    129.3057     61.8715   6.9198925782e+01   4.4410115026e+01    0.6188766    0.4007923  47.32  0.002129666    1.518    0.341
       163 -10.5242    137.6900     59.3207   6.6221812086e+01   4.2854184651e+01    0.4001647    0.2799127  11.42            0    1.911    0.477
       164 -10.2999    130.6906     74.8019   7.3082437481e+01   4.1725393954e+01    0.6168352    0.3753418  78.52  0.001598413    3.622    0.724
       165 -10.6177    106.8673     60.1542   7.4909821551e+01   4.9703118077e+01    0.5781293    0.4073914 -19.90  0.001490149    1.536    0.349
       166 -10.1104    108.0774     69.6431   7.7794643053e+01   4.7672595695e+01    0.3856657    0.2808845 -36.50  0.000551808    1.333    0.250
       167 -10.4056    101.5689     69.2282   7.9649465859e+01   4.9073196293e+01     0.606981     0.386697 -45.24  0.002383362    1.576    0.366
       168 -12.2906    118.0949     70.1156   7.5020026792e+01   4.5447340380e+01     1.416965    0.7961493  36.25   0.00263509    1.933    0.483
       169 -10.8240    111.8997     63.5850   7.4606485874e+01   4.8010878558e+01    0.3765367      0.29367 -31.68 0.0003356185    1.257    0.204
       170 -10.8720    103.0428     80.7987   8.2932656281e+01   4.6432388006e+01     0.629822    0.4459792 -11.44  0.001722305    1.831    0.454
       171 -10.5658     98.7587     75.9295   8.2726139205e+01   4.8273838809e+01    0.6460695    0.3897166 -32.16  0.002510601    1.728    0.421
       172  -9.4003    123.5941     79.8223   7.6606386215e+01   4.2343871180e+01     0.300387    0.2370184   7.02 0.0009071059    1.512    0.339
       173  -9.6502     90.5498     77.1973   8.5758915095e+01   4.9531687844e+01    0.4906089    0.3221757   5.92  0.002068821    2.262    0.558
       174  -9.7480      5.1343     77.3851   1.1622783728e+02   5.9072934069e+01    0.2853752    0.1999698  71.14  0.001291459    1.806    0.446
       175  -9.6769      3.6841     72.7387   1.1592560175e+02   6.0188287979e+01    0.2626852    0.1318371 -56.63  0.001098769    1.451    0.311
       176  -8.9637     20.9629    232.4816   1.2715419360e+02   2.3465656462e+01    0.1582838    0.1125761  77.67 0.0007176609    1.082    0.076
       177  -9.2214     12.5689    232.0324   1.2854776305e+02   2.4400587020e+01     0.214515   0.09945914  55.16  0.001365784    1.635    0.388
       178  -8.1212    226.6964    231.6928   8.8068250685e+01  -6.6632081712e+00     0.124728   0.07804243   8.55 0.0003222338    1.603    0.376
       179  -9.3430    248.3762     76.2147   5.1336868623e+01   1.3430530622e+01    0.2074551     0.108074 -42.90 0.0007655516    1.676    0.403
       180  -9.0761    204.1001     75.8969   5.7731446674e+01   2.3566710706e+01    0.2384004    0.1819404  20.43 0.0009206277    1.689    0.408
       181  -9.0162    219.6199    230.8964   8.9220196132e+01  -5.4948552558e+00    0.1946426    0.1284009  35.56 0.0005413155    1.362    0.266
       182  -9.9854    189.6969     77.4753   6.0703960121e+01   2.6827170839e+01    0.5436124    0.2617633  39.61  0.001527585    2.634    0.620
       183 -10.1910    165.0340     70.2575   6.3479573005e+01   3.4231398478e+01    0.7088318    0.3763409 -44.10  0.002800413    1.932    0.482
       184 -11.8734     41.3264     51.3102   9.5445387391e+01   6.1962042320e+01    0.8237674     0.563053  21.55  0.002769779    1.608    0.378
       185  -9.5018    196.9758     71.5116   5.7744850467e+01   2.6032963283e+01    0.2836133    0.2283948  29.09  0.000788965    1.454    0.312
       186  -9.4028    177.8029     69.6580   6.0716841574e+01   3.1125708762e+01      0.37673    0.2958279 -34.73  0.001412799    1.269    0.212
       187  -9.2061    250.0428     70.4663   4.9782373801e+01   1.3947975172e+01    0.1877029     0.134292  63.12 0.0008818001    1.558    0.358
       188  -8.8929    170.0844     70.5128   6.2506200331e+01   3.2920691157e+01    0.2327235    0.1500036  52.79 0.0007479498    1.538    0.350
       189  -8.2230    203.6592     68.6571   5.5847656918e+01   2.4855632463e+01    0.1546131    0.1157146  20.11 0.0007048462    1.778    0.438
       190 -11.7075     32.2932     42.1734   9.6175744497e+01   6.4676261752e+01    0.7780645    0.5664414  11.75  0.004226559    1.466    0.318
       191  -9.1575    131.7783     67.2265   7.0337324361e+01   4.2881423363e+01    0.2715517    0.1982733  41.35 0.0007547718    1.366    0.268
       192  -9.3243    135.8486    230.1858   1.0529037346e+02   8.1911084483e+00    0.1708996    0.1440259  19.16  0.001084551    1.337    0.252
       193  -9.2047    167.3926     63.2156   6.0850988263e+01   3.4824862194e+01    0.3526289    0.2875493 -40.47   0.00175501    1.231    0.188
       194  -9.3336    207.0864     61.3249   5.3329947607e+01   2.5168663179e+01    0.2945654     0.200481 -40.58  0.001016945    1.393    0.282
       195  -9.9524    186.0824     61.0450   5.6684309427e+01   3.0441008021e+01    0.5137461    0.3795107  88.68  0.001902727    1.608    0.378
       196  -9.9677    185.7753     55.4249   5.5114077137e+01   3.1387363388e+01    0.3863143     0.265297  48.16  0.001051234    1.497    0.332
       197 -10.6762    183.4400     51.8884   5.4482630779e+01   3.2510808887e+01    0.3584501    0.3475249  23.14 0.0006270123    1.109    0.098
       198 -10.2171    151.1094     59.8711   6.3263058871e+01   3.9468314908e+01    0.5384785    0.3138434  40.67  0.001675285    1.822    0.451
       199  -8.8005    234.0277     59.7410   4.9195814097e+01   1.9047773876e+01     0.183845    0.1710334 -73.94 0.0001786876    1.071    0.067
       200 -10.1373    234.7507     55.4676   4.8061808633e+01   1.9506313651e+01     0.380567    0.2437118 -63.25  0.001607975    1.680    0.405
       201  -9.0938    212.6372     59.3905   5.1991786703e+01   2.4114152944e+01    0.2925014    0.2048149  19.97  0.001322288    2.113    0.527
       202  -9.4254    201.0123     59.8954   5.3880670834e+01   2.6882352397e+01    0.3043372    0.2075947  67.94 0.0008867649    1.525    0.344
       203 -10.8795    156.0241     43.7182   5.7000188843e+01   4.0701769135e+01      1.28971    0.7569623 -12.68  0.005264948    2.286    0.562
       204 -10.0231    136.4612     42.2307   6.0683523550e+01   4.5810443967e+01    0.4855171    0.3287837 -51.61  0.002243337    1.759    0.431
       205  -9.4888    156.1274     32.5930   5.3362713774e+01   4.2163293767e+01    0.2949174     0.265739 -38.39  0.001186728    1.170    0.145
       206 -10.9797    142.0416     44.1526   6.0083634525e+01   4.4157554906e+01    0.6014454    0.3789088 -14.61 0.0006335478    1.930    0.482
       207 -10.9008    147.5063     35.1796   5.5883674038e+01   4.4021632928e+01    0.9542199    0.3502533  59.35  0.003419934    2.540    0.606
       208  -9.7024    140.5065     52.0337   6.3103938058e+01   4.3350224015e+01    0.3906181    0.2481213  54.79 0.0009529009    1.540    0.351
       209 -10.2904    166.3860     53.3461   5.8016690904e+01   3.6644423657e+01    0.4918253    0.3119264 -40.08  0.001816893    1.591    0.372
       210 -10.4787    160.7562     51.9346   5.8685386560e+01   3.8292797735e+01    0.5195079    0.3818927 -29.74  0.001836863    1.407    0.289
       211  -9.9098    144.0524     58.1186   6.4303169171e+01   4.1503267701e+01    0.3066745    0.2663291  25.59  0.000486511    1.190    0.160
       212 -12.1050    147.3242     53.6704   6.2091888852e+01   4.1408103407e+01    0.4252987    0.3431343  30.58  0.000179109    1.305    0.234
       213 -10.2694    145.1619     49.0447   6.1039922879e+01   4.2658957711e+01    0.4001046    0.2993165  32.31 0.0006900207    1.425    0.298
       214 -10.8036    193.5890     55.2623   5.3773452277e+01   2.9438518211e+01    0.6807051    0.4384944  33.43  0.002975284    2.015    0.504
       215 -10.4194    120.2596     55.6529   6.9477985219e+01   4.7561095260e+01    0.6468806    0.4676271  13.19  0.003000787    1.675    0.403
       216  -9.9503    116.9695     49.8050   6.8299274537e+01   4.9268568905e+01    0.5180453    0.3531905  12.10  0.001896086    1.874    0.466
       217 -10.1488    118.4743     43.6250   6.5641274377e+01   4.9885680243e+01    0.5489454    0.2320759 -33.98  0.002109055    2.374    0.579
       218 -10.2716    133.5177     53.8707   6.5408039688e+01   4.4754960673e+01    0.6970695    0.3882926  -7.12  0.002369661    3.283    0.695
       219  -9.7169     12.7180     56.8946   1.0904940191e+02   6.3184034486e+01    0.2105804      0.16428  21.98 0.0009214188    1.582    0.368
       220  -9.0156    244.0119     54.9811   4.6855524418e+01   1.7509968270e+01    0.1978213    0.1643103  17.76 0.0005514967    1.621    0.383
       221 -10.6047    238.7602     51.9006   4.6724606130e+01   1.9111183379e+01    0.2458672    0.2031979 -61.19  0.001436998    1.108    0.098
       222  -9.0071    236.9808     47.5002   4.5871332103e+01   2.0126659471e+01    0.2357904    0.1940752 -43.71  0.001001856    1.121    0.108
       223  -8.9517      9.9374     52.1497   1.0901877494e+02   6.4350648677e+01    0.1587792    0.1401948 -47.57 0.0004199768    1.171    0.146
       224  -8.9358    211.8552     50.4844   4.9752879627e+01   2.5614075925e+01    0.3383384     0.163331 -41.10  0.001428577    1.922    0.480
       225  -8.5201    228.2013     49.8547   4.7477251415e+01   2.1811191215e+01    0.1738126    0.1615436  36.52 0.0004524037    1.276    0.216
       226 -11.1092    173.7197     46.4070   5.4531733606e+01   3.5793128196e+01    0.6441169    0.4317088  82.04  0.001956742    1.760    0.432
       227 -10.3212    177.4895     44.4511   5.3291663207e+01   3.5103606939e+01    0.5147725    0.2556544  58.40  0.002121161    1.902    0.474
       228  -8.1904     16.6248     50.6726   1.0576035653e+02   6.4248144165e+01    0.1357579   0.06822882 -33.58 0.0007026354    1.833    0.454
       229  -9.0034    188.4427     49.2163   5.2882000417e+01   3.1630006402e+01     0.402117    0.1959298  80.83  0.001350895    3.271    0.694
       230 -10.1531    206.1675     46.3208   4.9428606113e+01   2.7598432144e+01     0.525404    0.2132154  53.99  0.001289868    2.453    0.592
       231  -9.0628    202.1304    228.9887   9.2158405569e+01  -2.5058091749e+00    0.1866036    0.1510839  22.09 0.0003884474    1.020    0.020
       232 -10.6792    113.7234     32.2367   6.2624986448e+01   5.2582143433e+01      0.57232    0.3248919  14.39  0.002171564    2.670    0.625
       233  -9.7703    105.6675     42.9015   6.8953957688e+01   5.2847914505e+01      0.53282    0.4159898 -31.10  0.002827022    1.291    0.226
       234  -9.2138     95.3587     45.8910   7.3248955486e+01   5.4520089685e+01    0.2985248     0.199684 -11.11 0.0008148233    1.726    0.421
       235  -9.9296     97.8934     41.8400   7.0891242421e+01   5.4649992610e+01    0.3795482    0.2936068 -17.37  0.001926662    1.272    0.214
       236  -9.8064    100.3401     37.9772   6.8635608253e+01   5.4724368604e+01    0.3400929    0.3323722 -22.78  0.001361127    1.194    0.163
       237  -9.7183     74.7602     46.4027   8.0480152366e+01   5.8244611009e+01     0.350607     0.225524  26.18  0.001066637    1.633    0.388
       238 -10.3301     76.3380     41.9137   7.8149778766e+01   5.8740463719e+01    0.3216586    0.2572913 -31.39 0.0008134136    1.213    0.176
       239  -9.3317      6.7913     46.6878   1.0895697420e+02   6.5658343318e+01    0.2022444     0.150479 -62.13 0.0004250252    1.271    0.214
       240  -9.7113    174.4292     56.3976   5.7420880126e+01   3.4124697281e+01    0.4580498    0.2816344  -6.95  0.001781473    2.502    0.600
       241  -9.1969    128.1668     45.1272   6.3687382509e+01   4.7392919001e+01    0.3393227    0.2681558  41.25  0.001740488    1.210    0.173
       242  -9.4823    248.9428     44.4659   4.3875322300e+01   1.7893318894e+01    0.2351642    0.1812107 -16.85 0.0006719191    1.578    0.366
       243  -8.6981    197.2018     41.8114   4.9460493728e+01   3.0455256398e+01    0.1793696    0.1638072  24.71 0.0002487216    1.267    0.211
       244  -8.7845    224.9479     41.5035   4.5785743506e+01   2.3724319739e+01    0.2010544    0.1289151  64.08  0.001012765    1.581    0.367
       245  -9.9276    189.3121     40.5303   5.0257672202e+01   3.2623176046e+01    0.4555046    0.2185203  55.97  0.001457453    1.986    0.497
       246 -11.3103    192.7455     32.4908   4.7486450818e+01   3.2801595497e+01    0.4920109    0.3936573  -1.32 0.0006271056    1.570    0.363
       247  -8.4296    112.4819     41.5044   6.6482545597e+01   5.1561341054e+01    0.1439259    0.1353271  16.23 -1.808469e-05    1.041    0.039
       248  -9.1331    219.5399     42.8838   4.6782435739e+01   2.4821095836e+01    0.2047602    0.1305091 -34.04 0.0008002773    1.525    0.344
       249  -8.7948    235.4315     39.7201   4.4174808834e+01   2.1533143706e+01    0.1793132    0.1275063 -21.03 0.0009446058    1.638    0.389
       250  -9.6847    173.5018     38.9478   5.2304488466e+01   3.6880499032e+01    0.3252825    0.3064614  76.38  0.001321681    1.014    0.013
       251 -12.7842     47.6791     39.6307   8.8522706158e+01   6.3439153262e+01    0.8338323    0.4173162  25.67   0.00077487    2.193    0.544
       252 -10.4368    225.9569     28.4040   4.2436469855e+01   2.5179774419e+01    0.5263716    0.3212053 -37.63  0.002026834    1.540    0.350
       253 -10.0014    216.2564     38.9639   4.6180214752e+01   2.6137161262e+01     0.336614    0.2030979  73.64  0.001386065    1.695    0.410
       254 -10.7186    220.4162     34.5217   4.4558533876e+01   2.5719463600e+01    0.4840448    0.4499623  78.65   0.00169868    1.126    0.112
       255  -9.2337    250.0190     25.3323   3.9451306698e+01   2.0122639589e+01    0.2140528    0.1444059 -50.62 0.0003859793    1.265    0.209
       256  -9.6497    246.4955     27.6504   4.0278604443e+01   2.0605318622e+01    0.2681592    0.1655741  71.35 0.0009767064    1.648    0.393
       257  -9.6714    242.6565     25.1871   4.0063431509e+01   2.1755752901e+01    0.3355322    0.2373207 -44.79  0.001285923    1.259    0.206
       258  -9.5397    234.1506     34.2963   4.3011696010e+01   2.2534850743e+01     0.256218    0.2033703  32.10 0.0007401131    1.694    0.410
       259  -8.9428    137.3932    224.2705   1.0419070636e+02   8.9580209098e+00    0.1547787    0.1241213 -73.24 0.0006426422    1.520    0.342
       260 -10.9610    211.9173     31.2724   4.4713788339e+01   2.8184801278e+01    0.7670937    0.5187403  45.20  0.003905251    1.726    0.421
       261  -9.2732     41.0130    221.4769   1.2290662387e+02   2.3366699692e+01    0.2011753    0.1388913 -65.50 0.0007910468    1.620    0.383
       262  -8.8087    235.2531    219.2433   8.4388778091e+01  -6.3496475924e+00    0.1874965   0.09152675  45.56 0.0008984135    2.436    0.590
       263  -9.2759     26.9828    212.5134   1.2490559988e+02   2.6694656174e+01    0.1582083      0.09888  42.02 0.0007495409    1.576    0.366
       264  -8.9269     13.5442    212.5249   1.2737266697e+02   2.8046969370e+01    0.1126097   0.08004293  74.60  0.000159011    1.029    0.028
       265 -10.1089    135.4363     33.6625   5.7907778873e+01   4.7229424324e+01    0.4949213    0.2881785  25.13  0.001658669    2.278    0.561
       266 -10.2377    240.1212    207.6948   8.1428304077e+01  -5.5585550795e+00    0.3148959    0.1310634 -34.20   0.00145991    2.386    0.581
       267  -9.4487    159.9593     24.2393   4.9989142302e+01   4.2186141846e+01    0.4706931    0.2769993 -58.48  0.002041605    2.141    0.533
       268  -9.6811    233.9832    199.7234   8.1034895574e+01  -3.4887637747e+00    0.1862562    0.1501423  13.43  0.001160736    1.065    0.061
       269  -9.2932     27.6222    194.0865   1.2348985053e+02   3.0442196248e+01    0.2094924    0.1338411  56.44 0.0009424957    1.370    0.270
       270 -10.0738    179.9576     25.0320   4.7138850659e+01   3.6964389701e+01    0.3599895    0.2365191 -87.90 0.0003030747    1.712    0.416
       271  -9.4689     11.7664    192.9687   1.2655351384e+02   3.2212149385e+01    0.4037922     0.110806  47.56  0.001894753    2.923    0.658
       272  -9.1707     33.0324    192.0321   1.2222805823e+02   3.0316378609e+01    0.1754391     0.128554 -52.65 0.0008589281    1.722    0.419
       273  -8.4373    229.7290    187.7003   7.9477369825e+01  -1.0160289534e+00    0.1336543   0.09152161   1.77 0.0002269788    1.527    0.345
       274  -8.5005      7.7229    186.2680   1.2692853100e+02   3.3988312768e+01    0.1444801    0.1150044 -84.74 0.0004255154    1.187    0.157
       275  -9.3477     11.5174    184.6606   1.2606669349e+02   3.4001621245e+01    0.2125449    0.1559181 -72.82 0.0009358963    1.319    0.242
       276  -8.2722     18.3234    182.6469   1.2453558022e+02   3.3820636018e+01    0.1290887   0.06728271  68.67 0.0007047317    1.758    0.431
       277  -9.6575     78.4873    180.5118   1.1103335642e+02   2.7192938170e+01    0.3385426    0.1963002 -59.29  0.001702645    1.709    0.415
       278  -9.8968      2.6213    178.1892   1.2744752390e+02   3.6144251120e+01    0.3193115    0.2359255 -58.51  0.002248759    1.585    0.369
       279  -9.8852    198.9517     32.2945   4.6598502624e+01   3.1263634752e+01    0.2621427    0.1933528 -43.36 0.0007292147    1.327    0.246
       280  -8.7820     37.1904    179.4152   1.2024523403e+02   3.2643679225e+01    0.1739984    0.0952688  49.65 0.0009509939    1.711    0.416
       281  -9.8378    173.5191     30.2470   4.9660618038e+01   3.7991546081e+01    0.3529854    0.2770373  10.82  0.001165509    1.580    0.367
       282 -10.1240    167.5253     28.5008   5.0083703988e+01   3.9744250204e+01    0.3867019    0.3090489 -12.95  0.001037102    1.428    0.300
       283  -9.6481    146.7117     29.3349   5.4065693357e+01   4.4958833723e+01    0.4413041    0.2896061  61.58  0.001560019    1.439    0.305
       284  -9.5946    147.3595     23.9632   5.2122950029e+01   4.5427619049e+01    0.2676726    0.2136974  48.88 0.0006075582    1.166    0.142
       285  -9.6886    203.3497     28.4149   4.4991475136e+01   3.0648588918e+01     0.390505     0.234733  -7.22  0.001423123    2.531    0.605
       286  -9.8147    205.0272     22.1054   4.3118150889e+01   3.0985959699e+01    0.3597178    0.2361371 -13.03  0.001775596    1.978    0.494
       287  -9.5679    185.8219     25.1523   4.6355120587e+01   3.5453319810e+01    0.4547609      0.17733 -44.47  0.001114662    2.633    0.620
       288  -9.2358    153.3987     24.8338   5.1314545077e+01   4.3794531037e+01    0.3536499    0.2319032 -40.98  0.001725266    1.628    0.386
       289  -8.6532     65.5714    173.1998   1.1309996656e+02   3.0651515655e+01    0.1828685    0.1118284 -58.05 0.0006369769    1.622    0.383
       290 -10.7187    129.0407     23.3355   5.5593728515e+01   5.0053746241e+01    0.4586069    0.2321345  56.45   0.00103941    1.784    0.439
       291  -8.8251    246.6594    171.3425   7.3127882711e+01  -1.3898170805e+00    0.1232028    0.1063749 -62.37 0.0007048714    1.776    0.437
       292 -10.1138    114.8157     24.7736   5.9461693663e+01   5.3268881854e+01    0.2530649    0.2141993  34.06 0.0003040606    1.072    0.067
       293 -10.2151     18.3794    166.7189   1.2327055928e+02   3.7355757965e+01    0.3986645     0.137555 -56.29  0.001773405    2.915    0.657
       294 -10.4940     32.3347    166.2061   1.2006450878e+02   3.6151445674e+01    0.2173147    0.1843242  70.66 0.0003114467    1.137    0.120
       295  -9.5136     13.3920    165.6572   1.2428864810e+02   3.8026535082e+01    0.1636326    0.1369075 -38.64  0.000665138    1.650    0.394
       296  -9.6876    111.3046     21.6054   5.9104038485e+01   5.4447402042e+01    0.3165683    0.1965967  41.00 0.0007104207    1.478    0.324
       297 -10.1718      2.0872    159.3048   1.2630081308e+02   4.0342081271e+01    0.4534882    0.1478806 -87.89  0.001761677    3.021    0.669
       298  -8.4427    232.3160    159.3183   7.3105914121e+01   3.0219117978e+00    0.1450935    0.1001746   2.38 0.0007039289    1.654    0.395
       299  -9.6475     28.7214    158.2363   1.2010867247e+02   3.8351717857e+01    0.1993912    0.1700031  83.16 0.0003253462    1.088    0.081
       300  -8.7567    140.4149     23.7068   5.3366343394e+01   4.7203563736e+01    0.1862124    0.1370608  -3.13 0.0009379574    1.573    0.364
       301  -8.0586    137.2429     24.3043   5.4212798790e+01   4.7925721430e+01    0.1394275    0.1014386  26.15 0.0006862576    1.492    0.330
       302 -10.2876     18.3189    158.7974   1.2259683763e+02   3.9167458130e+01    0.2269053     0.190079   4.98 0.0009758868    1.729    0.422
       303  -9.0056     75.0794     19.0926   6.8862765441e+01   6.2302650731e+01    0.2665178    0.1713075  47.93 0.0009286347    1.637    0.389
       304 -10.5584      8.9257    151.9513   1.2417855950e+02   4.1500783877e+01    0.4117124    0.1870993  61.10  0.001249555    2.309    0.567
       305  -9.0046     79.9721     18.7534   6.7037504186e+01   6.1420165842e+01    0.2526304    0.2277345  42.54  0.001590572    1.288    0.224
       306 -10.4481    247.5714     18.9239   3.8234976916e+01   2.1423189804e+01    0.5822296    0.2432577  76.22  0.002105474    2.483    0.597
       307 -10.8840     14.5610    151.1081   1.2277964047e+02   4.1254340311e+01    0.4204318    0.1996873  71.88  0.001366915    2.301    0.565
       308  -9.2594     10.7441    145.1087   1.2314435495e+02   4.2941811537e+01    0.2749243    0.1333989 -61.51  0.001070434    1.761    0.432
       309 -10.5014     31.2170    151.5614   1.1879649870e+02   3.9677283018e+01    0.3315752    0.2469214  11.95  0.001405996    1.892    0.472
       310  -8.7442     46.1122    150.1984   1.1490243711e+02   3.8456366290e+01     0.189828     0.154535 -58.41 0.0004490819    1.249    0.199
       311  -9.6926    236.0115    249.4391   8.9295777367e+01  -1.0098461671e+01    0.3066703    0.1155304  38.82  0.001537573    2.329    0.571
       312  -8.7659    235.5272     13.5320   3.8016163539e+01   2.4724399556e+01    0.2036004    0.1471965 -80.68 0.0007626252    1.266    0.210
       313 -13.0722     13.7875    125.1612   1.2030803347e+02   4.7401883803e+01     1.892542    0.6467948 -74.03 0.0007617135    2.404    0.584
       314 -12.3863     11.8758    107.4876   1.1864538238e+02   5.1714134329e+01     1.500937    0.4773132 -52.35  0.006435617    2.548    0.607
       315 -10.2314    107.3328    248.6339   1.1290201884e+02   9.5179859531e+00    0.2625292    0.1871813  64.47  0.001724932    1.319    0.242
       316  -9.4365    227.9658     18.0000   3.9727068553e+01   2.5952907321e+01    0.3604435    0.2187578 -72.00  0.001841017    1.672    0.402
       317  -9.9396    188.8362     19.4930   4.4353354614e+01   3.5335269420e+01    0.2490312    0.2028668  38.67 0.0004458993    1.396    0.283
       318  -9.9683    110.6688     17.5754   5.7661793628e+01   5.5040452474e+01    0.2507143    0.1298872  60.71  0.001113435    1.954    0.488
       319  -8.7991     30.5634    248.2358   1.2638599907e+02   1.9588783362e+01    0.1328555   0.08510112 -72.77 0.0009505887    1.679    0.404
       320  -8.9097     91.6749    246.3235   1.1556738974e+02   1.2175681248e+01    0.1242091   0.07125825  63.46 0.0007048139    1.687    0.407
       321  -9.6323     67.2065     12.9872   6.8844099377e+01   6.4471570843e+01    0.2943463    0.1763928  44.68  0.001081111    1.666    0.400
       322 -11.7551     32.7241     59.2885   1.0148802878e+02   6.1174335420e+01    0.5633017    0.4081787 -15.60   0.00106053    1.438    0.305
       323 -10.3357    141.7719    243.9490   1.0588835175e+02   4.9926666558e+00    0.3048548    0.2251924  21.49    0.0014718    1.513    0.339
       324  -9.4047    162.0239    250.2384   1.0285958403e+02   8.6248633871e-01    0.1715809   0.08206099  38.85 0.0004283957    1.652    0.395
       325 -11.7039     57.9583     48.2774   8.7592922118e+01   6.0492770223e+01    0.8785122    0.6847759 -20.49   0.00467306    1.143    0.125
       326 -11.3584     66.0952     44.9969   8.3174622529e+01   5.9894627664e+01    0.7307081    0.5179186 -46.06  0.003971159    1.512    0.339
       327  -8.7449      3.4791    246.4876   1.3063385581e+02   2.2688034272e+01    0.1670699   0.06836091 -69.34  0.001029003    2.499    0.600
       328 -13.0013     60.9193     68.3763   9.3288584013e+01   5.6065108880e+01     2.177311     1.088869  40.94  0.008723066    2.341    0.573
       329 -10.2476     14.5290    237.7579   1.2849524038e+02   2.3155140456e+01    0.2680814    0.1190597 -89.94  0.001630893    1.982    0.495
       330 -11.7869     56.5967     37.6915   8.4033919043e+01   6.2581831709e+01    0.4833818    0.3277806  -8.88  0.001439729    1.538    0.350
       331  -8.2898     76.4923    149.4739   1.0692668230e+02   3.4748888276e+01    0.1419316    0.1258654  89.67 0.0001114953    1.048    0.046
       332  -9.1972     67.4771    147.9760   1.0904983880e+02   3.6368566413e+01    0.2023262    0.1115955  88.98 0.0008101083    2.558    0.609
       333 -11.3369     30.3385    141.7546   1.1788744304e+02   4.2089370014e+01    0.6983404    0.4335927  83.93  0.003814086    1.604    0.376
       334  -9.9564     40.3589    146.3661   1.1587911394e+02   3.9995721503e+01    0.3466974    0.2261244 -42.36  0.001865714    1.850    0.459
       335 -10.1555     37.7951    142.9412   1.1610379281e+02   4.1081200415e+01    0.3237683    0.2478349  39.26  0.001102428    1.466    0.318
       336 -10.2222      5.2025    147.1572   1.2464861242e+02   4.2873839370e+01    0.2000434    0.1847835  66.83 0.0007381991    1.286    0.223
       337 -10.3038      6.2902    142.7174   1.2400702026e+02   4.3819415729e+01    0.2603877    0.1875745 -71.86 0.0005266554    1.163    0.140
       338 -10.7114     22.3056    145.7030   1.2036623633e+02   4.1871815629e+01    0.4431757    0.2384274  69.60   0.00227966    2.013    0.503
       339  -9.1326     45.2478    144.8164   1.1441085109e+02   3.9844859663e+01    0.2302664    0.1627937 -27.27  0.001014163    2.034    0.508
       340  -9.2332     98.6727    139.8957   9.9252830116e+01   3.3566511014e+01    0.2115617    0.1808569 -68.69 0.0006147213    1.137    0.121
       341 -10.5923     57.7137    138.0102   1.1008036126e+02   4.0048570801e+01    0.5109878    0.2822463  43.31  0.002469058    1.910    0.476
       342  -9.0530     47.6727    139.1719   1.1297726730e+02   4.0942219004e+01    0.2437319    0.1496443 -73.68  0.001257672    1.459    0.315
       343 -10.3376      3.1271    136.8860   1.2426296394e+02   4.5382448323e+01    0.3904282    0.2367701 -47.16  0.002309545    1.846    0.458
       344 -10.4503     66.5606    134.3785   1.0703006341e+02   3.9801894279e+01    0.3332729    0.2602884  74.83  0.001812462    1.374    0.272
       345  -9.8260     75.3965    119.3455   1.0157806207e+02   4.2244266080e+01    0.5782907    0.2690201  49.16  0.002087961    2.608    0.617
