#   1 NUMBER                 Running object number                                     
#   2 MAG_AUTO               Kron-like elliptical aperture magnitude                    [mag]
#   3 X_IMAGE                Object position along x                                    [pixel]
#   4 Y_IMAGE                Object position along y                                    [pixel]
#   5 X_WORLD                Barycenter position along world x axis                     [deg]
#   6 Y_WORLD                Barycenter position along world y axis                     [deg]
#   7 A_WORLD                Profile RMS along major axis (world units)                 [deg]
#   8 B_WORLD                Profile RMS along minor axis (world units)                 [deg]
#   9 THETA_WORLD            Position angle (CCW/world-x)                               [deg]
#  10 FWHM_WORLD             FWHM assuming a gaussian core                              [deg]
#  11 ELONGATION             A_IMAGE/B_IMAGE                                           
#  12 ELLIPTICITY            1 - B_IMAGE/A_IMAGE                                       
         1 -15.1391      8.9486    151.2565   1.4367852995e+02   4.2408037663e+01     10.04477     4.346447  73.80   0.04426158    3.236    0.691
         2 -13.3905    195.4125     29.5728   6.8770005025e+01   3.2969335857e+01     1.295233     1.241274 -79.53  0.007410311    1.126    0.112
         3 -13.5488    210.5064     10.4161   6.2281877580e+01   3.1543256847e+01     1.148973    0.9084369  40.72  0.006956482    1.605    0.377
         4 -11.8804      2.5709     11.9132   1.1655557243e+02   7.0598542046e+01    0.7898978     0.093082 -44.53  0.002978877    4.930    0.797
         5 -10.4190    198.3513    246.6522   1.1712306222e+02  -5.7313291156e+00    0.1802057    0.1443162  65.02  0.001106955    1.671    0.401
         6 -11.2333    249.4129    244.5840   1.0757809287e+02  -1.3431743045e+01    0.3190144    0.1709632 -38.73  0.001805492    2.167    0.538
         7 -11.2392    139.0116    249.8457   1.2867949117e+02   3.8230803505e+00    0.4536232    0.1301181  44.92  0.001777209    2.833    0.647
         8 -11.1791    124.4967    249.5309   1.3133238255e+02   6.2915986464e+00    0.4022241    0.1295386  45.19  0.001690961    2.518    0.603
         9 -10.8614     97.1450    245.8422   1.3593234336e+02   1.1326265000e+01    0.4174055    0.2122726 -73.98  0.002151107    2.324    0.570
        10 -10.0957    100.3096    249.6554   1.3576071415e+02   1.0147462294e+01    0.2244488    0.1567622  68.69  0.001232941    1.267    0.211
        11 -10.7839    101.2271    245.9728   1.3520312036e+02   1.0666545354e+01      0.26254     0.176258 -74.62 0.0006447205    1.597    0.374
        12  -8.8768     66.5619    250.4274   1.4175598410e+02   1.4972946535e+01    0.1163402   0.08720579  69.54 5.311522e-05    1.010    0.010
        13 -11.5981     34.4323    245.4663   1.4672629877e+02   2.0031294304e+01    0.5541023    0.3700567 -70.37  0.003919116    1.591    0.371
        14  -9.7176     29.0249    249.9792   1.4788586177e+02   1.9834466743e+01    0.2310866    0.1235506 -81.02  0.001248548    1.625    0.385
        15 -10.9199     15.9796    249.5534   1.4988550467e+02   2.1379978222e+01    0.3086313    0.1511679  50.25  0.002046378    1.698    0.411
        16 -11.1005      2.8681    248.1935   1.5178876846e+02   2.3001938388e+01    0.3486204    0.1945509 -84.41  0.002529063    1.431    0.301
        17 -12.0696     11.6983    240.1097   1.5001331541e+02   2.3580792740e+01    0.5178467    0.2269188  72.65   0.00299217    1.951    0.488
        18 -10.2687     20.5078    243.2891   1.4881593117e+02   2.2037518317e+01    0.2262585    0.1208423  67.46 0.0007088746    1.449    0.310
        19 -10.5027    106.9393    247.4938   1.3432557648e+02   9.4913666474e+00    0.1935399    0.1012241  46.14  0.001033864    1.596    0.373
        20 -10.6271    234.8107    239.3060   1.0925591881e+02  -1.0583529116e+01    0.2024334    0.1662755 -58.34  0.001275205    1.969    0.492
        21  -8.4512     57.2910    240.3138   1.4249882685e+02   1.8121613677e+01   0.09726541   0.08876598 -64.18  0.000256241    1.591    0.371
        22 -10.7884    120.1356    238.2041   1.3077352049e+02   9.0212292538e+00    0.2778316    0.1491261 -72.18  0.001340056    2.451    0.592
        23  -9.6029     22.4560    236.5300   1.4808018249e+02   2.3097522864e+01    0.2338444    0.1523138 -48.18   0.00145003    2.711    0.631
        24 -10.6671     50.3962    234.2268   1.4319230094e+02   2.0198721357e+01    0.2692402    0.1745462 -66.24 0.0009959954    1.631    0.387
        25 -11.8714    239.7511    248.5175   1.0992571269e+02  -1.2505097966e+01    0.3868765    0.2489123  32.10  0.002433289    1.323    0.244
        26 -14.1335     40.8366    224.0666   1.4404172236e+02   2.3409297212e+01     1.091862     1.045047 -39.70   0.00585388    1.713    0.416
        27  -9.8801    172.4742    222.5154   1.1823789042e+02   2.6097090602e+00    0.2498794    0.1162357  33.57  0.001035302    2.319    0.569
        28 -11.0575    229.3739    229.4369   1.0853271426e+02  -8.3799713153e+00    0.5001636    0.3237573 -63.50   0.00224917    3.660    0.727
        29 -12.8965      9.0783    207.1268   1.4838228493e+02   3.0323943344e+01    0.7189674    0.6023555  44.98  0.004497384    1.557    0.358
        30 -10.1771      6.9752    215.0553   1.4927039432e+02   2.8919138195e+01    0.2049384    0.1242739 -77.98 0.0005976615    1.360    0.265
        31  -8.8228    152.5131    212.9619   1.2071613386e+02   8.0330587146e+00    0.1807823    0.1374827 -53.84 0.0003497105    1.452    0.311
        32  -9.3867     34.7289    202.3788   1.4330529554e+02   2.8630327029e+01    0.1903334    0.1446877  85.10 0.0005830473    1.007    0.007
        33 -11.5733     61.6307    197.9695   1.3753043413e+02   2.6244989501e+01    0.2914473    0.2423417 -51.52 0.0006621784    1.529    0.346
        34  -9.5099    191.8197    192.8223   1.0900784533e+02   4.3017568248e+00      0.44427     0.201764 -60.15  0.001279544    5.309    0.812
        35  -9.0342     50.0875    196.3474   1.3969895427e+02   2.8101458088e+01    0.1680141    0.1328917  71.59 0.0003618489    1.112    0.100
        36 -11.4657      3.8264    194.0047   1.4840275023e+02   3.3532077856e+01    0.3234562    0.2248728 -85.24  0.001651221    1.097    0.089
        37 -12.0050      6.7283    189.3366   1.4752210422e+02   3.4258710607e+01    0.3828862    0.2712631 -65.43  0.002696925    1.443    0.307
        38  -9.5007     60.1927    227.2892   1.4083067159e+02   2.0279095346e+01    0.2354048    0.1225693  78.06  0.001098611    2.049    0.512
        39 -11.8537     67.7289    189.7808   1.3527509837e+02   2.7225336492e+01    0.2861996    0.2244753 -63.35 0.0006617312    1.305    0.234
        40 -10.9024     77.6967    177.2251   1.3138161174e+02   2.8649596210e+01    0.2478314    0.2127734 -76.56 0.0003496418    1.089    0.082
        41 -13.1634     64.5183    175.1806   1.3406767535e+02   3.0991128090e+01    0.5015973    0.2761448 -46.74  0.001565579    2.210    0.548
        42  -9.9839     97.9788    174.4899   1.2630682106e+02   2.6084592216e+01    0.3057001    0.1952307 -66.70 0.0003422544    1.539    0.350
        43 -11.8103     85.4627    168.0240   1.2817209621e+02   2.9607554394e+01    0.6337018    0.5804937  41.65  0.003800261    1.259    0.206
        44 -10.4420      7.7768    226.3960   1.4983798376e+02   2.6600422768e+01    0.1684909    0.1383914  31.04  0.001064605    1.901    0.474
        45 -12.0342     86.4862    151.2022   1.2502723037e+02   3.3413953510e+01    0.3023139    0.2487416 -47.74 0.0007380606    1.276    0.216
        46  -9.9538     97.9759    151.9264   1.2229351638e+02   3.1364305974e+01     0.299978    0.2581061  34.28 0.0006904719    1.314    0.239
        47  -9.1007    100.9529    147.9767   1.2077747465e+02   3.1786861574e+01    0.2191168      0.17442 -24.96 0.0003309368    1.638    0.390
        48 -12.3491     67.4612    143.7463   1.2850538741e+02   3.7975618555e+01    0.7058012     0.471703  70.24  0.002960992    1.791    0.442
        49  -8.4953    192.2753    144.2786   9.8559950841e+01   1.3734464904e+01    0.1472536    0.1205634   2.95 0.0002199918    1.497    0.332
        50 -12.7127     34.9550    231.8122   1.4567045606e+02   2.2577521159e+01    0.2960711    0.2313469 -76.75 0.0007754929    1.371    0.270
        51  -9.6892    109.6636    136.9959   1.1626247921e+02   3.2812414986e+01    0.3862116    0.2417077 -28.12  0.001551679    2.385    0.581
        52 -10.4751     96.7705    134.4173   1.1906029759e+02   3.5701800728e+01    0.2670369    0.2278571 -39.40 0.0006046208    1.241    0.194
        53 -11.3577     57.7313    131.7533   1.2891483790e+02   4.2069765635e+01    0.6074198    0.2641189 -75.04  0.002163133    3.389    0.705
        54  -8.8715     79.7828    131.7774   1.2302067167e+02   3.9046727871e+01    0.1905642    0.1559692  82.37 0.0005617225    1.340    0.254
        55 -10.5915     32.6947    132.1591   1.3555583880e+02   4.4709228365e+01    0.1970769    0.1603809  62.11 0.0006843158    1.361    0.265
        56  -8.9813    106.7091    123.9250   1.1406832895e+02   3.6388122845e+01    0.1979553    0.1778288 -58.44 0.0003241795    1.057    0.054
        57 -10.2043    167.8338    112.8885   9.6130985409e+01   2.5797178783e+01    0.3572875    0.2875996 -82.49 0.0008127976    1.497    0.332
        58  -9.4490    203.3183    111.5507   8.8482765272e+01   1.7720583825e+01    0.2557343      0.18819 -16.94 0.0007135983    1.723    0.420
        59  -9.5752    157.5145     77.0039   8.8629527513e+01   3.5200925961e+01    0.2321174    0.1495785 -37.92 0.0006786174    1.577    0.366
        60  -9.5804     44.2708     68.1063   1.1858571413e+02   5.7537428954e+01    0.2118457    0.1743314  37.35 0.0007677287    1.494    0.330
        61  -8.5684     36.6446     64.2949   1.2017504906e+02   5.9052595558e+01    0.1246623      0.10253 -35.62 0.0008274728    1.029    0.028
        62  -9.2008     33.0009     62.5025   1.2096600689e+02   5.9740722393e+01    0.2396678    0.1372402  42.47  0.001304767    2.411    0.585
        63 -10.5563     16.0402     55.8269   1.2530562452e+02   6.2381379801e+01    0.2083509    0.1773181  20.77 0.0006464863    1.461    0.315
        64 -10.2055     81.9710    248.9688   1.3895732267e+02   1.3044437917e+01    0.1965385    0.1437849  67.85  0.001312718    1.080    0.074
        65  -9.5725     46.2381    248.8413   1.4503577848e+02   1.7954573021e+01    0.2734607    0.1109259  71.38   0.00129682    2.816    0.645
