#   1 NUMBER                 Running object number                                     
#   2 MAG_AUTO               Kron-like elliptical aperture magnitude                    [mag]
#   3 X_IMAGE                Object position along x                                    [pixel]
#   4 Y_IMAGE                Object position along y                                    [pixel]
#   5 X_WORLD                Barycenter position along world x axis                     [deg]
#   6 Y_WORLD                Barycenter position along world y axis                     [deg]
#   7 A_WORLD                Profile RMS along major axis (world units)                 [deg]
#   8 B_WORLD                Profile RMS along minor axis (world units)                 [deg]
#   9 THETA_WORLD            Position angle (CCW/world-x)                               [deg]
#  10 FWHM_WORLD             FWHM assuming a gaussian core                              [deg]
#  11 ELONGATION             A_IMAGE/B_IMAGE                                           
#  12 ELLIPTICITY            1 - B_IMAGE/A_IMAGE                                       
         1 -12.8900    156.2402     52.8352   6.1131662758e+00   3.8608286292e+01     1.095212    0.9595699 -46.59  0.003841472    1.115    0.103
         2 -13.4306    168.9249     22.8681   3.5583833033e+02   3.9458025360e+01     1.261783    0.8454173  86.64   0.00552309    1.422    0.297
         3 -11.1289    189.6381     14.6226   3.5185663219e+02   3.5633190801e+01    0.2733769    0.1965277 -29.34  0.001673021    1.467    0.318
         4 -11.2732    175.5830      5.3913   3.5046904291e+02   3.9707532775e+01    0.3877679    0.2826269 -12.37  0.002309593    1.774    0.436
         5 -10.5497    169.7619      4.0164   3.5051458400e+02   4.1181930783e+01     0.256569    0.2221841 -27.02  0.001690765    1.349    0.259
         6 -10.4272    166.8059      2.3759   3.5027519747e+02   4.2022993111e+01     0.264032    0.1732588  81.47 0.0009822943    1.390    0.280
         7 -11.8887    187.4542    212.1276   3.5737402832e+01   5.4726586423e+00    0.5286116    0.3405491 -11.79  0.001720417    1.507    0.336
         8 -19.1398     80.5063    216.9802   6.0081610655e+01   1.8562274032e+01     5.912614     4.711918  31.63   0.01793676    1.067    0.063
         9 -12.4820    143.4036    145.2187   3.2758115252e+01   2.4154327615e+01    0.9910251    0.4448499 -56.87  0.003472086    3.109    0.678
        10 -11.6888    147.5262    144.4982   3.1642828176e+01   2.3553852110e+01    0.3956414    0.3430076  28.85  0.001219841    1.156    0.135
        11 -10.6885     27.8890    146.8711   6.7767546441e+01   4.1422942627e+01    0.5255673    0.3399481 -73.87  0.002574986    1.490    0.329
        12  -9.4800    220.7936    174.8906   2.3596444386e+01   6.7957411820e+00    0.1864673    0.1323445 -14.22 0.0005699262    1.229    0.187
        13 -10.6154    152.4146    127.4972   2.6743443618e+01   2.6070266802e+01    0.3118709    0.2802028  79.04 0.0005111215    1.323    0.244
        14 -10.9193    145.3712    122.7539   2.7222473561e+01   2.8411852848e+01    0.5493557     0.343082  67.44  0.001513414    2.541    0.607
        15  -9.8404    140.3312    120.6701   2.7904535347e+01   2.9850147924e+01    0.2521898    0.2069428 -59.11 0.0005768408    1.307    0.235
        16 -10.6963    194.5507    172.2907   2.7580002634e+01   1.0773950804e+01     0.409241    0.2238944 -42.38  0.001489071    1.781    0.438
        17  -8.9807     15.9096    123.1292   6.9552043195e+01   4.8869588603e+01    0.2062756    0.1967083 -62.47  0.000466498    1.085    0.078
        18  -9.9107    182.6446    116.2822   1.8124272055e+01   2.2367020742e+01    0.2572677    0.2225679 -52.54  0.000458474    1.178    0.151
        19 -10.0214    115.8510    117.1035   3.3353452877e+01   3.5571232206e+01    0.2281556    0.2098463  86.71  0.000482297    1.186    0.157
        20  -9.8025    167.5547    113.6409   2.0309896105e+01   2.5763218713e+01    0.3285392    0.2435209 -56.24  0.001416104    1.451    0.311
        21 -10.3398    134.7894    112.5538   2.7234095568e+01   3.2677752632e+01    0.5975903    0.1148939 -45.59  0.001456903    5.154    0.806
        22 -10.5444    158.1192    168.1951   3.4053093864e+01   1.7071704069e+01     0.246762    0.1949065  30.81 0.0006627974    1.250    0.200
        23  -8.6643     47.3002    115.3073   5.6154610745e+01   4.7813244186e+01    0.1548517    0.1118448 -31.97 0.0002579745    1.596    0.374
        24 -10.2882    160.6916    144.3033   2.8676387873e+01   2.1222174154e+01    0.2362226    0.2001287  49.63 0.0001677497    1.329    0.247
        25  -9.3804     95.1154    112.0293   3.8276035445e+01   4.0848777152e+01    0.2294044    0.2244636  47.61 0.0004846134    1.015    0.015
        26  -9.7934     38.9449    115.9937   5.9556383285e+01   4.8639005550e+01    0.3974928    0.2123735   0.90  0.001172851    2.829    0.647
        27  -8.8165    216.0025    214.0043   3.0976520556e+01   1.8698291954e+00    0.1711476    0.1294638  -6.51 0.0003622427    1.017    0.016
        28  -9.8116     53.0051    104.0306   5.1561041056e+01   5.0050326583e+01    0.2214417     0.218654 -32.48            0    1.032    0.031
        29 -11.5106    165.2525    158.9418   3.0726444195e+01   1.7649313256e+01    0.4617228    0.3133363 -61.66 0.0004682641    2.083    0.520
        30  -9.5733     96.4884     99.4708   3.4510197961e+01   4.3543396155e+01    0.3493527    0.2749693 -26.28  0.001199833    1.479    0.324
        31 -11.5203    189.5055    154.7386   2.5124042038e+01   1.4466933501e+01    0.5414182    0.4211542 -10.75  0.002175389    1.266    0.210
        32  -8.5980    105.8351     96.1532   3.0676592708e+01   4.2352225350e+01    0.2260444    0.2053814  84.13 0.0002757107    1.185    0.156
        33  -7.8112    227.3481     93.2539   6.5020669005e+00   1.7998404127e+01    0.1116259   0.09054227   4.18 0.0004037792    1.592    0.372
        34 -10.6536     67.0882     91.0112   4.2621776929e+01   5.1156416181e+01    0.6159388    0.2758982  35.33  0.002037033    2.231    0.552
        35  -9.8657      2.9955     88.5061   7.1064316104e+01   5.9078403776e+01    0.2778436    0.1867745 -43.23 0.0006477137    1.450    0.310
        36  -9.7042      6.5153     86.9042   6.9160999357e+01   5.9323215566e+01    0.2350211    0.1984873   5.52 0.0006448039    1.287    0.223
        37  -8.3099    146.8338     85.7965   1.7325104395e+01   3.5336412765e+01    0.1952311     0.165796 -77.47 0.0002686436    1.275    0.216
        38 -10.6214    195.7389    209.1661   3.3737430458e+01   4.8973799372e+00    0.2622927     0.191023  -7.18 0.0003725633    1.163    0.140
        39  -8.8033    189.4550     79.1216   8.1565612535e+00   2.7209765379e+01    0.3216597    0.1951282 -66.99  0.001501128    2.130    0.531
        40 -12.2917    187.4540    174.1969   2.9244611008e+01   1.1488211233e+01     0.948559    0.3974638 -46.13  0.003696863    2.545    0.607
        41 -11.9302    146.4076     66.3976   1.1834784664e+01   3.8828155272e+01    0.7717121    0.5858508  76.76  0.001522271    1.402    0.287
        42  -8.2496    189.9502     63.0012   4.0854202370e+00   2.9526695079e+01    0.1565333     0.135142 -53.93 0.0009546418    1.006    0.006
        43 -10.8474     38.1268    132.2703   6.2397289751e+01   4.4308042613e+01    0.4384524     0.298563 -82.64 0.0005375164    1.501    0.334
        44 -11.7267    160.6282     43.1361   2.6311943114e+00   3.8928879690e+01    0.5066119    0.4523417 -51.83 0.0007900015    1.094    0.086
        45 -10.6153    166.6781    130.9906   2.4510388558e+01   2.2679601366e+01     0.351299    0.2560062 -41.81 0.0004153818    1.297    0.229
        46  -7.8047     98.8011     30.9616   9.9728174868e+00   5.5957541650e+01    0.1687783    0.1148972 -30.09 0.0008180428    1.598    0.374
        47 -11.2004    160.6891    128.6648   2.5223343140e+01   2.4251551649e+01     0.413402    0.3556884 -57.42  0.001900659    1.260    0.207
        48  -9.7582    160.9612    237.3900   4.4582306603e+01   4.9041101415e+00    0.2794654    0.2035222 -25.18    0.0013157    1.386    0.278
        49  -8.2239     83.0116     29.3314   1.3661911408e+01   6.0060404980e+01    0.1941091    0.1702891  60.62 0.0004756939    1.071    0.066
        50  -8.3485    214.4346     21.4807   3.5178470939e+02   2.9700586155e+01    0.1179115   0.09578895 -56.15 0.0002940014    1.055    0.052
        51 -10.6436      5.8138    222.8459   7.8663118633e+01   2.5133499167e+01    0.3931923     0.192354 -80.40  0.001802013    2.146    0.534
        52  -8.6230    207.7231    221.0338   3.3476062998e+01   1.8432654454e+00    0.1580666    0.1158284 -15.21 0.0005573998    1.131    0.116
