#   1 NUMBER                 Running object number                                     
#   2 MAG_AUTO               Kron-like elliptical aperture magnitude                    [mag]
#   3 X_IMAGE                Object position along x                                    [pixel]
#   4 Y_IMAGE                Object position along y                                    [pixel]
#   5 X_WORLD                Barycenter position along world x axis                     [deg]
#   6 Y_WORLD                Barycenter position along world y axis                     [deg]
#   7 A_WORLD                Profile RMS along major axis (world units)                 [deg]
#   8 B_WORLD                Profile RMS along minor axis (world units)                 [deg]
#   9 THETA_WORLD            Position angle (CCW/world-x)                               [deg]
#  10 FWHM_WORLD             FWHM assuming a gaussian core                              [deg]
#  11 ELONGATION             A_IMAGE/B_IMAGE                                           
#  12 ELLIPTICITY            1 - B_IMAGE/A_IMAGE                                       
         1 -15.2406      4.1344    140.9373   1.4059449098e+02   4.5474771480e+01     9.709279     1.325334 -72.19   0.02519055    6.980    0.857
         2 -13.5031    202.1299     28.9750   6.3704329460e+01   3.1587573495e+01      1.26517     1.118967  62.81  0.006232437    1.249    0.199
         3 -13.4730    218.4923     11.3846   5.8059620958e+01   2.9882967777e+01    0.8720511    0.7383693  71.73  0.002912727    1.268    0.211
         4 -10.7352     82.1149    249.1487   1.3530310908e+02   1.2068519088e+01    0.2389534    0.1438264  51.41  0.001365254    1.377    0.274
         5 -11.3102    176.2205    249.9941   1.1691234572e+02  -3.4950054615e+00    0.3455957    0.1635098  38.41  0.001652591    1.814    0.449
         6 -12.6135    140.7036    248.7496   1.2378353500e+02   2.7006451845e+00    0.7215096    0.3392275  46.40  0.003406858    1.835    0.455
         7 -11.7968    125.2943    249.8735   1.2699181887e+02   5.0802837701e+00    0.6651969    0.1648131  37.75  0.002147596    4.094    0.756
         8 -13.1057     42.3091    212.3222   1.3947802898e+02   2.5268966980e+01     1.136759    0.7720661 -73.46   0.00554778    1.332    0.249
         9 -14.1095     31.3104    223.8740   1.4263583360e+02   2.4079186469e+01    0.8368843      0.58868  71.10  0.002432931    1.142    0.124
        10 -11.1035     63.4874    246.6238   1.3855998821e+02   1.5254140112e+01    0.3194154    0.1927491  77.47 0.0006991269    1.576    0.365
        11 -11.0577    198.8866    247.1510   1.1204152874e+02  -6.7609421218e+00    0.1936785    0.1658616  42.57  0.001249949    1.253    0.202
        12 -12.1912     99.4224    249.2017   1.3198585796e+02   9.4003169747e+00    0.6472292    0.1969561  38.58  0.002485425    3.104    0.678
        13 -11.7695     96.9112    245.3790   1.3204779196e+02   1.0531468507e+01    0.3177699    0.2593654  16.98  0.001637552    1.782    0.439
        14 -13.2706     36.6750    246.6142   1.4340402349e+02   1.8770216340e+01     1.235302     1.124141  63.54  0.009412826    1.427    0.299
        15 -12.0236    217.7102    249.0403   1.0876222857e+02  -9.9799158531e+00    0.5240006    0.1684825  40.73  0.002172085    2.867    0.651
        16  -9.7971    186.3279    240.6587   1.1345313114e+02  -3.6697326787e+00    0.1266716    0.1005307  68.78 0.0007051404    1.739    0.425
        17 -13.9200      9.0067    243.9783   1.4794919020e+02   2.2441765472e+01     2.044107     1.185629 -83.49    0.0137925    1.416    0.294
        18 -11.3759    156.4535    249.3449   1.2072928668e+02  -6.7640207464e-02    0.3187139     0.161767  43.63  0.001561022    1.682    0.406
        19 -12.9553    114.5633    231.7189   1.2680974192e+02   1.0361673165e+01     1.282651    0.1642688  41.36  0.003275946    5.989    0.833
        20 -12.4754     91.2397    227.4445   1.3109785321e+02   1.5056349051e+01     1.006855    0.1906089  48.90  0.002736411    5.634    0.823
        21 -12.0157     57.1591    212.3764   1.3644352287e+02   2.3344160631e+01    0.7908378    0.2765259  59.07  0.002784075    3.856    0.741
        22 -12.6889      9.2538    207.3925   1.4553963907e+02   2.9977000289e+01    0.7020311    0.5609114  21.87  0.004109085    1.878    0.468
        23  -8.8071    152.5244    213.0884   1.1589266966e+02   7.3844370674e+00    0.1886608    0.1416381 -52.52 0.0002935426    1.443    0.307
        24  -9.9992     34.5259    202.4835   1.4012606390e+02   2.8394676839e+01    0.1858999      0.14831 -52.45 0.0005622035    1.577    0.366
        25 -11.8196     55.0660    197.0880   1.3518462863e+02   2.7099376173e+01    0.3654446    0.2371308 -57.70 0.0006066776    1.587    0.370
        26 -12.9910     26.4085    229.8337   1.4400385938e+02   2.3391706535e+01    0.3192981    0.2371921 -79.32 0.0007235563    1.273    0.215
        27 -11.9858     62.0914    188.5749   1.3256305252e+02   2.8149450685e+01    0.2777612    0.2367674 -71.56 0.0004343646    1.158    0.136
        28 -12.8555    239.8877    248.0533   1.0451495955e+02  -1.3077760909e+01     0.694634    0.5131928  10.09  0.004603236    1.153    0.132
        29  -9.4923     91.7566    168.9363   1.2243157520e+02   2.8402872936e+01    0.3581425    0.2045587  63.74  0.001203675    2.252    0.556
        30 -10.2809     94.7377    151.7446   1.1846122539e+02   3.2100752783e+01    0.3292421    0.2790486 -51.04 0.0008066772    1.174    0.148
        31 -11.9924     83.2176    150.5515   1.2128622606e+02   3.4283405682e+01    0.3220457    0.2546411 -47.37 0.0005323251    1.285    0.222
        32  -9.1977     98.0316    147.6393   1.1675968366e+02   3.2534234364e+01    0.2004469    0.1895611  52.92 0.0004127001    1.108    0.098
        33 -11.9153     68.1593    143.1581   1.2396259760e+02   3.8338629703e+01    0.5857807    0.4266768 -86.63  0.001849106    1.515    0.340
        34 -10.7947     64.6824    141.6826   1.2464275282e+02   3.9178407146e+01    0.3151838    0.2250616 -43.20 0.0008985953    1.463    0.316
        35  -9.7182    107.9580    136.7587   1.1174811864e+02   3.3367789856e+01    0.4420555    0.2845063 -17.49  0.001639434    2.841    0.648
        36 -10.4776     94.5776    134.1051   1.1481469953e+02   3.6409498194e+01    0.2465506    0.2396313 -25.37 0.0003851827    1.109    0.099
        37  -9.2310    105.5136    123.5197   1.0932252026e+02   3.6950463193e+01    0.1512191    0.1451206 -53.50  9.91089e-05    1.011    0.011
        38 -11.7994    243.0672     94.1506   7.3027181951e+01   1.2426167969e+01    0.3442355    0.2271115 -36.72  0.001764835    1.500    0.333
        39 -12.7365      9.5075    120.1364   1.3649861200e+02   4.9888984709e+01    0.6404403    0.3838398 -76.04 0.0004842509    1.464    0.317
        40  -8.7563     59.0430     77.7546   1.1157781943e+02   5.4390799482e+01    0.1545623    0.1103162  29.05 0.0003500364    1.496    0.332
        41 -10.9662      4.4213    184.3130   1.4471509259e+02   3.5518315129e+01     0.454305    0.1930838  61.60  0.002017739    2.483    0.597
        42  -9.4903     41.6181     66.8194   1.1457289141e+02   5.8613962547e+01    0.2148716     0.153692  45.19   0.00083373    1.864    0.464
        43 -10.8311     73.3740    175.9099   1.2811796077e+02   2.9580931562e+01    0.2526495    0.2200262 -80.17 0.0003793598    1.040    0.038
        44 -10.5743     88.5340    249.4904   1.3411509924e+02   1.1033466028e+01    0.2540011     0.106578  41.40 0.0009073227    2.091    0.522
        45 -13.1724     59.4731    173.9420   1.3119862471e+02   3.2004515674e+01    0.5473546    0.2841773 -47.12  0.001778348    2.227    0.551
        46 -11.9189     81.3556    167.2890   1.2476287133e+02   3.0472344285e+01    0.6964591    0.6052148 -36.04  0.003874207    1.376    0.273
