#   1 NUMBER                 Running object number                                     
#   2 MAG_AUTO               Kron-like elliptical aperture magnitude                    [mag]
#   3 X_IMAGE                Object position along x                                    [pixel]
#   4 Y_IMAGE                Object position along y                                    [pixel]
#   5 X_WORLD                Barycenter position along world x axis                     [deg]
#   6 Y_WORLD                Barycenter position along world y axis                     [deg]
#   7 A_WORLD                Profile RMS along major axis (world units)                 [deg]
#   8 B_WORLD                Profile RMS along minor axis (world units)                 [deg]
#   9 THETA_WORLD            Position angle (CCW/world-x)                               [deg]
#  10 FWHM_WORLD             FWHM assuming a gaussian core                              [deg]
#  11 ELONGATION             A_IMAGE/B_IMAGE                                           
#  12 ELLIPTICITY            1 - B_IMAGE/A_IMAGE                                       
         1 -14.0572    205.1860     21.2312   5.6386545106e+01   3.0848914545e+01     2.700678      1.37052  25.55  0.009718635    3.006    0.667
         2 -11.4098      2.3432      6.1681   1.1103439588e+02   7.2964455734e+01    0.7417476   0.09988064 -59.68  0.002284658    6.117    0.837
         3 -10.4629    176.8017    249.6192   1.1047585996e+02   5.0639923021e+00    0.1573054   0.07179399  48.43 0.0009575699    1.723    0.420
         4 -12.6329    140.4949    248.8676   1.1599023552e+02   1.0397556088e+01    0.5026848    0.2877092  55.17  0.003536674    1.471    0.320
         5 -13.3359    127.8768    247.6385   1.1782965759e+02   1.2321342750e+01    0.7295286    0.3613576  47.09  0.004901176    1.436    0.304
         6 -12.0318     62.3513    249.2970   1.2788491255e+02   2.0494557130e+01    0.4977371    0.1212211  49.01  0.002761993    2.588    0.614
         7 -13.3487     83.3606    248.6334   1.2471744543e+02   1.8073236398e+01    0.6020114    0.4863928  84.12  0.005474438    1.347    0.258
         8 -13.3752     94.7510    249.0852   1.2302728137e+02   1.6577018746e+01    0.8051131    0.3074651  42.08   0.00105328    2.037    0.509
         9 -12.9805    106.6041    244.1070   1.2083183398e+02   1.5680330531e+01    0.5820661    0.3771786  83.17  0.003388172    1.781    0.439
        10 -12.1565     95.4151    242.5202   1.2244564535e+02   1.7368387622e+01    0.3358865    0.1776788  66.16  0.001923709    1.836    0.455
        11  -9.9661    226.2078    201.4296   9.6168655317e+01   2.4399027085e+00    0.2185285    0.1892816 -65.81  0.001159905    1.984    0.496
        12 -10.2082    249.6133    246.0331   9.9168391748e+01  -5.0926119598e+00    0.2144866   0.07247441 -39.95 0.0009553616    6.382    0.843
        13  -9.7135    192.6632    194.0096   1.0057110551e+02   8.9617590619e+00    0.1722146   0.09602077 -61.77 0.0007048284    4.493    0.777
        14 -11.5755     62.9729    191.9867   1.2391723780e+02   2.9335542051e+01     0.268235    0.2286413 -39.72  0.001401178    1.914    0.478
        15 -11.7099     68.5449    184.9856   1.2228117758e+02   2.9884679116e+01    0.2371005    0.2065755 -58.43 0.0009170793    1.543    0.352
        16  -8.5170    181.5158    192.4566   1.0227156049e+02   1.1093083224e+01     0.122635   0.09970488  38.36 5.582773e-05    1.006    0.006
        17 -10.9353     78.2696    173.3480   1.1925041358e+02   3.0744429745e+01    0.2000725    0.1715721  75.17 0.0003352857    1.095    0.087
        18 -13.1725     65.3376    170.5356   1.2152543330e+02   3.2938279417e+01    0.3967864    0.2405105 -49.19  0.001628541    2.263    0.558
        19 -12.1892     84.9804    164.7429   1.1691283027e+02   3.1441573144e+01    0.8804314    0.4309857  58.52  0.002544718    2.074    0.518
        20 -12.9196     67.4717    144.1599   1.1811695091e+02   3.7850132176e+01    0.8597149    0.4856095  80.73  0.002694698    2.079    0.519
        21 -12.3408     57.6428    131.5639   1.1875442735e+02   4.1670558276e+01     1.024229     0.363988 -80.29  0.003257679    5.454    0.817
        22  -8.7138    168.6877    214.3583   1.0758629486e+02   1.0373101039e+01    0.1114913   0.08018544  67.85 0.0007043122    1.742    0.426
        23  -9.8736     98.6243    149.3557   1.1194601548e+02   3.2411820002e+01    0.2219324    0.2116021  80.05 0.0007874024    1.163    0.140
        24 -12.0104     86.9964    148.2937   1.1433954904e+02   3.4358720717e+01    0.2365872    0.2112228 -67.05 0.0004965236    1.228    0.186
        25  -9.2989    101.3263    145.3464   1.1073957285e+02   3.2780769392e+01    0.1779229     0.151402 -19.64 0.0007726706    1.698    0.411
        26 -15.8169      8.2263    242.3564   1.3535262425e+02   2.7067580061e+01     9.402301     4.848375 -87.12   0.07590092    1.736    0.424
        27 -14.9668      9.2149    207.2503   1.3398820791e+02   3.2364960136e+01     2.378741     1.589283 -59.51   0.01521676    2.173    0.540
        28  -9.5858    109.9008    135.2531   1.0713014258e+02   3.3394534100e+01    0.2364011    0.1705545 -27.50   0.00111052    2.075    0.518
        29 -10.4952     97.1546    132.2842   1.0955452324e+02   3.6069636626e+01    0.2260205    0.2027679 -48.95 0.0005885319    1.273    0.215
        30 -12.8520     36.3914    224.3066   1.3049074667e+02   2.7008235724e+01    0.3136453    0.2363807  59.44 0.0007510617    1.214    0.177
        31  -9.1534    106.9895    122.6794   1.0548052193e+02   3.6437181896e+01    0.1775712    0.1592684  64.10 0.0004084901    1.076    0.071
        32 -15.0340     43.8077    215.0954   1.2881731393e+02   2.7667102154e+01     1.963309     1.185771  46.03   0.01065525    1.451    0.311
        33  -8.5741    203.3322    111.3263   8.2181194630e+01   1.8737790491e+01    0.1536242    0.1067272  17.02 0.0007051238    1.711    0.416
        34 -10.5206    168.0015    113.0281   8.9515415343e+01   2.6291374888e+01    0.3295232    0.2717226 -85.50  0.001234332    1.551    0.355
        35  -9.4628     33.3181    109.3221   1.2189072863e+02   4.9001381880e+01    0.1147426   0.07838717 -48.00 0.0002557621    1.667    0.400
        36 -11.6543      2.1165     81.1998   1.2706815348e+02   5.7394113128e+01       0.5965   0.08883191 -73.05  0.002062439    4.608    0.783
        37  -9.7543      1.5123     62.0178   1.2476436643e+02   6.1547803873e+01    0.1718601   0.08369682 -71.38  0.000378374    1.524    0.344
        38 -10.4616    229.6359    249.1198   1.0247504091e+02  -2.5463178605e+00    0.1829988    0.1059968  42.80 0.0007284098    1.401    0.286
