#   1 NUMBER                 Running object number                                     
#   2 MAG_AUTO               Kron-like elliptical aperture magnitude                    [mag]
#   3 X_IMAGE                Object position along x                                    [pixel]
#   4 Y_IMAGE                Object position along y                                    [pixel]
#   5 X_WORLD                Barycenter position along world x axis                     [deg]
#   6 Y_WORLD                Barycenter position along world y axis                     [deg]
#   7 A_WORLD                Profile RMS along major axis (world units)                 [deg]
#   8 B_WORLD                Profile RMS along minor axis (world units)                 [deg]
#   9 THETA_WORLD            Position angle (CCW/world-x)                               [deg]
#  10 FWHM_WORLD             FWHM assuming a gaussian core                              [deg]
#  11 ELONGATION             A_IMAGE/B_IMAGE                                           
#  12 ELLIPTICITY            1 - B_IMAGE/A_IMAGE                                       
         1 -11.3459    224.1697     31.9144   3.1434795911e+01   2.6399933931e+01    0.9659451    0.4041643  55.99  0.003730467    2.801    0.643
         2 -10.8227    240.6387     20.5369   2.7857036217e+01   2.4495806084e+01    0.5186113    0.3379662  75.08  0.002751705    1.588    0.370
         3 -10.4444    239.2109     16.2808   2.7107849960e+01   2.5243547640e+01    0.4545712    0.2616199  77.85  0.002652687    1.727    0.421
         4  -8.3035    161.6678     17.2075   3.4140079700e+01   4.1988689456e+01    0.2005129    0.1644889  76.71 0.0004524252    1.096    0.088
         5 -10.4893     24.6216    228.2129   1.1456339791e+02   2.2259077220e+01    0.6119005    0.2887411 -82.57  0.000299442    2.124    0.529
         6 -12.1922     40.2046    249.4980   1.1264111002e+02   1.6300505150e+01     2.712771    0.4964634  33.18   0.01021523    3.730    0.732
         7 -12.3264      2.8394    209.2921   1.1823810358e+02   2.8389246639e+01     1.455074    0.8820326  38.85  0.007339615    1.527    0.345
         8 -12.7848      2.8631    222.2723   1.1885908572e+02   2.5565372070e+01     1.140321    0.6236838  30.19  0.006711622    1.819    0.450
         9 -11.6535      3.4723    248.4702   1.1984528441e+02   2.0202425537e+01    0.6736888    0.2783852  36.48   0.00332756    1.948    0.487
        10 -11.3024      1.8106    230.9211   1.1945784082e+02   2.3847393933e+01     0.296998    0.1811433 -86.69 0.0008218956    1.501    0.334
        11 -12.3154     13.6964    244.9089   1.1771189046e+02   1.9937490286e+01    0.7565985    0.3392622  61.85  0.001882454    1.939    0.484
        12 -12.5694      3.5262    238.3926   1.1942962984e+02   2.2177439050e+01     0.662563    0.4216072  71.81  0.002402734    1.297    0.229
        13 -12.5015      9.5187    235.0724   1.1808481537e+02   2.2301267907e+01     1.233427     0.396211  59.41  0.004510499    2.870    0.652
        14 -11.6617     13.2511    230.7494   1.1710705483e+02   2.2841185079e+01    0.6627381    0.4281522  34.27  0.003676624    1.483    0.326
        15  -8.7850     92.9146    241.0874   1.0067108653e+02   1.1451038752e+01    0.1874088    0.1633325  28.70 0.0003891771    1.107    0.097
        16  -8.1255    166.9130    240.1396   8.4615582223e+01   1.3501795870e+00     0.177862    0.1547591  34.53 0.0004761594    1.309    0.236
        17  -7.8873     37.4744    238.9733   1.1251808627e+02   1.8679902627e+01    0.1647902    0.1098355 -81.32 0.0006545496    1.537    0.349
        18  -8.1921     63.2105    238.0863   1.0691012653e+02   1.5868917246e+01    0.2476438    0.1162835  51.08  0.001046592    1.966    0.491
        19  -7.4494     64.2980    234.6763   1.0636853075e+02   1.6424183387e+01    0.1546784     0.114468 -64.97 0.0003160944    1.502    0.334
        20  -8.1099     74.4846    236.9650   1.0432346715e+02   1.4677698662e+01    0.1692723    0.1234619 -71.54 0.0005422951    1.532    0.347
        21  -8.7611    168.8144    235.7006   8.3561400498e+01   1.8057907244e+00    0.2130369    0.1773271 -15.31 0.0004755149    1.181    0.153
        22  -8.8171     49.7348    235.2519   1.0961888132e+02   1.8055693323e+01    0.3277436      0.20212 -13.95   0.00147329    3.493    0.714
        23  -9.3618     99.4195    234.1795   9.8452643804e+01   1.1899508663e+01    0.3185037    0.1813672  23.54   0.00157959    1.805    0.446
        24  -9.8469     34.9457    233.3308   1.1267736559e+02   2.0108986851e+01    0.4784135    0.2507253  32.18  0.002183078    1.753    0.430
        25  -9.0113     83.7076    232.2710   1.0178268433e+02   1.4413547881e+01     0.257001     0.229402 -35.64  0.001656464    1.344    0.256
        26  -8.4605     57.5039    233.3730   1.0775927484e+02   1.7521668552e+01    0.2076512     0.105616  32.43 0.0006285844    1.761    0.432
        27  -7.3908    239.3056    233.6840   6.9965550409e+01  -6.7888431222e+00   0.09497575   0.08772201 -11.09 0.0005663619    1.626    0.385
        28  -9.0692     90.1690    230.8844   1.0016653444e+02   1.3822014491e+01    0.3149861     0.195798 -51.26  0.001370754    1.837    0.456
        29  -8.2382    121.4808    232.4979   9.3297953621e+01   9.1087354080e+00    0.1314139    0.1138893  26.27 0.0008103191    1.017    0.017
        30  -9.6509    112.1970    230.8664   9.5169614685e+01   1.0747973638e+01    0.3187541    0.2339881  34.58  0.001233704    1.182    0.154
        31  -7.4153     77.3001    232.3232   1.0323466518e+02   1.5248317331e+01    0.1205023   0.09786844 -17.18            0    1.629    0.386
        32  -7.4392    170.1324    231.1605   8.2593929843e+01   2.3669458443e+00    0.1593357    0.1425665  33.01 0.0003521992    1.301    0.231
        33  -8.3215     53.7691    230.1752   1.0831751662e+02   1.8632037746e+01    0.2927738    0.1406967 -57.91  0.001449223    2.295    0.564
        34  -8.5919     55.1541    225.6183   1.0761319566e+02   1.9427663484e+01    0.2603602    0.1602676  65.79 0.0008666738    1.658    0.397
        35  -9.3722    107.4461    225.9165   9.5618553455e+01   1.2399263289e+01    0.3820643    0.2001762  40.88  0.001839338    1.695    0.410
        36  -8.8639    111.3006    224.0699   9.4491949292e+01   1.2211187089e+01    0.2701095    0.1762438  35.06   0.00114263    1.347    0.257
        37 -10.0913     36.4581    227.0023   1.1190846059e+02   2.1272667888e+01    0.3696787    0.3168459 -52.89  0.002300839    1.443    0.307
        38  -9.3928     37.5480    223.5195   1.1141210745e+02   2.1898961051e+01    0.4762045    0.1662646  32.83  0.002108469    2.456    0.593
        39  -9.1456    136.8018    223.4187   8.8602085911e+01   8.5783033012e+00    0.3617148    0.1943602 -57.29   0.00169632    2.315    0.568
        40  -7.9486     61.3941    221.9446   1.0584484531e+02   1.9452054436e+01    0.2303106    0.1834598  -5.51 0.0008961819    1.700    0.412
        41  -7.2193    181.9922    220.2382   7.8403207528e+01   2.5036001647e+00    0.1650133   0.09774408  29.74 0.0004078586    1.550    0.355
        42  -7.7904     36.2780    219.3034   1.1138176990e+02   2.2952831152e+01    0.1798157    0.1462593  83.31 0.0004419819    1.146    0.128
        43  -9.2772     30.0070    218.5168   1.1274103730e+02   2.3791645730e+01     0.318191    0.1973265  62.35    0.0010998    1.451    0.311
        44  -8.4957     32.6659    217.2868   1.1205125996e+02   2.3782871814e+01    0.2419534    0.1711254  57.53 0.0006368236    1.221    0.181
        45  -8.1013     88.8768    217.8248   9.8943430220e+01   1.6703504715e+01    0.1893053    0.1806347   4.71 0.0006264999    1.161    0.139
        46  -7.7415     55.8264    217.0111   1.0667378037e+02   2.1210496733e+01    0.1709712    0.1490233  63.95            0    1.029    0.028
        47  -7.4089     40.6764    214.2481   1.0997191742e+02   2.3587245594e+01     0.132324   0.07884319  56.02 0.0002033026    1.535    0.348
        48 -10.5093     32.4481    210.4019   1.1158308151e+02   2.5342620396e+01      0.88126    0.5059658  -6.73  0.003713642    3.699    0.730
        49  -9.9344     27.4964    181.7256   1.1040729782e+02   3.2623449385e+01    0.4313974    0.2978558  23.72  0.002007572    1.612    0.380
        50 -10.5589     22.6457    204.9019   1.1346862377e+02   2.7588586188e+01    0.3176918    0.3056917 -84.12 0.0007347162    1.224    0.183
        51 -12.4426     31.1142    196.0061   1.1074028768e+02   2.8813280483e+01     1.310066      1.19834 -32.13  0.008479802    1.367    0.269
        52  -8.2328     64.2246    208.5202   1.0380826969e+02   2.2061325430e+01    0.2419818    0.1595285 -46.49 0.0008513988    1.794    0.442
        53  -7.4509    118.3942    208.4827   9.0630651908e+01   1.4337497213e+01    0.1357488    0.1267994  23.89 7.508069e-05    1.024    0.024
        54  -8.6637     46.7652    206.9443   1.0788894579e+02   2.4548350664e+01    0.3280797    0.2207324 -30.02  0.001474857    2.205    0.546
        55  -8.1758     77.4271    203.9449   1.0002672120e+02   2.1350638055e+01     0.471329    0.3324296  15.17  0.002418854    1.677    0.404
        56  -7.3574     63.4864    204.5378   1.0355528255e+02   2.3064061510e+01    0.1335241    0.1216408  59.28 0.0001059507    1.020    0.020
        57  -7.9784    113.1747    200.1759   9.0628105855e+01   1.6920147916e+01    0.1961473    0.1822464   8.33 0.0003123472    1.091    0.083
        58  -8.7294     47.9289    199.4207   1.0688147496e+02   2.6159051275e+01    0.3245547    0.2301107   2.81 0.0006849424    1.958    0.489
        59  -7.8751    193.4459    197.4180   7.2094384868e+01   4.7189701123e+00    0.2701836    0.1173747 -56.03 0.0008072758    5.655    0.823
        60  -7.8535    109.1992    198.2035   9.1305063997e+01   1.7972875564e+01    0.1900542    0.1576796  58.70 0.0003626942    1.288    0.223
        61  -7.9715     78.9659    197.9828   9.8884898068e+01   2.2507698603e+01    0.2051104    0.1904582  52.46 0.0003905122    1.013    0.013
        62  -8.1004     88.7906    197.2852   9.6296572292e+01   2.1264944812e+01    0.2611574    0.1877391   8.85  0.001283972    1.740    0.425
        63  -7.9909     82.8067    197.1825   9.7802837080e+01   2.2151516210e+01    0.2013922    0.1759306  60.30 0.0002836375    1.110    0.099
        64  -7.7941     57.5464    192.9945   1.0375936927e+02   2.6522954612e+01    0.1986212    0.1294934 -70.82 0.0003586137    1.531    0.347
        65  -8.2852     72.6107    191.5123   9.9676162682e+01   2.4907385360e+01    0.3514316    0.1878544  25.42 0.0009703593    2.017    0.504
        66  -9.4372     20.5680    189.2560   1.1280843847e+02   3.1456837717e+01    0.2944591    0.1938358 -56.02 0.0008644895    1.627    0.385
        67  -6.8713     92.6616    190.6975   9.4357045989e+01   2.2215685295e+01    0.1441603    0.1108353 -15.97 0.0005908566    1.669    0.401
        68  -8.1818    120.9563    188.4476   8.6792119893e+01   1.8254584975e+01    0.2044987    0.1885736 -43.15 0.0001044118    1.130    0.115
        69  -7.8363     64.8789    188.6189   1.0132750503e+02   2.6637175133e+01    0.1926657    0.1640571  47.98 0.0004336874    1.112    0.101
        70  -7.9281     84.4687    211.4358   9.9220323247e+01   1.8700535409e+01    0.2583887     0.180808 -11.49 0.0009003253    2.128    0.530
        71  -7.0708     75.6879    212.6640   1.0148947855e+02   1.9631230437e+01    0.1315087    0.1026819 -23.45  0.000704534    1.686    0.407
        72  -8.1537    169.2877    184.2340   7.4652451772e+01   1.1007353934e+01    0.2017859    0.1726743 -10.84 0.0005154853    1.105    0.095
        73  -8.6412      2.0137    181.4913   1.1687411157e+02   3.4884368026e+01    0.2249217    0.1791372  50.20  0.001451882    1.226    0.184
        74  -8.7542     11.3666    183.7111   1.1469449570e+02   3.3605490713e+01    0.2605199    0.2204329  75.74  0.001018504    1.023    0.023
        75  -9.3002      7.1425    181.0226   1.1556632092e+02   3.4599777013e+01    0.2487074    0.1968005  68.65 0.0003120742    1.111    0.100
        76  -7.6221     78.0065    182.0245   9.6944644562e+01   2.6437592634e+01    0.2111756    0.1664202 -27.25 0.0003127749    1.549    0.354
        77  -8.3262     80.9607    179.4874   9.5773160336e+01   2.6628793509e+01    0.2505001    0.1882412 -45.10 0.0005057757    1.433    0.302
        78 -10.2552     51.9681    178.9281   1.0358175260e+02   3.0643378210e+01    0.6280588    0.4084433 -11.28  0.002191961    2.440    0.590
        79  -9.6428     37.1637    179.0385   1.0758965931e+02   3.2298879558e+01    0.3675777    0.3210015  -9.65  0.001383704    1.431    0.301
        80  -8.5649    160.0423    210.3220   8.1376524526e+01   7.5081033777e+00     0.216931    0.1905155 -39.66 0.0002664775    1.260    0.206
        81  -8.6336     64.3510    177.0675   9.9958010916e+01   2.9539998516e+01    0.2330848    0.2246339   3.85 0.0004501797    1.162    0.139
        82  -9.0472     23.1937    177.4301   1.1115057360e+02   3.4093837380e+01    0.3611084    0.1899688  74.18  0.001666147    2.053    0.513
        83  -9.0213     17.6111    175.1992   1.1243086349e+02   3.5150224226e+01    0.2937803    0.1964461 -58.65 0.0008674352    1.500    0.333
        84  -9.4346     16.4823    170.8373   1.1236161098e+02   3.6331388982e+01    0.2724596     0.217386  82.16  0.001272068    1.106    0.096
        85  -7.1737    116.7158    177.7234   8.5985645455e+01   2.1386870237e+01    0.1441815    0.1139819 -11.94 0.0002446735    1.509    0.337
        86  -7.6163     76.5563    176.4376   9.6515647271e+01   2.8014078816e+01    0.1422864    0.1361279  69.04 7.851562e-05    1.003    0.003
        87  -8.2604      1.5822    175.1530   1.1658019382e+02   3.6445972000e+01    0.2363681    0.1067128 -85.07 0.0006693678    1.973    0.493
        88  -9.5561     59.4927    172.5667   1.0069096934e+02   3.1300159288e+01    0.3375527    0.2330791 -55.02 0.0006965484    1.452    0.311
        89  -9.2037    175.3342    172.3356   7.0997069199e+01   1.2309415879e+01    0.2759351     0.240737  -2.65  0.000645371    1.090    0.083
        90  -8.8997     29.6134    171.7239   1.0888285963e+02   3.4902789678e+01    0.3176914    0.2177057 -53.77  0.001702351    1.509    0.337
        91  -9.2943     23.6782    170.6117   1.1039481465e+02   3.5748523159e+01    0.3271503     0.242843  26.43   0.00107583    1.483    0.326
        92 -10.4070     26.5545    163.9185   1.0893153745e+02   3.7173261145e+01    0.4023629      0.25296 -64.92 8.742083e-05    1.455    0.313
        93  -9.0551     14.3842    150.7476   1.1109842911e+02   4.1591776662e+01    0.4162493    0.3022684 -71.38  0.002206387    1.208    0.172
        94  -8.9600     21.9798    149.9095   1.0875290283e+02   4.1183365521e+01    0.6189163    0.2760502 -38.18  0.002409461    3.066    0.674
        95  -9.6339     23.4347    156.7531   1.0906962390e+02   3.9292118826e+01    0.3580707    0.2762572  14.00  0.001650996    1.539    0.350
        96  -8.5091     20.2658    153.9827   1.0970125584e+02   4.0280643521e+01     0.215846    0.1618915  85.97 0.0003407234    1.243    0.196
        97  -8.3816      6.7814    169.9589   1.1487341283e+02   3.7331752663e+01    0.4281347    0.1362623  70.27  0.001259363    5.348    0.813
        98  -7.5809     43.1177    168.8368   1.0481014169e+02   3.4213704932e+01    0.1787637    0.1568024 -40.99            0    1.283    0.220
        99  -8.2082     39.5359    167.1794   1.0562349025e+02   3.5029628236e+01    0.2907522    0.1868854  -8.56  0.001027044    2.358    0.576
       100  -7.7125     92.0135    163.7533   9.0129327211e+01   2.8813087233e+01    0.2133561    0.1871327  41.11 0.0004407938    1.129    0.114
       101  -9.0296     70.6386    163.2208   9.6142462938e+01   3.2168878446e+01    0.2697946    0.2400811  66.01 0.0004240729    1.125    0.111
       102  -7.7796     53.7469    162.5642   1.0094700286e+02   3.4568458138e+01    0.2970834      0.15523  43.61  0.001116445    1.911    0.477
       103  -9.0819     58.0384    158.9514   9.9164273080e+01   3.4958611544e+01     0.622224    0.2251438 -54.15  0.002270174    2.566    0.610
       104  -9.0304     33.2320    161.8161   1.0679729596e+02   3.7060007846e+01     0.574071     0.189818 -58.47  0.001852223    2.630    0.620
       105  -7.7422     36.2920    162.6314   1.0601196014e+02   3.6536973714e+01    0.2135019    0.1342754  34.33  0.001063177    1.617    0.381
       106  -7.5542     19.6111    162.8415   1.1077783673e+02   3.8074189827e+01    0.1983958    0.1105975  87.21 0.0006801607    1.803    0.445
       107  -9.6938     13.3144    160.9200   1.1236291326e+02   3.9084362640e+01     0.400345    0.2586346 -17.96  0.001167102    2.197    0.545
       108  -7.9884    169.4729    158.3381   6.9356308500e+01   1.6162553507e+01    0.3808266    0.2153896  55.53  0.001353472    2.490    0.598
       109  -9.6958     78.6587    156.4128   9.2662777593e+01   3.2733403884e+01     0.593187    0.3882116 -29.68  0.002566732    1.990    0.497
       110  -7.4724    122.4440    157.5594   8.0591381231e+01   2.5077719098e+01    0.1497178    0.1482039  39.70 0.0008045989    1.043    0.041
       111  -7.7461    117.0124    154.6132   8.1433865489e+01   2.6759865563e+01    0.2112454    0.1924681  39.89 0.0004482619    1.101    0.092
       112  -8.4405      8.8763    155.0481   1.1309553582e+02   4.0911556389e+01    0.2022409     0.149859  66.62 0.0004243035    1.299    0.230
       113  -7.1368    128.4961    153.4701   7.8142638301e+01   2.4913231672e+01    0.1508193    0.1499802  26.99 -3.781037e-05    1.047    0.045
       114  -7.9026     51.0118    150.5458   1.0000804339e+02   3.8013210540e+01     0.224216    0.1775683 -68.83 0.0005507345    1.187    0.157
       115  -7.4136     30.4889    151.3920   1.0636858692e+02   4.0021429778e+01      0.13716    0.1225022  81.84 9.456235e-05    1.063    0.059
       116  -7.8366     54.6733    149.9305   9.8790714090e+01   3.7723043439e+01    0.2739169    0.1241572  58.82  0.000901492    3.430    0.708
       117 -10.6123     68.5869    145.1344   9.3683114157e+01   3.7106702587e+01     0.760696    0.4786725  65.15  0.002860229    2.084    0.520
       118  -7.6666    235.3361    147.2868   5.4765377779e+01   6.8345355796e+00     0.128376    0.0915197  -6.41 0.0007016889    1.630    0.386
       119  -9.0012    247.9790    148.0114   5.3023535294e+01   4.8075384362e+00    0.1558072    0.1232449 -29.48 0.0004695065    1.007    0.007
       120  -7.6787     97.9908    142.9550   8.4346050557e+01   3.2987175336e+01    0.1796889    0.1756886 -49.30 0.0003128697    1.010    0.010
       121  -8.8969     81.8875    141.8122   8.8945460474e+01   3.5957136929e+01    0.3004633    0.2146537 -64.10 0.0006171278    1.421    0.296
       122  -8.3842    241.6715    142.3216   5.2811095634e+01   6.6658008170e+00    0.1233036   0.09278438 -59.82  0.000704854    1.690    0.408
       123  -8.1172     93.9836    142.5577   8.5445827156e+01   3.3776467225e+01     0.233132    0.1514948  34.17 0.0007290325    1.565    0.361
       124  -7.7361     15.8442    141.8642   1.0972712669e+02   4.3767350040e+01    0.1901821    0.1434179  73.23 0.0005191424    1.323    0.244
       125  -8.0372      6.4591    141.4538   1.1255928410e+02   4.4548684821e+01    0.2047445    0.1391374  66.59 0.0001160977    1.493    0.330
       126  -8.3083      4.8979    138.6904   1.1277047408e+02   4.5358469729e+01    0.2902621    0.1291919 -56.73  0.001329014    1.973    0.493
       127  -8.5253     72.8702    137.0798   9.0810982117e+01   3.8560848278e+01    0.2338733    0.2013003  82.95 0.0005154418    1.271    0.213
       128  -9.7534      9.7661    132.4518   1.1059953369e+02   4.6642016074e+01    0.3777463    0.2109337 -89.76 0.0009398959    1.785    0.440
       129  -9.6094     28.7733    133.3080   1.0452517684e+02   4.4902089530e+01     0.301558    0.2423829 -70.14 0.0005890875    1.112    0.101
       130  -7.6298    107.2303    131.7931   7.9149061197e+01   3.4054588792e+01    0.2207267     0.184595 -10.96  0.001057463    1.379    0.275
       131  -8.3004     72.6156    131.8552   8.9833172384e+01   3.9942457520e+01    0.2081388    0.1428708 -71.71 0.0003970102    1.598    0.374
       132  -9.3641    247.2049    131.3846   4.9827084403e+01   7.5669974177e+00    0.1860785    0.1689242  43.91 0.0008254724    1.371    0.271
       133  -7.0049    227.6877    130.6516   5.2505511505e+01   1.0860653496e+01    0.1348014   0.09646173  -9.33 0.0004318029    1.717    0.418
       134  -7.7535     67.7936    129.5659   9.0930962848e+01   4.1246179042e+01    0.2088338    0.1372306  44.14 0.0004994253    1.609    0.379
       135  -8.3502     65.7262    124.7759   9.0619605754e+01   4.2777624296e+01     0.234862    0.2003118   7.03 0.0003874392    1.302    0.232
       136  -7.7316     21.9800    122.0000   1.0518582818e+02   4.8442577075e+01    0.1967576    0.0800383  19.58 0.0003221677    2.792    0.642
       137  -7.7321      6.0000    118.9784   1.1029782790e+02   5.0350255673e+01    0.2265339    0.0655884 -73.38 0.0008011255    2.933    0.659
       138  -9.5828    248.4976    116.5582   4.6662131754e+01   9.7076360510e+00    0.2412112    0.1894637 -12.25  0.001506837    1.462    0.316
       139  -7.7266     36.9818    117.4420   9.9153596146e+01   4.8242309215e+01     0.194313    0.1431065  14.55 0.0004452722    1.537    0.349
       140  -8.4941     33.1525    115.5911   1.0019513387e+02   4.9106470291e+01    0.2367828    0.1835016 -67.17 0.0003154848    1.183    0.154
       141  -7.7400     14.2468    115.9856   1.0703183032e+02   5.0585739388e+01    0.1837458    0.1020024 -70.77 0.0007580657    1.565    0.361
       142  -7.9890     59.1704    110.2494   8.9686739254e+01   4.7404195602e+01    0.2468073    0.1846746 -49.61 0.0005430361    1.247    0.198
       143  -7.0904     19.2626    108.6673   1.0410195926e+02   5.2099442078e+01    0.1344905    0.0984832  74.19 0.0001638201    1.576    0.365
       144  -9.5048    248.6354    105.8364   4.4465808681e+01   1.1356272295e+01    0.2746499     0.172012 -39.41  0.001586847    1.283    0.221
       145  -7.6513      8.5092    106.5104   1.0776816887e+02   5.3385435574e+01    0.2287278    0.1200569  -9.83  0.001035515    2.499    0.600
       146  -7.8135     92.9936    105.2306   7.6818520201e+01   4.3075312622e+01    0.2054379    0.1957692  14.80 0.0002131611    1.059    0.055
       147  -9.3143     58.6307    102.3803   8.8003686197e+01   4.9441815220e+01    0.2549997    0.2410037 -40.55 0.0002883652    1.018    0.018
       148  -8.9220     81.0214    101.9606   7.9904824518e+01   4.6011782131e+01    0.2200775    0.2120368 -17.12 0.0003099873    1.016    0.016
       149  -7.2436     56.3418     92.2325   8.6257331224e+01   5.2227675812e+01    0.1445277    0.1073045 -13.44 0.0002101223    1.547    0.354
       150  -7.8661     42.1679     92.1987   9.1836195096e+01   5.4055334998e+01    0.1808453     0.164362  69.74 0.0002425709    1.295    0.228
       151  -7.5712     87.5112     91.0366   7.4601526779e+01   4.7346827597e+01    0.2187324    0.1479897 -47.87 -6.049857e-05    1.467    0.318
       152  -7.6020     52.4778     89.4934   8.7030312270e+01   5.3412526570e+01    0.1426083    0.1360803 -43.61 0.0002106665    1.078    0.072
       153  -8.4666     39.0306     77.4437   8.9269609331e+01   5.7921526595e+01    0.2335773    0.1881936 -55.41 0.0003661297    1.223    0.182
       154  -7.7648     19.2776     75.0717   9.7417538987e+01   6.0397622772e+01    0.1828158     0.152723 -49.25 0.0003032747    1.061    0.057
       155  -8.1815      6.7870     68.2108   1.0161324862e+02   6.2850943246e+01    0.1785725    0.1635799 -61.98 0.0005409966    1.170    0.145
       156  -7.6161     23.2739     49.0148   8.7852383017e+01   6.5784902288e+01    0.1626838    0.1020569 -47.87 0.0004460521    1.449    0.310
       157 -10.5517    210.7772     42.0999   3.4944945238e+01   2.7903712603e+01    0.4284647    0.2630323  72.84  0.002262295    1.651    0.394
       158 -10.9983    218.2016     39.1843   3.3555161772e+01   2.6721628435e+01    0.6190704    0.3572392  73.90   0.00344267    1.770    0.435
       159  -9.8557     71.5913    244.4823   1.0565525323e+02   1.3567180473e+01    0.3903013     0.265789 -34.67   0.00220281    2.116    0.527
       160  -7.7386     14.3086     25.9992   8.3828681333e+01   7.1016916048e+01    0.1693732    0.1308492 -19.72 0.0003347531    1.050    0.048
       161  -9.2080    200.4279    240.6965   7.8072678511e+01  -3.1451327868e+00    0.2194018    0.1878581  -1.91 0.0005354806    1.200    0.166
       162  -9.5024     56.6518    240.5175   1.0853888753e+02   1.6176331265e+01    0.3020747    0.1971471  57.32 0.0007119194    1.382    0.276
       163  -7.8939     43.9719     22.4936   6.5959077784e+01   6.7651121869e+01    0.1897354     0.113702  37.37 0.0006434763    1.553    0.356
       164  -7.7594     29.9504     17.7316   7.0668135339e+01   7.0464120924e+01    0.1684244    0.1366485   7.52 0.0003451864    1.045    0.043
