#   1 NUMBER                 Running object number                                     
#   2 MAG_AUTO               Kron-like elliptical aperture magnitude                    [mag]
#   3 X_IMAGE                Object position along x                                    [pixel]
#   4 Y_IMAGE                Object position along y                                    [pixel]
#   5 X_WORLD                Barycenter position along world x axis                     [deg]
#   6 Y_WORLD                Barycenter position along world y axis                     [deg]
#   7 A_WORLD                Profile RMS along major axis (world units)                 [deg]
#   8 B_WORLD                Profile RMS along minor axis (world units)                 [deg]
#   9 THETA_WORLD            Position angle (CCW/world-x)                               [deg]
#  10 FWHM_WORLD             FWHM assuming a gaussian core                              [deg]
#  11 ELONGATION             A_IMAGE/B_IMAGE                                           
#  12 ELLIPTICITY            1 - B_IMAGE/A_IMAGE                                       
         1 -15.5005     31.7654    216.9958   1.3785976582e+02   2.4675105045e+01     15.30883     5.703918 -84.33    0.0315494    3.303    0.697
         2 -13.2449    201.0465     34.4250   6.0876089068e+01   3.1267408540e+01     1.181146     1.003627  72.44  0.006990803    1.196    0.164
         3 -13.7575    218.6492     16.5993   5.5352946580e+01   2.9593817535e+01     1.027748    0.8166733  50.72  0.006908856    1.693    0.409
         4 -12.5975      2.5863     16.0322   1.0788593536e+02   7.0399603844e+01    0.8191509    0.2264823 -42.63   0.00400557    3.120    0.680
         5  -9.9507    224.4854    245.5191   1.0102389177e+02  -1.0739408731e+01    0.1250388    0.1021901  -0.34 -1.59538e-05    1.018    0.018
         6 -10.5084    248.3458    250.1761   9.7452765883e+01  -1.4525281707e+01    0.2560988    0.1432498  29.95  0.001511963    1.740    0.425
         7  -9.5373    235.3199    250.3237   9.9825680892e+01  -1.2905006117e+01    0.1260716   0.07904945  -3.87 -0.0002709771    1.675    0.403
         8 -12.5732    175.1499    248.5839   1.1127210470e+02  -3.8702844471e+00    0.7847288    0.3011328  34.88  0.003260542    2.409    0.585
         9 -11.4835    138.5976    246.7948   1.1862104891e+02   2.3928622675e+00    0.3047675    0.2571184 -82.44  0.001535759    1.409    0.290
        10 -13.4610     10.3072    207.2076   1.4145410392e+02   2.9201141857e+01    0.8710241    0.8187119  73.24   0.00283263    1.314    0.239
        11 -12.2255      4.2014    226.2644   1.4404843555e+02   2.5539774627e+01    0.7489914    0.4530207 -89.00  0.004499168    1.319    0.242
        12 -13.3532     12.5797    238.1292   1.4328895049e+02   2.2137783616e+01      1.32317    0.8828961  58.48  0.008664561    1.280    0.219
        13 -11.4865      6.1722    249.8581   1.4516987765e+02   2.0379849982e+01    0.7050266    0.2987907  52.29   0.00302252    1.922    0.480
        14 -11.2836     12.3905    246.9055   1.4389775247e+02   2.0324354479e+01    0.4117597    0.2265559  67.74 0.0006735692    1.504    0.335
        15 -10.4875    124.7799    244.8170   1.2126785478e+02   5.0453139304e+00    0.2194015     0.147089  -9.42 0.0009583275    2.859    0.650
        16 -11.5170    162.0507    249.0515   1.1404541467e+02  -1.8545492371e+00    0.4006408    0.2864535 -13.55  0.002143481    1.813    0.448
        17  -9.6224    105.6826    241.3009   1.2486208679e+02   8.8525094795e+00    0.1393837   0.09311846  66.04 0.0002922818    1.619    0.382
        18  -9.4986     56.8603    240.3608   1.3492257137e+02   1.6310648615e+01     0.215992    0.1499187  83.18 0.0007710977    1.330    0.248
        19 -13.8051     41.5108    206.9076   1.3476807854e+02   2.5867405798e+01     1.742962     1.224867  70.08  0.004119569    1.319    0.242
        20 -12.8773     25.6767    224.1775   1.3973118349e+02   2.3744726455e+01    0.3483352    0.2948327 -70.89 0.0007591377    1.317    0.241
        21 -10.5865    202.8578    249.7296   1.0589348125e+02  -8.3088023070e+00    0.2990675   0.09800339  38.19  0.001205581    2.836    0.647
        22  -8.2849    181.3425    192.2999   9.9945867421e+01   5.9024277100e+00    0.1507354     0.113413  -3.15 0.0007036505    1.673    0.402
        23 -12.2930      5.4211    185.3372   1.4064157486e+02   3.4742117286e+01    0.6191248    0.3693168  80.10  0.001871785    1.556    0.357
        24 -11.8280     61.5680    184.8048   1.2732691651e+02   2.8653034722e+01     0.302156     0.254004 -47.70 0.0004931884    1.325    0.245
        25 -10.9157     72.6699    172.9440   1.2268853345e+02   3.0045782682e+01    0.2744864    0.2330731 -60.57 0.0003838243    1.129    0.114
        26 -13.2120     58.9489    170.4053   1.2585617103e+02   3.2613821090e+01    0.5641718    0.2888299 -45.05  0.001874002    2.206    0.547
        27 -11.9019     80.9134    164.4690   1.1904992436e+02   3.0931633540e+01    0.6666116     0.647056  88.92  0.003815703    1.072    0.068
        28 -10.0749    226.5307    201.9944   9.2755734818e+01  -3.7715362874e+00    0.2975978    0.2118464 -62.37  0.001383657    2.036    0.509
        29 -10.0290     94.4646    149.4082   1.1242489233e+02   3.2488182056e+01    0.3206491    0.2808707  59.71 0.0007978611    1.198    0.165
        30 -12.0220     82.9263    148.2047   1.1538752610e+02   3.4704507776e+01     0.329959    0.2542048 -45.62 0.0005455898    1.283    0.221
        31 -12.3855     67.6142    143.7643   1.1885002059e+02   3.8128764021e+01    0.7202753    0.5205602  69.28   0.00287183    1.701    0.412
        32  -9.6614    150.3237    228.3250   1.1326983060e+02   4.0362333470e+00    0.1409872    0.1079124  -4.04 0.0005277231    1.687    0.407
        33  -9.1489     97.9765    145.6541   1.1065781831e+02   3.2806503358e+01    0.2064356    0.1957852  35.23 0.0003683349    1.119    0.107
        34  -9.5354    107.6041    135.4094   1.0569521547e+02   3.3547459319e+01    0.3493182    0.2339131 -15.16  0.001107058    2.428    0.588
        35 -10.8586     57.6414    132.6043   1.1956664738e+02   4.2245778761e+01    0.3882009    0.1895201 -67.15  0.001564678    2.211    0.548
        36 -10.2865     94.4523    132.4093   1.0870035001e+02   3.6660977957e+01    0.2795339    0.2376247 -24.31 0.0007704418    1.300    0.231
        37  -9.3386    105.2183    122.6271   1.0329846729e+02   3.7015524265e+01    0.1971269    0.1863469  17.84 0.0004526656    1.111    0.100
        38  -9.7056    192.4481    193.6936   9.7870081532e+01   3.5844462708e+00    0.4559039    0.2592863 -72.29  0.001295205    5.673    0.824
        39 -10.2884     53.1503    117.6921   1.1783399588e+02   4.6401711814e+01     0.282936    0.1610448 -71.25  0.001226564    2.141    0.533
        40  -9.8628    167.5494    112.4893   8.5144349750e+01   2.5986365516e+01    0.3179192    0.2519627 -79.16  0.001026623    1.454    0.312
        41  -9.1377    203.7423    111.4258   7.7869407814e+01   1.8182680921e+01    0.1974438      0.13768  42.52 0.0009468595    1.674    0.403
        42 -11.0993    242.0156     93.6532   6.8231943781e+01   1.3539229293e+01    0.2352657    0.1893734 -24.39  0.001357755    1.634    0.388
        43 -11.6170     54.8817    192.4447   1.2999112559e+02   2.7663142827e+01    0.3418908    0.2513248 -46.76  0.001079685    1.563    0.360
        44  -9.3719    160.4713     79.4661   7.8227522212e+01   3.3898339627e+01    0.1448059    0.1365541  82.81 0.0004740097    1.004    0.004
        45  -8.8861    184.5177     77.4739   7.3239256048e+01   2.8670881364e+01    0.1408925    0.1315259 -88.40 6.903183e-05    1.054    0.051
        46 -10.6118     12.9136     61.6633   1.1844923873e+02   6.2248046235e+01    0.2195136      0.12862 -40.45 0.0008046122    1.354    0.262
        47 -10.8422      2.2703     52.1230   1.2018601527e+02   6.4713038972e+01    0.2629043   0.08867027 -57.43  0.001207926    2.843    0.648
        48 -12.4999     32.3968    247.4486   1.4028631866e+02   1.7933153585e+01     1.366805    0.5943716  29.05  0.006328418    3.132    0.681
        49 -10.0003     89.8606    245.8539   1.2874722020e+02   1.0384177768e+01    0.1893071     0.136805  68.81 0.0007448726    1.341    0.254
        50 -11.4397     22.0488     27.8620   1.0346951788e+02   6.7009629919e+01    0.4709369    0.2262199  42.67  0.002301478    3.367    0.703
