#   1 NUMBER                 Running object number                                     
#   2 MAG_AUTO               Kron-like elliptical aperture magnitude                    [mag]
#   3 X_IMAGE                Object position along x                                    [pixel]
#   4 Y_IMAGE                Object position along y                                    [pixel]
#   5 X_WORLD                Barycenter position along world x axis                     [deg]
#   6 Y_WORLD                Barycenter position along world y axis                     [deg]
#   7 A_WORLD                Profile RMS along major axis (world units)                 [deg]
#   8 B_WORLD                Profile RMS along minor axis (world units)                 [deg]
#   9 THETA_WORLD            Position angle (CCW/world-x)                               [deg]
#  10 FWHM_WORLD             FWHM assuming a gaussian core                              [deg]
#  11 ELONGATION             A_IMAGE/B_IMAGE                                           
#  12 ELLIPTICITY            1 - B_IMAGE/A_IMAGE                                       
         1  -9.1487     46.3578     20.8737   1.0740739419e+02   6.6316157536e+01    0.5807894    0.2018993 -35.42  0.002218262    2.979    0.664
         2 -11.7201     79.8256     23.4753   9.4733565924e+01   6.0859862812e+01    0.8795966    0.3243381  34.86  0.003162589    3.302    0.697
         3  -9.1138     27.2108     23.1818   1.1737629875e+02   6.7791741993e+01    0.6738667    0.1896573 -38.39  0.002435108    3.781    0.736
         4  -9.1774    127.8944     15.8564   7.6845014423e+01   5.1561605716e+01    0.5172964    0.2806331  -0.90  0.001691212    2.293    0.564
         5  -8.7344    103.8870     15.8138   8.3206834024e+01   5.7190629816e+01    0.4534261    0.2239828  13.89  0.001467636    3.711    0.731
         6  -9.3172     63.9571     14.3666   9.6651304246e+01   6.5015301215e+01    0.4653396    0.2626297  -1.83  0.001842589    2.705    0.630
         7  -9.3967     79.0702     13.0303   9.0070807846e+01   6.2623256248e+01    0.4715529    0.2425349  38.88  0.001179043    1.984    0.496
         8  -9.1951     74.4885     13.5113   9.2024466964e+01   6.3382688208e+01     0.396416    0.2095289 -17.09  0.001580782    2.128    0.530
         9  -8.6477     96.6350     13.2233   8.4202527407e+01   5.9100147793e+01     0.470145    0.2602137   4.45  0.001722748    2.474    0.596
        10  -9.7162    134.5543     13.0389   7.4138819180e+01   5.0214745606e+01    0.5338908    0.2649001  28.32  0.001537559    2.396    0.583
        11  -8.9873    125.1015     10.3477   7.5134829397e+01   5.2876662714e+01    0.2963083    0.2131173  23.37  0.000367307    1.349    0.258
        12  -9.3832    129.9587      6.4980   7.2368077718e+01   5.2065016288e+01    0.5288898    0.1708099  38.05 0.0009215167    3.582    0.721
        13  -8.7003    108.1345     10.8587   7.9697943849e+01   5.6861076377e+01    0.2141639    0.1985286 -42.45 0.0009735387    1.316    0.240
        14  -8.3091    112.9679     11.9906   7.8903916013e+01   5.5608560280e+01    0.2480621    0.1564165  22.09 0.0008483959    1.671    0.402
        15  -8.4561     35.1714      9.9379   1.0783583580e+02   6.9602138405e+01    0.4768479    0.2146411  33.51   0.00237398    2.613    0.617
        16  -9.0651     40.6593      6.5415   1.0335785497e+02   6.9573223567e+01    0.4406356    0.2350298 -15.27  0.001341525    2.408    0.585
        17  -9.5636     46.7840      6.4222   1.0028506588e+02   6.8813469930e+01    0.2338783    0.1941833 -19.06 0.0002931976    1.097    0.088
        18 -10.3433      7.6336      5.5021   1.2101023618e+02   7.2681568158e+01     0.573963    0.2673726 -13.37  0.002963532    2.763    0.638
        19  -8.1772      2.9798      1.4505   1.2215646550e+02   7.3720382018e+01     0.180898    0.1088323 -30.61 0.0006210097    1.442    0.307
        20  -8.3093    155.8671      7.7302   6.7863144047e+01   4.5187686049e+01    0.3254358    0.1663274 -16.74  0.001296251    1.999    0.500
        21  -9.2825     32.0858      6.0770   1.0755202936e+02   7.0621289220e+01    0.2466266    0.1804081 -17.17 0.0004056766    1.214    0.176
        22  -8.9954    119.0138      6.9328   7.5072287029e+01   5.4735057474e+01    0.2556143    0.2015007  23.38 0.0003380925    1.162    0.139
        23  -8.8705    100.3575      6.1503   7.9666288154e+01   5.9167265217e+01    0.3559341    0.2364551 -57.43 0.0009771901    2.468    0.595
        24  -8.7727    235.4845      4.8227   5.7134206858e+01   2.4589392671e+01    0.3269854    0.2171675 -20.84  0.001223322    1.440    0.305
        25  -8.8372     75.7712      4.0064   8.6647742285e+01   6.4486289650e+01    0.2885763    0.1869038 -33.42 0.0006921077    1.550    0.355
        26  -9.3744    110.6771      3.3050   7.5475806447e+01   5.7110867701e+01    0.4151852    0.2741088 -31.58  0.001146301    1.589    0.371
        27  -8.0508    105.9977      1.5186   7.5841411203e+01   5.8389045449e+01    0.2940082    0.2165225  47.95  0.001347671    1.316    0.240
        28  -7.7927     91.1438      5.1356   8.1963783704e+01   6.1279665327e+01    0.1775893    0.1626009 -26.83 0.0004140037    1.283    0.221
        29  -8.4525    143.0861      2.1568   6.7922968261e+01   4.9083533481e+01    0.2366541    0.2021371   2.36 0.0003282781    1.145    0.127
        30  -7.4957     84.6806      3.2983   8.3130592619e+01   6.2834915468e+01    0.1271831    0.1083547 -51.37 0.0004052196    1.618    0.382
        31  -8.4369     56.7238      3.1614   9.3918115793e+01   6.7882885868e+01     0.277456     0.171847  28.70  0.001503638    1.667    0.400
        32  -8.8205     69.5882      9.1370   9.1719209593e+01   6.4891895731e+01     0.561206    0.1626364  43.22  0.002020296    3.584    0.721
        33  -8.1714     43.2734     92.6093   1.2821638470e+02   5.1138296200e+01    0.1940437    0.1647085  -0.28  0.001275897    1.498    0.333
        34 -10.0992    198.1625    248.7611   1.1718132141e+02   2.7163738214e+00    0.3606763    0.1567357  51.26  0.001850918    3.068    0.674
        35  -9.2653     57.2313    250.1181   1.3954117436e+02   2.0660599138e+01    0.1553058   0.09626598  47.83 0.0003522784    1.191    0.160
        36  -8.2045     96.5419     90.4775   1.1185790372e+02   4.4770799598e+01    0.3116651    0.1995538   2.69   0.00127006    2.836    0.647
        37  -7.9852    126.3226     83.6901   1.0167701654e+02   4.0701548138e+01    0.3050869    0.1758167  23.23  0.001165173    2.515    0.602
        38 -10.2740     37.4248     81.1358   1.2806527358e+02   5.4253865649e+01    0.5682784     0.305116 -20.20  0.002570381    3.286    0.696
        39  -8.5556     88.2042     78.6051   1.1128598905e+02   4.8660228495e+01    0.3646344    0.2318811  12.16  0.001525249    2.378    0.580
        40  -9.6948      8.1507     77.5843   1.3684548606e+02   5.7062941340e+01    0.3608177    0.1799329 -47.47  0.001952858    1.952    0.488
        41  -7.7181    184.3873     77.7859   8.6242854509e+01   2.8592800650e+01    0.2099375    0.1429062 -15.13 0.0004711602    1.538    0.350
        42  -8.8392     49.5557     77.0984   1.2333859236e+02   5.4019059166e+01    0.3520507    0.2297139  -3.18  0.001836341    2.266    0.559
        43  -7.4812    105.3247     76.3352   1.0546751475e+02   4.6231426360e+01    0.1509838    0.1113931  -9.10 0.0007051181    1.715    0.417
        44  -8.3284     23.4708     69.4764   1.3063665158e+02   5.7965149598e+01    0.2523093    0.1617767 -66.15  0.001258083    1.237    0.192
        45 -10.1194     24.4706     73.0393   1.3090437934e+02   5.7093652478e+01    0.5369802    0.1526508 -51.73  0.002274106    2.803    0.643
        46  -9.4830     28.7990     68.8162   1.2868840129e+02   5.7732318065e+01    0.3563031    0.1645993 -40.42   0.00160907    2.335    0.572
        47  -8.1225     74.8718     74.1920   1.1433674661e+02   5.1600525445e+01    0.1907748    0.1791507 -72.68 0.0003729483    1.136    0.119
        48  -7.3403    152.3787     70.2605   9.0971063079e+01   3.7471812779e+01    0.1637601    0.1134619  21.06 0.0006977194    1.669    0.401
        49  -7.3570    129.3484     69.2847   9.6502567100e+01   4.2836875948e+01    0.1574492    0.1152438  10.66 0.0004906837    1.652    0.395
        50  -7.0407    116.6915     68.6834   9.9826302040e+01   4.5586809078e+01    0.1529846    0.1141799  -0.90 0.0004654918    1.633    0.388
        51  -7.8513    106.0546     66.9473   1.0239933937e+02   4.8000512216e+01     0.179369    0.1667892 -21.66  0.000730479    1.008    0.008
        52  -9.1091     83.8808     64.1233   1.0852242869e+02   5.2422948247e+01    0.4684526     0.277863 -20.45  0.001703343    2.510    0.602
        53  -7.1750    190.6672     66.2397   8.1565364423e+01   2.8799028757e+01    0.1437368      0.12259 -76.05  0.000235534    1.540    0.351
        54  -9.2158     18.0647     62.3688   1.3128395808e+02   5.9911240835e+01     0.400795    0.1688945 -34.18  0.001838931    3.064    0.674
        55  -7.8612    122.4491     61.5660   9.5871781020e+01   4.5746950403e+01    0.4202845    0.2169356  19.24  0.001196615    4.594    0.782
        56  -9.4399     63.1637     61.2437   1.1476807041e+02   5.5986947764e+01    0.5323042    0.3313488   8.15  0.002016273    2.331    0.571
        57  -8.2319     57.1983     62.3785   1.1719938117e+02   5.6465669934e+01    0.2733818    0.1432929  42.42  0.001021757    2.280    0.561
        58  -7.4692     24.3658     62.6810   1.2908593089e+02   5.9432267575e+01    0.1288272    0.1006687 -60.06 0.0008475758    1.032    0.031
        59  -9.4083     26.4299     60.2609   1.2785922476e+02   5.9829989150e+01    0.2592113    0.1449981  47.48   0.00114056    2.288    0.563
        60  -8.4522     96.3173     59.6493   1.0305597960e+02   5.1246822822e+01    0.3032671    0.1605696 -25.90  0.001163692    2.515    0.602
        61  -8.0418    111.3594     58.1382   9.7908632819e+01   4.8681422727e+01    0.2525347    0.1961881  24.87 0.0006047427    1.357    0.263
        62  -9.6749     35.9759     58.9967   1.2406819463e+02   5.9362584878e+01    0.4139791    0.2823488   3.81  0.002425442    1.898    0.473
        63  -9.6291    246.1506     53.0817   6.9192228509e+01   1.7161110935e+01    0.3068227    0.2364873  12.26   0.00045984    1.319    0.242
        64  -8.6586    249.8644     48.9077   6.7626901228e+01   1.6794797914e+01    0.2147843    0.1745632   9.62 0.0005095044    1.221    0.181
        65 -10.0329     74.9176     50.3327   1.0716049160e+02   5.6662070585e+01    0.4512734    0.2875007 -25.86 0.0003679319    1.723    0.420
        66  -8.1729    118.6395     51.0941   9.3304466507e+01   4.8456181150e+01    0.2329927    0.2058829  48.64 0.0004024118    1.248    0.199
        67  -9.3181     45.9077     49.0189   1.1766677043e+02   6.0624570617e+01    0.3904553    0.2726829 -15.06  0.001648303    1.706    0.414
        68  -8.2115    106.3781     49.0210   9.6186267055e+01   5.1374823623e+01    0.3403831    0.2168386  12.71  0.001421484    2.204    0.546
        69  -7.3860     40.3439     50.2803   1.2020284654e+02   6.0898796610e+01    0.1303694   0.08258699 -32.12 0.0004138278    1.633    0.388
        70 -10.5452     11.5767     46.5370   1.3075369182e+02   6.3802777920e+01    0.7631002    0.5411963 -58.11  0.004353038    1.078    0.072
        71  -9.8072      6.8577     47.6625   1.3284149674e+02   6.3781821690e+01    0.7026159    0.3352299  66.21  0.002661973    3.586    0.721
        72  -8.9427     92.2068     39.0223   9.6940048186e+01   5.5924908468e+01     0.789804    0.2315029 -38.53  0.002583392    3.161    0.684
        73 -10.5505     83.0730     40.3378   1.0061092212e+02   5.7312668867e+01    0.4753433    0.2839039 -23.58 0.0002929732    1.846    0.458
        74  -8.6435     87.6219     38.1523   9.8160997830e+01   5.6920101188e+01    0.3093232    0.2092324 -18.08 0.0008909368    1.563    0.360
        75  -9.1562     56.6908     42.6925   1.1140739988e+02   6.0739514606e+01    0.5499573    0.2546961 -26.45  0.001993412    3.618    0.724
        76  -8.3658    247.8172     42.1681   6.6064855682e+01   1.7996609860e+01    0.2039427    0.1560598  20.00 0.0007459486    1.377    0.274
        77  -7.7955    113.8198     41.8000   9.1232404016e+01   5.1096402176e+01    0.2585339    0.1512579  10.63  0.000936868    2.795    0.642
        78  -8.9064     67.4302     37.2987   1.0523826852e+02   6.0372118363e+01    0.3065519     0.180621 -47.49   0.00130132    1.593    0.372
        79  -9.1325     70.9958     35.4971   1.0316432358e+02   6.0184205340e+01    0.3736623    0.2066077  17.76  0.001590797    2.615    0.618
        80  -9.1189     61.8834     37.3756   1.0744192555e+02   6.1140368122e+01     0.277532    0.2335959  73.65  0.001589021    1.795    0.443
        81  -9.7080     37.4319     36.3544   1.1724245275e+02   6.4163931454e+01    0.4868611    0.2614838 -17.88  0.001979745    2.679    0.627
        82  -7.8740    105.4395     36.8518   9.1804425902e+01   5.3696016140e+01    0.2948745     0.179558  13.33  0.001191286    2.316    0.568
        83  -8.1640     18.6866     35.7158   1.2524595582e+02   6.5767421474e+01    0.2004638    0.1105308 -47.55 0.0002062204    1.418    0.295
        84  -9.4544     22.9475     35.4990   1.2330820291e+02   6.5531141855e+01    0.2768569    0.2521326 -15.42  0.001119633    1.260    0.207
        85  -9.4489     22.0064     32.2533   1.2279089733e+02   6.6291372268e+01    0.2541553    0.2458635  -0.60 0.0003840756    1.295    0.228
        86  -8.9413     56.2964     35.0797   1.0883316747e+02   6.2334655153e+01     0.401264    0.2175272 -24.71   0.00157252    2.275    0.560
        87  -9.6325      6.6835     34.0978   1.3014829716e+02   6.6764020862e+01    0.3550512    0.2352161 -41.06   0.00163305    1.350    0.259
        88  -9.3879      1.8613     28.6475   1.3108012792e+02   6.8141784025e+01    0.5048545    0.1169793 -66.65  0.002072192    3.017    0.669
        89  -9.2247     42.1252     27.2796   1.1195086254e+02   6.5554208518e+01    0.3162692    0.2457833 -57.40   0.00107857    1.389    0.280
        90  -8.1839    215.3129    248.9659   1.1451185219e+02   3.0537577388e-01    0.1233958   0.08305198 -57.83  0.000704659    4.315    0.768
        91  -7.5749    143.7085     27.6948   7.8005001834e+01   4.6135256774e+01    0.1606694    0.1090999  22.63  0.000245618    1.575    0.365
        92  -8.7085    173.2082    248.7913   1.2116258240e+02   6.2136245166e+00    0.1670163   0.09772644  18.75  0.001064571    2.095    0.523
        93  -8.7093     61.8634     26.8956   1.0326119510e+02   6.3152126673e+01    0.2063842    0.1568413 -16.98   0.00049298    1.231    0.188
        94  -9.1200    166.5126    248.8379   1.2224206608e+02   7.1429649526e+00    0.1678417     0.110799  48.08 0.0006580909    1.346    0.257
        95  -8.0415    144.9347     23.3389   7.6042580376e+01   4.6370173835e+01    0.2105685    0.1806022  40.75  0.000316106    1.113    0.101
        96  -7.9950    128.8979     22.7684   7.9496808733e+01   5.0461366165e+01     0.243625    0.1852732  24.61   0.00070205    1.279    0.218
        97  -8.4345     92.4345     21.1287   8.9247406080e+01   5.8846591050e+01    0.3861775    0.2253644   2.18  0.001265819    2.400    0.583
        98  -8.3463    140.2776     19.9874   7.5725836126e+01   4.7964591515e+01    0.2440095    0.2047241  41.03 0.0003869396    1.129    0.114
        99  -7.4968    117.9987     24.5281   8.3048711400e+01   5.2820705834e+01    0.2190949    0.1072481  32.20 0.0003725403    2.406    0.584
       100  -8.4474      9.4276     19.8934   1.2507968085e+02   6.9661492859e+01    0.2048496    0.1479748 -22.06 0.0007981985    1.434    0.303
       101  -7.4023    146.8060     19.3832   7.4101587425e+01   4.6356891495e+01    0.2135557    0.1266055  46.24 0.0003461738    1.576    0.365
       102  -8.3478      5.0248     18.9283   1.2702503918e+02   7.0076348989e+01    0.1824259    0.1285398 -49.34 0.0004525278    1.057    0.054
       103  -9.6099    227.8432    245.8680   1.1216567304e+02  -1.1656777297e+00    0.2121483   0.08739307  34.12  0.001274709    1.695    0.410
       104  -7.7108     82.6312    246.7147   1.3546107683e+02   1.8297580259e+01   0.08572411     0.067747  25.39 0.0007019187    1.701    0.412
       105  -7.5167    124.5373    238.4477   1.2806364660e+02   1.4120952552e+01    0.1048415   0.07614683  46.10   0.00012441    1.012    0.012
       106  -9.1925    187.5561    233.6986   1.1705188192e+02   5.7336317758e+00     0.268694    0.1873858  60.16  0.001773786    2.100    0.524
       107  -8.4431     35.0621    228.4335   1.4189713838e+02   2.5965959483e+01    0.1348264    0.1113013  89.90 0.0005308109    1.380    0.275
       108 -10.3914    124.0024    205.9971   1.2485307816e+02   1.8668159037e+01    0.1610023    0.1283099  46.82  -0.03019764    1.003    0.003
       109  -7.8215     54.5318    205.8828   1.3743592550e+02   2.7493263367e+01    0.1343893   0.08894912 -78.98  0.001008257    1.540    0.351
       110  -7.6359      9.5020     12.4960   1.2259220112e+02   7.1179930753e+01    0.1201305   0.08709571 -45.45 0.0004156998    1.015    0.015
       111  -7.8256     11.4736    206.4970   1.4474920737e+02   3.1490951598e+01   0.09575945   0.06447699  66.15 3.379913e-05    1.049    0.047
       112  -9.2694    179.3915    199.8050   1.1383145551e+02   1.0948681166e+01    0.2075108    0.1600639  34.20 0.0003106277    1.037    0.036
       113  -7.3175    145.3538    150.7079   1.1247638165e+02   2.4256792972e+01    0.1338507    0.1015818  68.85 0.0007029537    1.681    0.405
       114  -7.2667    133.3220    147.6702   1.1457467949e+02   2.6923879683e+01    0.1339408    0.1016577  74.07 0.0007049196    1.695    0.410
       115  -7.9085    124.9659    145.4822   1.1606738001e+02   2.8761098427e+01    0.1769924     0.171677 -58.02   0.00113657    1.107    0.096
       116  -9.1469     67.3409    144.7509   1.2929631197e+02   3.7264781797e+01    0.3617549    0.2293186  63.66  0.002108406    1.618    0.382
       117  -8.3379      5.2361    133.4595   1.4245695825e+02   4.5277427031e+01    0.1435376   0.07960057  47.80 0.0009556945    1.719    0.418
       118  -7.4020    122.4653    130.4433   1.1384890998e+02   3.2084830457e+01    0.1341702    0.1269126  56.05 6.172861e-05    1.043    0.041
       119 -10.0663    235.9845    128.4462   8.9837513798e+01   9.9829672592e+00    0.2714007    0.2191837  22.70 0.0003829474    1.108    0.097
       120  -7.5840    119.9795    118.5414   1.1201690140e+02   3.4892173713e+01    0.1960039     0.121789  16.33 0.0008086592    2.545    0.607
       121  -7.4448     59.6700    113.6793   1.2693031794e+02   4.4746896323e+01    0.1243397   0.08991101 -36.37 0.0005841756    1.692    0.409
       122  -7.3873    142.5290    111.9548   1.0496299503e+02   3.1929616751e+01    0.1991286     0.125138 -16.41 0.0008069125    2.365    0.577
       123  -8.9456      1.7918    110.2857   1.4172063012e+02   5.0285835554e+01    0.2796944   0.08295599 -63.10  0.001252276    2.624    0.619
       124  -7.7208     39.0321    110.0400   1.3197653316e+02   4.7647447220e+01     0.149359    0.1183786 -76.87 0.0009947845    1.067    0.063
       125  -7.6711    133.6191    106.1231   1.0573604352e+02   3.4821732162e+01    0.2067735    0.1328838 -30.98 0.0006155072    1.734    0.423
       126  -7.6005    109.2586    106.5749   1.1214813406e+02   3.9223493227e+01    0.1891315    0.1333514  25.80 0.0009342075    1.631    0.387
       127  -9.1184     14.1426    105.5894   1.3814248525e+02   5.0549907947e+01    0.2368457    0.1258793 -49.96  0.001388224    1.981    0.495
       128  -9.4304    249.5097    103.8717   8.1819604561e+01   1.0357347359e+01    0.3044114    0.1694751 -24.15   0.00146163    1.624    0.384
       129  -7.5367     93.8253    103.3753   1.1562941788e+02   4.2429500545e+01    0.1888933    0.1298282  22.76 0.0008590751    1.778    0.437
       130 -10.3145     12.9688     94.2004   1.3730713125e+02   5.3113156021e+01    0.4384158    0.3065434   5.51  0.002039479    1.986    0.497
       131  -8.2379    242.3313     95.6480   8.0881604963e+01   1.2848741385e+01    0.1393069    0.1070076 -51.97 0.0003885292    1.777    0.437
