#   1 NUMBER                 Running object number                                     
#   2 MAG_AUTO               Kron-like elliptical aperture magnitude                    [mag]
#   3 X_IMAGE                Object position along x                                    [pixel]
#   4 Y_IMAGE                Object position along y                                    [pixel]
#   5 X_WORLD                Barycenter position along world x axis                     [deg]
#   6 Y_WORLD                Barycenter position along world y axis                     [deg]
#   7 A_WORLD                Profile RMS along major axis (world units)                 [deg]
#   8 B_WORLD                Profile RMS along minor axis (world units)                 [deg]
#   9 THETA_WORLD            Position angle (CCW/world-x)                               [deg]
#  10 FWHM_WORLD             FWHM assuming a gaussian core                              [deg]
#  11 ELONGATION             A_IMAGE/B_IMAGE                                           
#  12 ELLIPTICITY            1 - B_IMAGE/A_IMAGE                                       
         1 -14.8029    241.6670    131.6018   1.0083377782e+01   1.1257835590e+01     8.018051     2.133707 -41.66   0.03335731    2.936    0.659
         2 -12.5470    237.9183     78.0818   3.5992769231e+02   1.9541294592e+01     1.925714    0.7496186 -50.97  0.009138446    2.408    0.585
         3 -12.4402    247.7314     70.4628   3.5751126320e+02   1.9015871805e+01     1.825361    0.6526684 -49.54  0.008918049    2.380    0.580
         4 -10.8143    244.2018     28.6272   3.4939187267e+02   2.4755598059e+01    0.5244571    0.2304749 -32.77  0.002644584    1.938    0.484
         5 -10.8825    246.9964     25.0294   3.4852651362e+02   2.4690230557e+01    0.4650987    0.3798467 -41.88  0.002213221    1.265    0.209
         6  -9.3851    209.0419     12.2781   3.4788885331e+02   3.2992115865e+01    0.1888014    0.1412035 -57.49  0.001152118    1.014    0.014
         7  -9.1493    209.6165      8.2973   3.4695262239e+02   3.3291247512e+01    0.2105945    0.1864702  42.09  0.001018087    1.655    0.396
         8  -9.5721    204.4277     11.3758   3.4794808961e+02   3.4004459830e+01    0.2207662    0.1758116  28.97  0.001194526    2.001    0.500
         9  -9.5434    120.3063      8.9137   3.5475268892e+02   5.3444792652e+01    0.3707456    0.3410051  51.99  0.001556633    1.223    0.182
        10 -10.7795    234.7198      3.6832   3.4481271509e+02   2.9060826950e+01    0.4613888    0.4157583 -60.87   0.00381775    1.329    0.247
        11  -9.4818    226.4170      6.8076   3.4580831763e+02   3.0247144474e+01    0.2928508    0.1284589  71.90  0.001671401    2.476    0.596
        12  -9.8595    184.0980      4.0528   3.4738879814e+02   3.8971956540e+01    0.3782268    0.1494559 -49.71  0.001876589    2.011    0.503
        13 -10.0786    244.1350      3.5052   3.4441912680e+02   2.7439956909e+01     0.342416    0.1799901  67.19  0.001927663    2.360    0.576
        14 -10.0525    192.1229    193.3333   2.8996129932e+01   8.0855540090e+00    0.7408473    0.4219481 -58.98  0.003364105    3.349    0.701
        15  -9.1985    244.9738    250.3385   2.9024200126e+01  -4.9092210195e+00    0.1870824    0.1016311  24.88  0.001377647    1.891    0.471
        16  -7.7548    178.0073    197.9815   3.2411271671e+01   9.1019840046e+00    0.1984166    0.1370005 -65.42  0.001017592    2.587    0.613
        17  -8.8788    238.2919    197.0148   2.2066456993e+01   2.2867268961e+00    0.2195691    0.1462373  45.58  0.001415135    2.532    0.605
        18  -8.2995    201.9929    195.0479   2.7534816441e+01   6.6064999759e+00    0.1773699    0.1479217 -16.12 0.0004784595    1.097    0.088
        19  -8.1165    180.8641    193.9075   3.1185617925e+01   9.4203531888e+00    0.3072603    0.1588792 -54.82  0.001181049    2.786    0.641
        20  -8.9544     76.3473    192.6006   5.5325920531e+01   2.3923132239e+01    0.3019162    0.2309606 -17.78 0.0009298234    1.595    0.373
        21 -12.9317    208.5766    176.4381   2.3203915383e+01   8.7143020938e+00     2.512077      1.52888 -58.18   0.01251721    2.813    0.644
        22 -11.9995    226.7639    171.1010   1.9387680071e+01   7.2730738755e+00     1.133986    0.6482975 -18.29  0.002960924    1.839    0.456
        23 -10.6590    198.4028    116.2352   1.2955021642e+01   2.0274382247e+01    0.6949575    0.3298927  51.02  0.003258703    2.526    0.604
        24 -10.8151    206.8484    114.0934   1.1228188071e+01   1.9205678654e+01     0.585972    0.2937431 -39.17 0.0009549265    1.649    0.394
        25 -11.6342    239.6397    161.1227   1.5769546833e+01   7.1923668140e+00    0.7672833    0.6212804 -12.16  0.003575687    1.162    0.139
        26 -12.3117    241.8094     94.2562   2.8056722367e+00   1.6661847964e+01      1.11363    0.9112921 -36.47  0.008086015    1.118    0.105
        27  -7.9843    221.6766    243.6730   3.1673863507e+01  -2.1799762072e+00    0.1112915   0.06035658  -9.35 0.0004474586    1.691    0.409
        28 -10.2193    188.7568    177.5576   2.6862583158e+01   1.1144618409e+01    0.3265132    0.2938156 -12.32 0.0007929137    1.125    0.111
        29  -9.9979    188.2156    171.0853   2.5782786630e+01   1.2330377961e+01    0.3953819    0.2377048 -31.57  0.000994142    1.516    0.341
        30  -9.7908    180.1814    175.1919   2.8040227717e+01   1.2744677447e+01    0.4352598    0.2524832 -53.17  0.001777357    2.081    0.519
        31 -10.8338    179.7165    166.4222   2.6502008479e+01   1.4377414150e+01    0.7857463    0.4315526 -51.59  0.003771085    2.049    0.512
        32 -10.9312    172.9536    162.4657   2.7060551239e+01   1.6117720695e+01    0.8829553    0.4121921 -48.83  0.003430493    2.183    0.542
        33  -7.2502     58.5247    171.3779   5.7756634145e+01   3.1336838418e+01    0.1413851    0.1329965  43.47 -6.143384e-05    1.043    0.041
        34  -8.3724    214.7520    166.9867   2.0499241646e+01   9.4129936664e+00    0.2684947    0.1988063 -53.10  0.001088043    1.705    0.413
        35  -8.7000    164.2448    167.0443   2.9696919856e+01   1.6587121229e+01    0.3230425    0.2073699 -57.20   0.00158994    1.909    0.476
        36 -12.4418    217.4188    118.5445   1.0670647087e+01   1.6775655348e+01     1.232204      1.09154  -8.09  0.008452418    1.255    0.203
        37  -9.9974    160.4489    159.1968   2.8977301050e+01   1.8698935138e+01    0.3465326    0.2530464  -8.47  0.001800277    1.603    0.376
        38  -9.6316      2.4721    155.3460   7.3741828172e+01   4.0925552560e+01    0.3655671    0.2431287 -83.01  0.001919013    1.377    0.274
        39  -9.3754    166.3017    155.0721   2.6945549968e+01   1.8561904983e+01    0.2516209    0.1889218   3.00  0.001328778    1.551    0.355
        40  -9.8153    134.2767    149.3806   3.2929384978e+01   2.5090334887e+01     1.082579    0.2799908 -54.57  0.002739831    5.492    0.818
        41  -9.3023    159.3506    153.5530   2.8086460059e+01   1.9989528720e+01    0.2736809    0.2308296 -21.74  0.000913298    1.142    0.125
        42  -8.7005    211.8270    150.1835   1.7811494303e+01   1.2501698677e+01    0.4970936    0.1627762 -32.22  0.001813244    3.520    0.716
        43 -10.2986    172.7854    151.4657   2.4922702113e+01   1.8205575411e+01    0.4731736    0.3293816 -10.80  0.002411975    1.765    0.433
        44  -9.7864    181.0846    149.7526   2.2986921670e+01   1.7197531804e+01    0.3793969    0.2506696  21.95  0.001365426    1.828    0.453
        45  -8.8383    141.3643    150.5513   3.1480948099e+01   2.3623555864e+01    0.2363818    0.2091831 -46.95 0.0002953374    1.121    0.108
        46  -8.0912    154.6775    150.1047   2.8387791225e+01   2.1457628499e+01    0.1976652    0.1628837 -32.90  0.000377366    1.139    0.122
        47  -9.1898     67.9489    144.3347   5.0878569591e+01   3.7141952410e+01    0.6282933    0.3372112  56.35  0.002412749    2.289    0.563
        48  -8.6443      2.1347    145.9553   7.3312379471e+01   4.3463993134e+01    0.2219908    0.1945149  31.02 0.0003978274    1.214    0.176
        49  -7.6470    161.5037    141.9999   2.5242522160e+01   2.1917112743e+01    0.1997901    0.1129195 -24.50 0.0008086831    2.405    0.584
        50  -7.8320    195.2822    141.3412   1.8752104445e+01   1.6457696324e+01    0.1322569   0.09235311 -15.12 0.0003482855    1.631    0.387
        51  -8.7184    173.9855    138.9929   2.2107045512e+01   2.0362650321e+01    0.2151759    0.1912994 -26.68 0.0007078033    1.034    0.033
        52  -9.6993    179.7781    135.5409   2.0282870448e+01   2.0025776635e+01    0.4086786    0.2065433 -54.46  0.001721194    2.408    0.585
        53  -8.8557    161.0276    129.9307   2.2709983185e+01   2.4392973290e+01    0.5198867    0.1754007 -42.19  0.001831956    2.753    0.637
        54  -8.0105    191.3101    132.3013   1.7552927936e+01   1.8681806028e+01    0.1308982   0.09706733 -10.08 0.0002430416    1.604    0.377
        55  -8.7355    136.0141    128.1827   2.7892262785e+01   2.9405669988e+01    0.2641675    0.2069858 -45.59 0.0005887878    1.217    0.178
        56  -8.1919    169.0989    128.1521   2.0696596890e+01   2.3280264802e+01    0.2102208    0.1789337 -17.83 0.0004955556    1.223    0.183
        57 -11.0583    176.9848    107.5579   1.4514832236e+01   2.5665873056e+01     0.756222    0.4754594  47.57 0.0008751255    1.798    0.444
        58  -9.0971    173.8477    119.1682   1.7769046386e+01   2.4117218303e+01     0.333894    0.2170137 -29.39  0.000849978    1.609    0.378
        59 -10.8722    185.9217    115.3872   1.4781726104e+01   2.2610573479e+01    0.9773409    0.2987371 -36.89 0.0006847637    3.222    0.690
        60 -11.0061    178.6890    115.1952   1.5985821388e+01   2.3959820045e+01     1.015461    0.5498549  68.25   0.00393557    3.481    0.713
        61  -8.3426     41.6511    117.9474   5.5671823872e+01   4.7770922258e+01    0.2072555    0.1829966 -79.87 0.0004949005    1.092    0.084
        62  -9.7533    159.9013    114.1283   1.9284354313e+01   2.7714848631e+01    0.4080306    0.2736702  55.29  0.001893724    1.702    0.413
        63  -9.7337    159.3871    108.7411   1.8086584873e+01   2.8861838078e+01    0.3190926    0.2576697 -38.79 0.0007620091    1.159    0.137
        64  -8.1787    150.0610    113.7184   2.1238232969e+01   2.9723142053e+01     0.197658    0.1910188  34.01  0.000514892    1.117    0.105
        65 -10.7646     48.9214    111.3469   5.1580327600e+01   4.8675682777e+01     1.073526    0.4269083 -55.78  0.003428837    2.290    0.563
        66  -9.1312     47.8258    107.1058   5.1146092220e+01   4.9971606348e+01    0.2833893    0.2190268 -70.22 0.0002874715    1.271    0.213
        67 -11.2702     41.1520    107.0921   5.3865809609e+01   5.0816400420e+01    0.9252089    0.8062168 -81.24  0.003672678    1.132    0.116
        68 -10.6961     32.1652    107.1686   5.7622705925e+01   5.1805159002e+01    0.7009497    0.3592447  42.04  0.002011678    2.010    0.502
        69 -11.2549      3.1240    106.2818   6.9879755009e+01   5.4325427968e+01     1.013123    0.4187953 -82.42  0.003775393    2.272    0.560
        70 -10.5193    226.2117    147.3424   1.5119982513e+01   1.0962835076e+01    0.3284427    0.2418644 -38.90 0.0008293315    1.177    0.150
        71  -9.0128    135.4014    107.4225   2.2984594651e+01   3.3975260873e+01    0.3750766    0.2283725 -44.63  0.001434637    1.561    0.359
        72  -8.4908     59.3102    108.3110   4.6882741194e+01   4.8031955708e+01     0.158445    0.1167918 -27.82 0.0007026901    1.625    0.385
        73  -9.4919     62.9024    106.2770   4.5039362855e+01   4.8021285954e+01    0.3850754     0.212505 -69.96  0.001490424    2.082    0.520
        74  -8.3718    143.3654    106.0349   2.0794608033e+01   3.2629685750e+01     0.265856    0.2181064  61.95 0.0008123373    1.335    0.251
        75  -9.3653    132.7258    117.9199   2.6257953543e+01   3.2269315947e+01    0.5075435    0.3647951 -47.45  0.002287855    1.328    0.247
        76  -9.6437     53.4532    233.3314   6.4983978074e+01   1.7697774263e+01    0.2230055     0.202154 -22.47 0.0005081253    1.332    0.249
        77  -8.4425    147.1587    229.4476   4.3351282678e+01   7.6144969307e+00    0.1934753    0.1593019 -29.12 0.0002630008    1.254    0.203
        78  -9.4777    187.5889     99.3930   1.0845603686e+01   2.5095031240e+01    0.3706338    0.2307874 -28.52  0.001843476    1.709    0.415
        79  -7.9724    100.5557    100.9965   3.0687471752e+01   4.2532738351e+01    0.2157106    0.2000963  47.07 0.0002287927    1.100    0.091
        80  -8.5765    214.9309     98.4007   6.7562940015e+00   2.0359572077e+01    0.2404146    0.1514514 -33.42 0.0005811197    1.399    0.285
        81  -8.2254    199.2226     99.0465   9.0234750531e+00   2.3006353147e+01    0.1977055    0.1596889 -25.29 0.0003717798    1.284    0.221
        82  -8.2465    200.4695     95.9812   8.1545602925e+00   2.3281409339e+01    0.4254798    0.1288006 -40.95  0.001627094    2.678    0.627
        83  -9.2621    186.4405     90.7979   8.9932358478e+00   2.6769991100e+01    0.4489755    0.2569636 -42.73  0.002238144    1.498    0.333
        84  -8.2653    142.0928     91.8059   1.7332545326e+01   3.5735275764e+01    0.2093652    0.1844772 -70.54 0.0003001308    1.144    0.126
        85  -9.0879    210.9942     87.9693   4.9729418107e+00   2.2658295665e+01    0.3368163    0.2365355 -15.79   0.00187094    1.857    0.462
        86  -9.4200    213.0849     81.6008   3.3087477581e+00   2.3253026881e+01    0.5796221    0.2481952 -26.63  0.001895933    3.174    0.685
        87  -7.2388     50.7252     90.7373   4.6131519014e+01   5.3920695502e+01    0.1465026    0.1136248 -26.19 0.0001830796    1.471    0.320
        88  -7.3303    157.0187     88.0550   1.3294831498e+01   3.3246841016e+01     0.171855    0.1515906 -50.54 0.0003565304    1.036    0.035
        89  -7.0885    168.2745     85.2685   1.0544990347e+01   3.1372854218e+01    0.1261963     0.109205   0.17            0    1.479    0.324
        90  -8.8192    184.1720     78.5915   6.3662813171e+00   2.9227599458e+01    0.2878896    0.2359657  -6.88  0.001045672    1.615    0.381
        91  -8.7285    216.5936     74.0609   1.2432963219e+00   2.3736513936e+01    0.3369079    0.1824356 -18.12  0.001457252    3.165    0.684
        92  -9.0737    177.6317     73.7049   6.0967720607e+00   3.1356386473e+01    0.3063831    0.1701955 -24.60  0.001332766    2.334    0.571
        93  -8.3057    185.6002     69.9112   4.0166315194e+00   3.0308775116e+01    0.1870025    0.1756501  77.96  0.001197345    1.205    0.170
        94  -9.8306    226.3896    185.1270   2.1877659888e+01   5.2448701684e+00    0.3357105    0.2219095  -9.62  0.001776414    1.453    0.312
        95  -7.8270    206.2522     64.4415   1.9437393046e-01   2.7036727308e+01    0.1582184    0.1143099 -86.22 0.0007801476    1.545    0.353
        96  -9.8825    249.9913     49.4547   3.5317515078e+02   2.1338295923e+01    0.5271606   0.08149328 -40.96  0.002118205    3.348    0.701
        97  -7.1875    198.6318    188.3000   2.6978032062e+01   8.0812766806e+00    0.1058111   0.09894457  87.26 0.0007032382    1.736    0.424
        98  -8.9775    149.5930     46.9076   2.9706800577e+00   4.1719249341e+01    0.2851648    0.2283294   1.40 0.0009886569    1.776    0.437
        99  -7.5290     73.4893     44.3528   2.0612982019e+01   6.0082083111e+01     0.142159    0.1312209  52.72 -6.158242e-05    1.051    0.049
       100  -9.0681    237.0800    186.2901   2.0478755715e+01   3.8919461430e+00    0.2496207    0.1314658 -37.73 0.0007418821    1.578    0.366
       101  -7.7578     96.0258     35.3120   9.7679132842e+00   5.6323719562e+01    0.1882004    0.1679184  74.66 0.0004217099    1.070    0.065
       102  -8.3442    238.7665    228.5983   2.6868344471e+01  -1.8467284884e+00    0.1235336    0.0862794  24.57 0.0009367903    1.661    0.398
       103  -8.4360    249.7541    211.5635   2.2710654894e+01  -7.1894289784e-01    0.1824358    0.1518703 -14.38 0.0008911928    1.366    0.268
       104  -7.4269    167.4726    185.4453   3.2372376251e+01   1.2691759638e+01    0.1281671    0.1145002  -9.71 5.358646e-05    1.055    0.052
       105  -9.8033    202.7217     18.7799   3.4978832494e+02   3.3554072300e+01    0.2398025    0.1419674 -82.69   0.00141184    1.638    0.389
       106  -7.9054     95.9503     18.9359   2.9933731635e+00   5.8453449424e+01    0.1948362    0.1772454  83.84 0.0002856712    1.033    0.032
       107  -9.4859    196.9985     17.9933   3.4999253253e+02   3.4809279075e+01     0.191028    0.1515528 -61.30 0.0008821351    1.018    0.017
       108  -8.1829     80.0287     33.1172   1.3473204546e+01   6.0428378691e+01    0.2001654    0.1924452  48.40 0.0003853659    1.038    0.037
       109  -8.4442     14.7683    183.0583   7.1632139482e+01   3.2849429919e+01    0.2284735    0.1907718  20.51 0.0004531824    1.286    0.223
       110  -8.6840    248.7661    208.5209   2.2381044762e+01  -2.4452522019e-01    0.2253951    0.1333165  -2.06 0.0009345629    1.645    0.392
       111  -7.5741     51.0218    210.3446   6.3802407366e+01   2.2841826259e+01    0.2411963   0.03891385  42.31 0.0007050209    4.415    0.773
       112  -7.8229    225.3872    205.5907   2.5400965409e+01   2.4441807498e+00    0.1358771    0.1215827 -29.92  0.000975846    1.522    0.343
       113  -8.7355    246.3647    201.7065   2.1653683508e+01   8.5916275738e-01    0.1755131    0.1554477 -25.74 0.0009644458    1.540    0.351
       114  -9.2636    242.9943    199.7661   2.1826390106e+01   1.4441075006e+00    0.2392888    0.1552037   0.96  0.001682411    1.481    0.325
       115  -7.6670    209.5459    201.7411   2.7350165487e+01   4.7135002698e+00    0.1712742    0.1434514  -3.20  0.000481827    1.158    0.136
       116  -8.9945    206.0349    200.1589   2.7685735999e+01   5.3501687163e+00    0.2152282    0.1374909  -2.68  0.001176505    1.596    0.374
