#   1 NUMBER                 Running object number                                     
#   2 MAG_AUTO               Kron-like elliptical aperture magnitude                    [mag]
#   3 X_IMAGE                Object position along x                                    [pixel]
#   4 Y_IMAGE                Object position along y                                    [pixel]
#   5 X_WORLD                Barycenter position along world x axis                     [deg]
#   6 Y_WORLD                Barycenter position along world y axis                     [deg]
#   7 A_WORLD                Profile RMS along major axis (world units)                 [deg]
#   8 B_WORLD                Profile RMS along minor axis (world units)                 [deg]
#   9 THETA_WORLD            Position angle (CCW/world-x)                               [deg]
#  10 FWHM_WORLD             FWHM assuming a gaussian core                              [deg]
#  11 ELONGATION             A_IMAGE/B_IMAGE                                           
#  12 ELLIPTICITY            1 - B_IMAGE/A_IMAGE                                       
         1 -11.4657      7.2372     17.8606   1.1339093423e+02   7.2356054045e+01    0.2567821    0.2185675 -39.21 0.0004111019    1.352    0.260
         2 -11.9671     36.7842     20.2504   9.8331666170e+01   6.8942725429e+01    0.4708371    0.2912641  46.18  0.002611396    2.243    0.554
         3 -10.6049    182.3982     18.6873   5.9601566153e+01   3.7127432631e+01    0.2387801     0.206371  68.20 0.0004996976    1.153    0.133
         4 -11.8184    113.1762     15.2834   6.9790526165e+01   5.4758012521e+01     0.437664    0.2879966  70.59  0.001416607    1.537    0.350
         5 -11.6208     80.5856     14.8665   7.8222882586e+01   6.2078444555e+01    0.2756298    0.2425996 -30.12  0.001130926    1.334    0.250
         6 -12.6157     25.8154     13.0947   1.0049791789e+02   7.1319742971e+01    0.2816215    0.2236218  21.28 0.0004541679    1.331    0.248
         7 -12.6910    211.6510      9.8038   5.4438119148e+01   3.0995533035e+01    0.6473331    0.3891694  26.10  0.002895169    3.494    0.714
         8 -10.2318     63.5955     13.4502   8.3396264673e+01   6.5544223270e+01    0.2292805     0.195001  72.92  0.001426457    1.747    0.428
         9 -10.7312      2.1259     10.7944   1.1337348464e+02   7.3862326108e+01    0.2174397    0.1707806  10.75  0.001020349    1.382    0.276
        10 -10.4894      7.0683     10.2181   1.0999996942e+02   7.3585859964e+01     0.191828    0.1542941  37.86  0.001042225    1.896    0.472
        11 -10.7368     74.4607      8.8533   7.7462347397e+01   6.3924440975e+01    0.2246598    0.2010784 -47.10  0.000993997    1.478    0.323
        12 -11.4797     74.3868      2.7447   7.4656622276e+01   6.4487793343e+01    0.3237165    0.3021744  32.32  0.002258757    1.193    0.162
        13 -12.0885     50.2163      7.5448   8.5803370315e+01   6.8529326111e+01    0.6121096     0.294254  29.11 0.0008271511    2.061    0.515
        14 -11.2118     17.9658      7.8957   1.0224092305e+02   7.2914975156e+01    0.4779652    0.2089828  15.33  0.002321221    2.809    0.644
        15 -12.2016    190.6475      5.2486   5.5238732792e+01   3.6474660445e+01    0.4286188    0.2346758 -60.73 0.0008400547    1.818    0.450
        16 -11.6316    195.0089      3.5152   5.4403562116e+01   3.5586121012e+01    0.3084059    0.1945277  81.43  0.001010511    1.357    0.263
        17 -11.3816    175.3591      8.0949   5.7568790600e+01   3.9968967926e+01    0.2288956    0.1570648  64.36 0.0005769504    1.314    0.239
        18 -10.8749     87.5719      7.2454   7.2852362616e+01   6.1330447822e+01    0.2046164     0.150789   1.25 0.0006005227    1.457    0.314
        19 -11.5379     24.6646      6.8253   9.7863618257e+01   7.2301476788e+01     0.226256    0.1658742 -30.27 0.0005642685    1.413    0.292
        20 -10.1164    236.2440      6.9959   5.1938931418e+01   2.5754918640e+01    0.1466825    0.0914207 -40.11 0.0003772639    1.542    0.352
        21 -10.5787     62.0495      6.1952   8.0459742819e+01   6.6580414848e+01    0.2630774     0.178598  45.68  0.001215303    1.357    0.263
        22 -11.3726     38.1502      3.8266   8.9269281172e+01   7.0839674645e+01    0.3449292    0.3226121  12.98  0.001602837    1.446    0.308
        23 -12.0307    181.1963      2.7708   5.5532128861e+01   3.9022674177e+01    0.5191382    0.2124791  63.27   0.00235982    2.071    0.517
        24 -10.5654     30.9574      3.0691   9.2435145454e+01   7.1952772637e+01    0.2691634    0.1439143 -19.72  0.001549373    1.813    0.448
        25 -10.9287     11.7088      2.8324   1.0329259178e+02   7.4243258090e+01    0.2349542    0.2171825  60.03  0.001130024    2.172    0.540
        26 -12.1973    209.0002      5.0810   5.3569305668e+01   3.2105490408e+01    0.2946126    0.2049579 -75.40 0.0003663139    1.234    0.190
        27 -11.5834    161.0439      3.1943   5.7871809964e+01   4.3995756850e+01    0.3404263    0.2053396 -87.03  0.001734628    1.663    0.399
        28 -10.7841     91.3534      2.7304   6.9934408195e+01   6.0878664203e+01    0.1939619    0.1761481  65.74 0.0006160208    1.210    0.173
        29 -11.1371    231.7891      2.3866   5.1281538975e+01   2.7214477372e+01    0.1680315   0.09516331  69.79 0.0009539571    1.691    0.409
        30 -10.0412     64.2417      1.3784   7.7304568495e+01   6.6608074729e+01    0.1563453    0.1064574  55.44 0.0004369972    1.519    0.342
        31 -10.3173    105.0890    240.6995   1.2661186555e+02   1.0878585664e+01    0.1881249    0.1365684  47.10  0.001133378    1.118    0.106
        32 -11.0596    200.3344    249.2730   1.0860343369e+02  -5.4108152553e+00    0.2507023    0.1818785  -6.94 0.0008749953    1.423    0.297
        33 -11.0224    199.8822    245.0130   1.0803926481e+02  -4.7602403149e+00    0.2217847    0.1460172  26.46 0.0004985106    1.251    0.201
        34 -11.4774    129.0601    248.4819   1.2259994439e+02   5.7652379715e+00    0.2944242    0.2233099 -26.07  0.001344125    1.852    0.460
        35 -11.1701    115.4605    249.5132   1.2547355948e+02   7.7049953220e+00    0.3738098    0.1921201  41.60  0.001965547    1.543    0.352
        36 -12.9238    109.7331    244.8550   1.2611840853e+02   9.4081260826e+00    0.4553212    0.3719727  52.43  0.002976909    1.043    0.041
        37 -10.1767     98.5092    249.5087   1.2888542567e+02   1.0274408644e+01    0.1876298    0.1585664  34.36  0.000683257    1.267    0.211
        38 -13.1308     46.8208    218.7213   1.3668699631e+02   2.3499236803e+01    0.5062446    0.2768812 -70.25  0.002115796    1.811    0.448
        39 -13.5042      8.7967    213.6390   1.4410889027e+02   2.8732718897e+01    0.8764272    0.5064426  81.65  0.002976011    1.412    0.292
        40 -13.5589     27.9387    219.1825   1.4061684289e+02   2.5606640036e+01    0.7175813    0.6149374 -20.05  0.001372969    1.927    0.481
        41 -12.1768     20.1946    216.4454   1.4200182505e+02   2.7009078345e+01    0.2568398    0.2060018 -78.15 0.0002402432    1.325    0.245
        42 -13.4994     21.8211    237.0899   1.4288460466e+02   2.2644195193e+01    0.7040709    0.5828617  57.59  0.005327467    1.244    0.196
        43 -13.4845     29.9397    230.3723   1.4094416305e+02   2.3083645953e+01    0.7665602    0.4088454  21.94  0.003921063    2.905    0.656
        44 -13.5634     37.2549    220.1171   1.3878345140e+02   2.4354742957e+01     0.949785    0.4257394 -88.52  0.003283199    2.338    0.572
        45 -14.4588     35.6829    243.0786   1.4063853247e+02   1.9920888645e+01    0.8931412    0.5909118  89.67  0.003620587    1.389    0.280
        46 -13.2780     27.8309    242.8239   1.4208746619e+02   2.0870116527e+01     0.710251    0.3208052  86.43  0.003866103    2.194    0.544
        47 -14.3608     11.2024    232.4057   1.4461298463e+02   2.4673412463e+01    0.8110608    0.5727408  40.72  0.005177551    1.473    0.321
        48 -12.0486     44.7023    236.3808   1.3846350715e+02   2.0146535015e+01    0.3871272    0.2050611  61.04  0.001584465    1.594    0.373
        49 -12.6745     47.3083    232.0619   1.3763232506e+02   2.0686154341e+01    0.4357961    0.2147077  79.97  0.001359172    2.204    0.546
        50 -14.9859     14.6911    247.3358   1.4469503154e+02   2.1438682041e+01     1.063541     0.528646  54.67  0.004555567    1.482    0.325
        51 -13.3623      3.5075    246.3585   1.4660397754e+02   2.2755926760e+01    0.6240357     0.326383 -84.46  0.002247401    1.700    0.412
        52 -11.4317    168.1318    238.9794   1.1337315758e+02   1.0740457287e+00    0.2392745    0.2259442 -52.74 0.0004290771    1.348    0.258
        53 -10.0771    172.6360    239.3165   1.1251455617e+02   2.9800136601e-01    0.2120125    0.1565512  48.05  0.001031994    1.417    0.294
        54 -10.1107    125.0147    240.4435   1.2244817653e+02   7.7972825866e+00     0.201035     0.106484  39.26 0.0003850554    1.552    0.356
        55  -9.8482    220.8289    239.6311   1.0326330415e+02  -7.0828188979e+00    0.1629765   0.09764092  38.54 0.0009370177    1.638    0.389
        56 -10.2332    119.3273    238.4313   1.2338578973e+02   9.0644805515e+00    0.2251014    0.1708288  82.27 0.0008195824    1.588    0.370
        57 -10.2390    109.9896    239.0218   1.2540445554e+02   1.0428387306e+01    0.2106758    0.1801381 -21.32  0.000854981    1.624    0.384
        58 -10.5450    116.3509    237.7772   1.2392909853e+02   9.6562371697e+00    0.2048381     0.160443 -71.35  0.001253452    1.508    0.337
        59 -10.1782    110.1058    235.4534   1.2496358328e+02   1.1072916186e+01    0.2361098    0.1414758  31.64 0.0007479097    1.651    0.394
        60  -9.5859    113.6907    234.3009   1.2406887770e+02   1.0721620685e+01      0.27279     0.155386  57.42  0.001359366    1.823    0.452
        61 -10.4799    156.6797    237.4843   1.1549257466e+02   3.1735021096e+00    0.2463969    0.1776092  46.51 0.0009710038    1.300    0.231
        62 -10.7665    135.7024    236.8896   1.1976430713e+02   6.7012604700e+00    0.2465906    0.1609777  39.29 0.0003800468    1.270    0.213
        63 -10.8621    139.9924    237.0000   1.1888311236e+02   5.9824114691e+00    0.5188235    0.1519912  46.57  0.001819063    3.376    0.704
        64 -10.7347    187.4603    236.9181   1.0919442144e+02  -1.6881209088e+00    0.2208264    0.1559193  15.71  0.001292838    1.360    0.265
        65 -10.6802    172.8624    234.7090   1.1177510615e+02   9.8871825090e-01    0.2644626    0.1859532   7.41   0.00068285    1.647    0.393
        66 -10.9847    181.0993    235.4188   1.1022517788e+02  -4.5023159727e-01    0.2204335    0.1964604  22.17 0.0003160131    1.112    0.100
        67 -10.1076    177.8231    232.1991   1.1038339161e+02   5.8286896384e-01    0.2937783    0.1591585  23.97  0.001399001    1.970    0.492
        68 -10.2526    119.7962    233.6632   1.2269723072e+02   9.8633231518e+00    0.2279207    0.1525898  75.21 0.0008727639    1.961    0.490
        69 -11.7585     59.2009    231.8840   1.3521430013e+02   1.9198706889e+01    0.4159949    0.2319053  71.27   0.00224797    1.794    0.443
        70 -10.4990     55.6901    228.6955   1.3566681262e+02   2.0303116791e+01    0.1439858    0.1379821 -24.14 0.0003911272    1.531    0.347
        71 -11.5610    219.2495    231.2498   1.0217475396e+02  -5.7177610394e+00    0.2423818    0.1963311 -35.55 0.0004786725    1.495    0.331
        72 -10.0311    216.4013    227.2370   1.0203089300e+02  -4.7302439739e+00    0.1986233    0.1201884 -40.78  0.001098966    1.896    0.473
        73 -10.1410    196.8325    233.1075   1.0675056216e+02  -2.5866909683e+00    0.1777522     0.156084  32.64 0.0004868926    1.242    0.195
        74 -11.5814    154.8786    232.5924   1.1515771502e+02   4.2909398061e+00    0.4470136    0.2168744  45.92 0.0006884894    1.909    0.476
        75 -10.5325    151.9902    226.9675   1.1493387170e+02   5.7484201218e+00    0.1957145    0.1852585 -12.75 0.0003210506    1.193    0.162
        76 -11.5378    143.9832    232.3069   1.1739936406e+02   6.1465547649e+00    0.3650062    0.1867436  42.17 0.0009445587    1.650    0.394
        77 -12.0176     73.8825    227.9449   1.3180824037e+02   1.7987004931e+01     0.533742    0.3180601  74.79  0.002015833    1.811    0.448
        78 -10.4950    248.4668    230.9418   9.6904082761e+01  -9.7390169621e+00    0.1600147    0.1000622 -26.39 0.0003638988    1.495    0.331
        79  -9.9756     87.1339    231.1289   1.2933167649e+02   1.5427157058e+01    0.1736525    0.1214904  59.17 0.0002561043    1.251    0.201
        80 -11.3671    243.4216    229.2105   9.7480521918e+01  -8.8485320604e+00    0.2126716    0.1713983  16.14  0.000349494    1.188    0.158
        81 -11.6544    237.0048    229.8118   9.8709603027e+01  -8.0526288087e+00    0.3541052    0.2072069  37.49  0.002066376    1.726    0.421
        82  -9.4490    228.7104    229.2782   1.0010605353e+02  -6.8172208163e+00    0.1020942   0.09419276  35.79 0.0002620526    1.521    0.343
        83  -9.9349    173.2802    228.3522   1.1070562732e+02   1.9492338907e+00    0.1313513   0.09465338   1.51 0.0006642693    1.651    0.394
        84 -11.8063    158.2788    225.0752   1.1331780073e+02   5.0180813127e+00      0.30425    0.2140071 -50.93 0.0002349668    1.692    0.409
        85 -10.6661    132.7823    232.9251   1.1984972565e+02   7.8851062039e+00    0.2123747    0.1626244  41.55 0.0004167439    1.092    0.084
        86 -12.1876    111.4228    227.5730   1.2372588189e+02   1.2364183212e+01    0.2348547    0.2012845  52.07 0.0003773339    1.023    0.023
        87  -9.0865     90.2684    228.3078   1.2836278236e+02   1.5517953445e+01    0.1120741    0.1016792 -10.93  0.000176153    1.538    0.350
        88  -9.9499    133.9639    227.4526   1.1885034354e+02   8.6883428027e+00    0.2009834    0.1149328  37.46  4.36422e-05    1.505    0.336
        89 -10.0229    164.5220    225.5201   1.1207537531e+02   3.8867278918e+00    0.1348094    0.1142535  26.86 0.0003039422    1.034    0.033
        90 -10.3045    144.4474    224.7779   1.1621693262e+02   7.4153328847e+00    0.3159186    0.2100105  72.22  0.001501999    2.335    0.572
        91 -10.6338    178.7281    223.5139   1.0881322468e+02   1.8402293533e+00    0.3015192    0.2127861   5.03  0.001621693    1.653    0.395
        92  -9.7730    121.5638    225.0000   1.2119554106e+02   1.1209056068e+01    0.3091501   0.06678346  37.93  0.000939219    3.971    0.748
        93 -11.0683     78.8958    222.8123   1.3021893046e+02   1.8317437127e+01    0.3038917    0.1825481 -74.11  0.001627325    1.793    0.442
        94 -10.0505     53.6087    222.0453   1.3553889292e+02   2.1944254942e+01    0.3317102    0.1691494 -58.64  0.001716687    2.216    0.549
        95 -10.0901     99.0165    223.2401   1.2589157046e+02   1.5188844627e+01    0.1879979    0.1414953  47.71 0.0003268057    1.128    0.113
        96 -12.4452    107.1661    216.4942   1.2324566144e+02   1.5257172064e+01    0.6492805    0.4686332 -29.46  0.002476317    2.060    0.515
        97 -11.5874    102.4849    214.8118   1.2407678822e+02   1.6360546397e+01    0.4778904    0.3317381 -36.63  0.001285964    2.022    0.506
        98 -10.9042     63.3870    220.5643   1.3333257548e+02   2.0964051470e+01    0.3117235    0.1691484  69.46 0.0008345046    1.942    0.485
        99 -11.6113    195.8806    218.7495   1.0454863196e+02  -2.2660301873e-01    0.4334615     0.240587 -56.07  0.001920481    3.020    0.669
       100 -10.2708     84.9593    221.3279   1.2874234414e+02   1.7730286174e+01    0.1874789    0.1411225  47.62 0.0005272534    1.149    0.129
       101 -10.8553    248.3186    219.6329   9.4975447169e+01  -8.2571538961e+00    0.1962983    0.1924924  35.42 0.0006322188    1.673    0.402
       102 -12.5791    222.2807    218.3734   9.9402701678e+01  -4.3394229978e+00    0.2979278    0.2156886  19.12 0.0002970185    1.211    0.174
       103 -11.3660    217.9891    217.7331   1.0009188560e+02  -3.5898340486e+00    0.2473507    0.1936775  17.95 0.0003638629    1.098    0.089
       104  -9.9995    203.7031    219.1026   1.0306812840e+02  -1.5499631217e+00    0.1715147    0.1499188  -7.87 0.0007482333    1.135    0.119
       105  -9.6880    188.4108    219.2737   1.0613645861e+02   9.2198369130e-01    0.1644629    0.1279161 -52.42 0.0009377456    1.660    0.397
       106 -11.0297    133.8577    218.9581   1.1766238182e+02   1.0304120857e+01    0.2299841    0.1736588  38.78 0.0002975822    1.156    0.135
       107 -11.1339     88.9728    218.1649   1.2750229010e+02   1.7780378471e+01    0.3688827    0.2118101  78.15 0.0002956683    2.302    0.566
       108 -10.7483     82.8906    215.5477   1.2855179986e+02   1.9246630528e+01    0.3675635    0.1956351  48.97  0.001816214    1.632    0.387
       109 -10.7764    236.9994    217.1092   9.6505148069e+01  -6.3326793750e+00    0.2648383    0.1824165  37.00 0.0009825461    1.538    0.350
       110 -10.4620     72.9823    217.5194   1.3095314786e+02   2.0273362327e+01    0.1825459    0.1541333  68.13 0.0003042443    1.037    0.036
       111 -10.3094    141.7716    217.1779   1.1566023532e+02   9.2835497364e+00    0.2004761    0.1676162  49.01 0.0006329378    1.122    0.108
       112 -11.4497     69.7208    213.2977   1.3123261236e+02   2.1634842442e+01    0.5080319    0.2775766 -55.74  0.001574765    2.078    0.519
       113 -10.3728     76.5305    216.4581   1.3006121233e+02   1.9988650558e+01    0.2201351    0.1690213  79.14 0.0005666389    1.236    0.191
       114 -10.5242     75.8951    212.8315   1.2980866067e+02   2.0854247691e+01    0.2152752    0.1816829  58.91 0.0003674041    1.046    0.044
       115 -10.2156     68.9636    200.9764   1.3006725288e+02   2.4451163369e+01     0.205718    0.1642844  66.28 0.0003258973    1.090    0.083
       116 -11.7430     67.7400    206.3181   1.3093757655e+02   2.3433319114e+01    0.5469672    0.3569832 -25.52  0.001097912    3.176    0.685
       117 -10.3395     73.8198    203.7351   1.2925828822e+02   2.3142068341e+01    0.2076364    0.1480513  65.39 0.0007129912    1.298    0.230
       118 -10.7134    125.8879    215.9352   1.1898703484e+02   1.2250951141e+01    0.2329158    0.1779064  35.99 0.0004862521    1.200    0.167
       119 -10.5585     60.3535    214.2336   1.3338770429e+02   2.2716904997e+01    0.3647163    0.1914604 -52.13  0.001429656    2.383    0.580
       120 -10.8942     57.6221    211.8870   1.3376188922e+02   2.3585738527e+01    0.2824785    0.2084852 -43.72  0.001356189    1.896    0.473
       121 -10.0575    172.4965    214.9274   1.0868664954e+02   4.3569511459e+00    0.1952084    0.1650976  30.61   0.00056825    1.044    0.042
       122 -11.3683    200.1917    211.6741   1.0245697731e+02   1.9670045977e-01    0.3275839    0.2269303 -29.18 0.0008445549    1.493    0.330
       123 -10.9932    218.2433    212.0468   9.9033405840e+01  -2.7776963642e+00    0.3306977    0.2169875  20.53  0.001842251    1.448    0.310
       124 -11.0575    214.2253    210.1143   9.9447106862e+01  -1.8451033518e+00    0.2255407    0.1735801  31.42 0.0004271699    1.238    0.193
       125 -11.0346    161.1765    213.0710   1.1078754794e+02   6.6616279280e+00    0.4420643    0.1666699  38.68  0.001728619    2.348    0.574
       126 -10.2267    121.9499    212.3060   1.1934634815e+02   1.3647046130e+01    0.1952729    0.1558512  42.56 0.0003409644    1.106    0.096
       127 -10.5991    117.9601    212.0963   1.2021732996e+02   1.4366355122e+01    0.2366192    0.2206581  34.91 0.0004084883    1.135    0.119
       128  -9.9711     13.2393    193.5969   1.4198885589e+02   3.2651658843e+01    0.1451713    0.1238194 -77.18 0.0004485839    1.275    0.216
       129 -11.5233     39.2200    211.7345   1.3773163223e+02   2.5910407965e+01    0.3542292    0.2049756  47.41 0.0004929723    1.490    0.329
       130 -11.2374     31.3209    202.5028   1.3870494443e+02   2.8830633170e+01    0.3202003      0.19141  66.06  0.001145789    1.468    0.319
       131 -11.5055     41.6273    193.7699   1.3565075004e+02   2.9626103231e+01    0.5273317    0.2288133  85.07  0.001589543    2.983    0.665
       132 -11.9248     25.6835    196.5118   1.3947704404e+02   3.0770406726e+01    0.5256042    0.4766572 -30.35  0.002603709    1.595    0.373
       133 -11.0355     22.0026    191.8996   1.3994223362e+02   3.2185587053e+01    0.2088925    0.1482686 -76.49 0.0003740583    1.289    0.224
       134 -11.1466      9.1466    197.5946   1.4311810746e+02   3.2144732350e+01    0.2724746    0.1499635 -68.05 0.0007470427    1.727    0.421
       135 -11.1737     14.5075    197.3983   1.4196742228e+02   3.1687875800e+01    0.3960516    0.1986927  39.43  0.001390366    1.877    0.467
       136 -11.9598     38.2568    205.7355   1.3745375599e+02   2.7332301864e+01    0.4312793     0.192482  41.85 0.0005645239    1.957    0.489
       137 -12.0464     19.1482    210.9581   1.4187127672e+02   2.8279940612e+01    0.3165161    0.2699734 -63.93 0.0003001075    1.475    0.322
       138 -11.0583     39.3356    201.9702   1.3690081241e+02   2.8041594471e+01     0.218186    0.2008769   7.60  0.001031056    1.534    0.348
       139 -12.5207     45.1664    200.1269   1.3543317255e+02   2.7761821553e+01    0.3956888    0.2633018 -80.92 0.0008102226    1.389    0.280
       140 -12.2458     14.3790    205.2930   1.4249824827e+02   2.9973474550e+01    0.3169551    0.1777792  65.99 0.0005442425    1.495    0.331
       141 -11.6779     18.1810    202.8504   1.4154716623e+02   3.0130594090e+01    0.3125543    0.1960087  84.15 0.0003517942    1.333    0.250
       142 -10.7434    143.6488    211.3068   1.1433556730e+02   1.0078497649e+01    0.2475519    0.2161355  18.84 0.0005333311    1.185    0.156
       143 -11.3656     52.4186    207.2320   1.3447085313e+02   2.5277616446e+01    0.2649836    0.2365684  66.16 0.0006188774    1.151    0.132
       144 -11.0080     98.6411    205.4432   1.2372333376e+02   1.8963113255e+01    0.2306107    0.2121864  46.06 0.0002660609    1.131    0.116
       145 -10.5008     95.6744    209.6685   1.2495948526e+02   1.8530279008e+01    0.3360884    0.1933726 -36.81  0.001442947    2.860    0.650
       146 -10.5170     93.9872    206.7022   1.2496518969e+02   1.9434613667e+01    0.2327417    0.2168201  27.27 0.0003794962    1.257    0.204
       147  -9.8835     85.5000    211.4252   1.2748898914e+02   1.9732063393e+01     0.135845    0.1135474  60.35   0.00010593    1.020    0.020
       148 -11.0146     81.0741    209.0065   1.2820800509e+02   2.0919264030e+01    0.3472895    0.2100907 -63.25  0.001799499    1.739    0.425
       149 -10.0764     13.6567    210.9523   1.4298739210e+02   2.8830569560e+01    0.1624941    0.1451977  66.35 0.0005993992    1.276    0.216
       150 -10.4677    184.0162    210.0400   1.0544426838e+02   3.2110669131e+00    0.2152589    0.1949578  45.10 -0.003769674    1.239    0.193
       151 -10.5239    180.5310    206.9800   1.0563035594e+02   4.3498565860e+00    0.1832644    0.1654109 -15.19 4.667935e-05    1.146    0.127
       152 -11.6744    183.7478    204.6092   1.0453619676e+02   4.2008455415e+00    0.3708869    0.2593111 -38.62  0.001284482    1.531    0.347
       153 -11.5029    128.5322    208.2629   1.1725633759e+02   1.3331829820e+01      0.34866    0.2961783  -6.56  0.001014703    1.482    0.325
       154 -11.9129    238.9863    206.7502   9.4286342946e+01  -5.1547189143e+00    0.8838423    0.4205166  -5.57  0.002575963    6.697    0.851
       155 -12.4281    239.5570    199.1526   9.2778745779e+01  -4.1302978664e+00     0.327063    0.3070871  48.21 0.0003928611    1.523    0.343
       156 -10.7235    117.7985    207.8702   1.1964598781e+02   1.5263603240e+01    0.2664569    0.1740828  49.54 0.0005572826    1.397    0.284
       157  -9.7581     52.5662    212.5095   1.3492414999e+02   2.4106380286e+01    0.1838073    0.1070009  86.55 0.0009633384    1.740    0.425
       158 -10.4290    199.8804    205.2409   1.0136117267e+02   1.3017570609e+00    0.2177374    0.1804873 -41.58 0.0008368675    1.382    0.277
       159 -10.0339    125.4099    221.1467   1.1983005024e+02   1.1312121537e+01    0.1745434    0.1292864 -79.10 0.0006503197    1.692    0.409
       160 -11.1374    133.3845    205.6154   1.1574273624e+02   1.3016375989e+01    0.3107413    0.2556632 -86.65  0.001077731    1.455    0.313
       161 -12.5920      7.4918    224.3679   1.4491211052e+02   2.6647202017e+01    0.4429036    0.3003142  32.13 0.0005123079    1.732    0.423
       162 -10.1621    118.8184    196.2475   1.1764735495e+02   1.7548942220e+01    0.1989274    0.1750431  41.21 0.0005497673    1.083    0.076
       163 -11.2800    121.6340    203.2678   1.1807637153e+02   1.5562977283e+01    0.3236115    0.2431171  39.79 0.0006294708    1.211    0.174
       164 -10.5298    121.4979    199.1045   1.1746480828e+02   1.6465868725e+01    0.2515613    0.2286033  87.85 0.0003273527    1.160    0.138
       165  -9.5639    113.5428    204.5124   1.2013679797e+02   1.6692049383e+01    0.1387694    0.1267885  45.56 0.0001556429    1.076    0.070
       166 -10.4493     59.3313    204.0994   1.3261343996e+02   2.5071361766e+01    0.2084569    0.1626603  53.76 0.0005350072    1.142    0.124
       167 -12.0119    241.0383    193.8315   9.1516113911e+01  -3.5624367585e+00    0.3075346    0.2258072 -31.77  0.001041963    1.308    0.236
       168  -9.3326    166.7662    201.9817   1.0768257238e+02   7.7148758326e+00     0.162819    0.1185294 -42.82 0.0003338317    1.500    0.333
       169 -10.5365     91.2684    199.9085   1.2470844028e+02   2.1353442100e+01    0.3242224    0.1540575  45.70 0.0008733931    1.884    0.469
       170 -12.0019     95.9568    199.8139   1.2358869519e+02   2.0626212548e+01    0.3139137    0.2321634 -57.72  0.000939301    1.466    0.318
       171 -11.2726     95.1758    195.0707   1.2311575450e+02   2.1809386614e+01    0.2451568    0.2226665  39.52  0.000501173    1.167    0.143
       172 -10.8853     53.1031    201.4011   1.3375707542e+02   2.6487244308e+01    0.3171216     0.165205 -69.30 0.0006037173    1.854    0.461
       173 -11.3397    207.6050    199.4366   9.8761907103e+01   9.5244586445e-01    0.3082989      0.24967 -39.49 0.0006633353    1.365    0.268
       174 -10.8955    190.8235    200.8418   1.0238753173e+02   3.6139282861e+00    0.2545883    0.2236952 -77.12 0.0008271994    1.613    0.380
       175 -12.0034    188.6669    196.2547   1.0198030031e+02   4.8041252179e+00    0.2664911     0.241399  34.94 0.0002885137    1.143    0.125
       176 -11.6246    192.0249    190.6984   1.0023092600e+02   5.1912106393e+00     0.539297    0.3516234  -7.50   0.00160086    2.100    0.524
       177 -11.3424    188.4687    190.5257   1.0093481136e+02   5.8702727766e+00    0.4831826    0.2652759 -37.61  0.002201871    1.903    0.475
       178 -10.3782    233.0390    200.6767   9.4221510824e+01  -3.3634793123e+00    0.2315073     0.109932  44.47   0.00107375    2.397    0.583
       179 -12.3302    216.9077    194.0918   9.5956075263e+01   2.6174512866e-01    0.4650822    0.3537941  -3.38  0.002255105    1.301    0.231
       180 -12.2547    228.4932    196.2150   9.4204474840e+01  -1.9689606719e+00    0.4627696    0.2601359 -24.76  0.001174702    1.823    0.451
       181 -10.9985    223.2035    197.8008   9.5478649862e+01  -1.3675928003e+00    0.3808431    0.2191133  52.00  0.001439492    2.461    0.594
       182 -10.4187    192.8017    194.3759   1.0077336781e+02   4.3965541048e+00    0.2681656    0.2158445  16.89 0.0005236115    1.188    0.158
       183 -10.3604    175.9579    198.8512   1.0513789395e+02   6.6286569699e+00    0.4418315    0.1876089  51.11   0.00150791    3.075    0.675
       184 -11.4979    109.7075    197.8030   1.2004487705e+02   1.8787548127e+01    0.2780258    0.2358331  46.00 0.0003126427    1.083    0.077
       185 -10.1325    102.6250    198.5240   1.2182964630e+02   1.9820150290e+01    0.2208607    0.1758549  60.75 6.926338e-05    1.178    0.151
       186 -11.5754    105.8879    194.4339   1.2045135571e+02   2.0177722933e+01    0.3303558    0.2739748  -9.74 6.009566e-05    1.661    0.398
       187  -9.7764     59.0000    197.9472   1.3204840818e+02   2.6499040869e+01    0.1994994   0.07007327 -68.71 0.0004929334    2.806    0.644
       188 -10.6574    131.0631    196.1351   1.1474724608e+02   1.5389760311e+01    0.3781242    0.2288013  89.32  0.001381517    3.411    0.707
       189 -10.4388     82.5082    196.0161   1.2627686483e+02   2.3586219666e+01    0.1966365    0.1696105  62.18 0.0003376234    1.026    0.025
       190 -12.9526     66.4273    191.2937   1.2954399101e+02   2.7015134411e+01    0.5436769    0.2930677  55.36  0.001119811    1.803    0.445
       191 -11.5327     61.0348    188.3275   1.3049555252e+02   2.8442955917e+01    0.3551323    0.1891209 -72.23  0.001023729    1.842    0.457
       192 -10.4966     62.8484    196.0327   1.3094054261e+02   2.6417948631e+01    0.2038787    0.1634994  70.77 0.0004729709    1.089    0.082
       193 -11.3904      4.5658    195.3411   1.4394823783e+02   3.3047705138e+01    0.2279303    0.1608624 -77.19    0.0006189    1.306    0.234
       194 -11.5540      1.8534    192.6491   1.4436498382e+02   3.3871433300e+01    0.2224895    0.1424577  87.67 0.0006720831    1.239    0.193
       195  -9.9961    199.4746    194.9047   9.9518705326e+01   3.1203280135e+00       0.1957      0.13213 -39.91  0.001010067    1.547    0.353
       196 -10.7891    139.9558    194.5997   1.1241746717e+02   1.4088738163e+01    0.2340965    0.2090724 -68.10 0.0004948878    1.247    0.198
       197 -10.3548    250.1347    193.8300   8.9960139206e+01  -4.9225770706e+00    0.1745859    0.1550407  -9.12 0.0004898976    1.189    0.159
       198 -12.4474     52.9516    192.8850   1.3292756475e+02   2.8443670623e+01     0.381966    0.2356624  48.01 0.0004191574    1.471    0.320
       199 -10.6836    163.4500    192.7749   1.0675155113e+02   1.0086669636e+01    0.2984286    0.2171793  -4.72 0.0007918816    1.822    0.451
       200  -9.8185    114.1760    193.6518   1.1834453397e+02   1.8926637098e+01    0.2028125    0.1287465  29.55 0.0005007994    1.704    0.413
       201 -10.1602    148.0763    192.5481   1.1018484717e+02   1.3006235016e+01    0.2257069    0.1336222  37.34 0.0004759704    1.573    0.364
       202 -11.9788    246.6821    190.4374   8.9899321770e+01  -3.9108232001e+00    0.3676341    0.2089431  23.65  0.001351082    1.917    0.478
       203  -9.2774     16.2878    191.2699   1.4116309233e+02   3.2885685880e+01    0.1064212   0.08614176 -56.98 0.0001937642    1.504    0.335
       204 -11.1649     91.7365    188.7711   1.2305262979e+02   2.3796217377e+01    0.3122113    0.2367591 -57.62  0.001172826    1.400    0.286
       205 -11.7039     80.3303    189.3141   1.2592217743e+02   2.5452499357e+01    0.5848237    0.2937473  34.39  0.001937626    2.004    0.501
       206 -11.5772    120.5141    190.1234   1.1625605015e+02   1.8581667538e+01     0.327955    0.2867708 -21.06  0.001071725    1.398    0.285
       207  -9.9584    177.7215    189.0511   1.0292883200e+02   8.1320236571e+00    0.1954618    0.1792737 -16.47 0.0004236151    1.108    0.097
       208 -11.1480    130.3631    188.5758   1.1363531745e+02   1.7130167440e+01    0.3379169    0.1803824  55.17  0.001358029    2.170    0.539
       209 -10.6025    104.9822    187.0412   1.1953770605e+02   2.1992909286e+01     0.210974    0.1783874 -12.35 0.0004842497    1.580    0.367
       210 -10.6689      6.4064    175.1980   1.4226135923e+02   3.7423123530e+01    0.5421368    0.1538232 -80.02   0.00201226    3.106    0.678
       211 -11.4238      4.3669    183.5798   1.4327894268e+02   3.5681988929e+01    0.5255563    0.2137078 -75.36  0.002663577    2.028    0.507
       212 -10.6508      8.1083    183.4227   1.4243779195e+02   3.5401114542e+01    0.2979599    0.2142615 -68.74  0.001673154    1.373    0.272
       213 -12.1409     15.6453    183.3430   1.4073207528e+02   3.4746778888e+01    0.4315854    0.3997343 -25.05  0.003058233    1.527    0.345
       214 -10.3845     13.5414    178.7046   1.4086786945e+02   3.6004717515e+01    0.2645916    0.2045146  89.06 0.0009367364    1.055    0.052
       215 -10.0009    220.9836    186.3193   9.3681820773e+01   8.4761826698e-01    0.1844517    0.1571975  18.01  0.000387548    1.111    0.100
       216 -10.0440    136.6811    186.3188   1.1173518513e+02   1.6442565636e+01    0.1505817    0.1122965  71.49 0.0007041797    1.661    0.398
       217 -10.8526     67.1851    184.2775   1.2850043810e+02   2.8549019703e+01    0.2939375    0.1927953  82.58 0.0002160381    1.621    0.383
       218 -11.3919     31.6250    176.3891   1.3637469057e+02   3.4791540917e+01    0.3470053    0.2608744  27.27  0.001573233    1.590    0.371
       219 -11.1216     33.2404    185.5999   1.3684804342e+02   3.2458273023e+01    0.2418837    0.2338533 -32.88 0.0008408973    1.396    0.284
       220 -11.2159     29.7292    183.3380   1.3746979570e+02   3.3359112697e+01    0.4318985    0.2040391 -82.42  0.001884372    1.984    0.496
       221 -10.7703     26.8604    179.8480   1.3783877271e+02   3.4469716242e+01    0.2811803    0.1783472  56.72 0.0008614351    1.447    0.309
       222 -11.2410    225.4236    183.9540   9.2394271014e+01   4.8611938681e-01    0.3090987    0.2124782   0.78 0.0005229381    1.649    0.394
       223 -12.2668    229.5384    180.3723   9.0936678353e+01   3.7942841135e-01    0.4222816    0.3039826 -61.89 0.0002295303    2.248    0.555
       224 -11.0344    177.2546    183.4428   1.0194383956e+02   9.2900000321e+00    0.3090886    0.2583029  -5.83  0.001158038    1.283    0.220
       225 -10.0886    155.5206    184.9885   1.0709140838e+02   1.3145452231e+01    0.2951365    0.1802268   5.55  0.001030899    3.377    0.704
       226 -10.3622    249.4945    184.4789   8.8281009426e+01  -3.4450949659e+00    0.1280692    0.1054117 -10.14 0.0008102763    1.008    0.008
       227 -11.1253     46.5851    182.6088   1.3336363089e+02   3.1630567625e+01    0.3726275    0.2675969 -16.66    0.0012169    2.384    0.580
       228 -11.1488    213.7751    182.7419   9.4339381087e+01   2.6909237014e+00     0.224173    0.2065393  19.55 0.0002819411    1.131    0.116
       229 -11.1387    122.3337    182.7323   1.1456333805e+02   1.9889036157e+01    0.4083887    0.2187766  54.12  0.001462383    2.063    0.515
       230 -11.2940    103.6434    183.0895   1.1924310150e+02   2.3126094650e+01    0.2641194    0.1818298  50.76 0.0007132941    1.374    0.272
       231 -11.9006     58.0478    181.0964   1.3037399398e+02   3.0544315366e+01    0.5941034    0.3549533  31.07  0.002966628    1.824    0.452
       232 -10.9526    149.9849    200.8587   1.1120030045e+02   1.0984608583e+01    0.2090821    0.2020678 -43.44 0.0002802187    1.146    0.127
       233  -9.4184    135.6210    182.7150   1.1133914223e+02   1.7419242191e+01    0.1507117    0.1161863   4.45 0.0007013835    1.726    0.420
       234  -9.8976    157.8273    180.8456   1.0577180274e+02   1.3551115413e+01    0.1911843    0.1722706  81.55            0    1.293    0.227
       235 -10.1697     92.3401    180.5000   1.2167236113e+02   2.5620356437e+01     0.232243    0.1316453 -61.49 0.0005792725    1.799    0.444
       236  -9.7957    154.1463    180.1837   1.0649258950e+02   1.4402788187e+01    0.2049434    0.1737816  69.65 0.0006783478    1.363    0.266
       237 -10.2279    132.2262    180.4232   1.1174070562e+02   1.8561017315e+01    0.2095208     0.132211  49.11 0.0005193267    1.545    0.353
       238 -12.1133     83.6127    175.8187   1.2318414812e+02   2.8125181982e+01    0.6386271    0.3112693 -56.19  0.002125337    2.052    0.513
       239 -11.9144     78.3311    174.9127   1.2440916884e+02   2.9155438349e+01     0.430261    0.3207904  52.79  0.002279106    1.270    0.213
       240 -10.1542     39.7914    178.4376   1.3458410639e+02   3.3413130783e+01    0.2209164    0.1831909 -38.13  0.001333089    1.592    0.372
       241  -9.6254    237.3500    178.2472   8.9130316393e+01  -5.7023608028e-01    0.1314817   0.09159239   6.36 0.0004372719    1.584    0.369
       242  -9.8690    147.0000    177.8856   1.0772346722e+02   1.6277014100e+01    0.2435369   0.08627647 -49.19 0.0004007007    2.995    0.666
       243 -10.6125    118.8890    177.7835   1.1454613353e+02   2.1636308568e+01    0.3014183     0.199145  28.38 0.0009539443    1.687    0.407
       244 -10.5574    100.9636    170.4276   1.1782363248e+02   2.6552253302e+01    0.5256324    0.3576797 -19.11  0.002185021    2.526    0.604
       245 -10.9265    104.2820    178.3198   1.1830634488e+02   2.4120227432e+01    0.2387619    0.2066967  70.85 0.0006522916    1.128    0.113
       246 -10.7683    101.0771    175.9362   1.1872516641e+02   2.5230402300e+01    0.2141027    0.1933915  67.05            0    1.034    0.033
       247 -11.0399    136.2892    176.3552   1.0999959162e+02   1.8682364196e+01     0.246304    0.2102106 -14.75 0.0006815555    1.402    0.287
       248 -11.7627    137.1102    171.8159   1.0892985473e+02   1.9526782322e+01    0.4601953    0.3377107 -67.15 0.0007781589    1.595    0.373
       249  -9.3310    109.2740    177.3085   1.1687540490e+02   2.3479945662e+01    0.1394631    0.1168884 -18.07 0.0003258482    1.549    0.354
       250 -10.2188     47.9903    177.1256   1.3241547700e+02   3.2763339790e+01    0.1803555    0.1693566 -57.61 0.0003580476    1.278    0.217
       251 -11.0021    130.7886    175.5577   1.1119386714e+02   1.9912420714e+01    0.3962226    0.2637628 -21.73  0.001637985    2.345    0.574
       252  -9.6070    250.0142    175.0319   8.6349421433e+01  -2.0891668507e+00    0.1507887    0.1296493   0.32 0.0004294981    1.091    0.083
       253 -10.5934    189.0597    174.1048   9.7549162936e+01   8.8105053258e+00     0.414343    0.2029826  52.06  0.001607583    2.490    0.598
       254 -11.3904    157.9019    173.4947   1.0430685312e+02   1.5062402239e+01    0.4645838    0.2381333  36.96  0.001231199    1.935    0.483
       255  -9.7307    149.5072    174.0725   1.0638771468e+02   1.6601285612e+01    0.2127837    0.1500699 -47.82 0.0004382076    1.493    0.330
       256  -9.9491     94.0992    174.1279   1.2021902161e+02   2.6836753955e+01    0.2032387    0.1604048  72.86 0.0004168999    1.303    0.233
       257 -11.7290     87.0278    171.7363   1.2166949446e+02   2.8563525537e+01    0.4738448    0.2079546 -69.08   0.00174615    2.717    0.632
       258 -11.4439     63.7641    170.3590   1.2754366785e+02   3.2360887469e+01    0.4525651    0.2993552  19.80  0.002203206    1.981    0.495
       259  -9.9896     25.5476    171.0786   1.3736010333e+02   3.6669270952e+01    0.1996886    0.1082942 -77.66  0.001031872    1.604    0.377
       260 -11.3645     12.7699    170.1540   1.4038749660e+02   3.8061153081e+01    0.2076074    0.1865554  75.22 0.0002622369    1.173    0.148
       261 -11.7826     51.3713    158.2899   1.2919982880e+02   3.6937652844e+01    0.5658169    0.2500893  27.09  0.002343856    2.659    0.624
       262 -10.1593     31.3976    169.8549   1.3578785703e+02   3.6372003577e+01    0.2320593    0.1386229 -68.58 0.0009338874    1.495    0.331
       263  -9.9325    195.1898    168.8063   9.5178552678e+01   8.6258226581e+00    0.1969817     0.160733  -2.69 0.0003338663    1.309    0.236
       264  -9.4588    144.2942    169.2950   1.0668506658e+02   1.8668103292e+01    0.1485438     0.119952  -1.88 0.0002675792    1.560    0.359
       265 -11.5054    114.6904    168.6636   1.1395960678e+02   2.4513040002e+01    0.3094689     0.249818  42.82 0.0004197499    1.192    0.161
       266  -9.7807    108.5374    168.9982   1.1560755148e+02   2.5554623571e+01    0.2129295    0.1466086 -58.80 0.0004131598    1.492    0.330
       267 -10.3232      1.7590    169.1332   1.4292146923e+02   3.9187063853e+01    0.1616336    0.1200163 -82.24 0.0002525462    1.125    0.111
       268 -10.1698    219.2195    175.3788   9.1827594433e+01   2.9871140387e+00    0.1748449    0.1278031  48.86 0.0002537574    1.582    0.368
       269 -11.7748     72.7584    177.9561   1.2626897049e+02   2.9254088086e+01    0.4456864     0.305312   8.24  0.002062514    2.331    0.571
       270 -10.5632     74.4364    165.0157   1.2394627634e+02   3.2142920826e+01    0.4572755    0.1996497 -41.22  0.001540601    3.662    0.727
       271 -10.8708     37.9829    166.0582   1.3370940885e+02   3.6586844776e+01    0.3423691    0.1513066  39.29  0.001151608    2.183    0.542
       272 -11.6187     49.9362    165.2961   1.3050226541e+02   3.5389655773e+01     0.686161    0.2963999 -49.85  0.002816868    2.620    0.618
       273 -10.5013    159.1212    164.3874   1.0215302525e+02   1.6737653563e+01    0.2427025    0.2029852 -33.27 0.0003531612    1.259    0.205
       274 -11.0167    124.4193    164.4966   1.1067325965e+02   2.3648200929e+01    0.3967297    0.2202741 -36.68  0.001327607    2.334    0.572
       275 -10.4098     61.5172    164.9955   1.2739444663e+02   3.3977297274e+01    0.1995594    0.1779416  61.72 -6.213867e-07    1.097    0.089
       276  -9.9151    203.0072    162.6734   9.2304454780e+01   8.2547138009e+00    0.3664962    0.1395059 -40.49  0.001344213    2.570    0.611
       277 -10.2235     24.4982    163.8504   1.3693136419e+02   3.8498437668e+01    0.2550097    0.1772968  22.79  0.001046808    1.776    0.437
       278  -9.4078    147.5062    163.4970   1.0472560025e+02   1.9294768136e+01    0.1525449    0.1469054  36.17 -0.000100565    1.013    0.013
       279 -10.3361    100.7816    163.4351   1.1663858297e+02   2.8256700450e+01    0.2057291      0.14527  26.67  0.000493322    1.625    0.385
       280  -9.3534     91.2499    162.9692   1.1910126633e+02   2.9996078707e+01    0.1759385    0.1233206 -63.84  0.000838207    1.423    0.297
       281 -10.5707     18.8215    162.8617   1.3827372201e+02   3.9258191649e+01    0.2504264    0.1463924  89.22 0.0007604111    1.540    0.350
       282  -9.7011    186.6948    162.2865   9.5564873050e+01   1.1554520193e+01    0.1408019    0.1195505  87.15 0.0002804446    1.565    0.361
       283 -10.4043    140.6149    161.5342   1.0600261993e+02   2.1124702243e+01    0.3066503    0.2165494  22.40  0.001280133    1.715    0.417
       284 -10.3004    223.9897    158.9415   8.7539691722e+01   4.9601281412e+00    0.2097175    0.1923545 -19.61 0.0005416466    1.051    0.048
       285 -11.9947    107.2897    158.0868   1.1390535068e+02   2.8379201875e+01    0.2720289    0.2544875 -64.70 0.0002339371    1.086    0.079
       286 -11.8767     33.8299    157.7842   1.3385961489e+02   3.9044987000e+01    0.5847809    0.2139513  48.23  0.001358154    2.819    0.645
       287 -11.0981     24.7092    158.1348   1.3630247270e+02   3.9857655777e+01    0.3088926    0.1607779  33.63  0.001580004    2.027    0.507
       288 -10.4293    191.0089    157.6909   9.3664420253e+01   1.1579224494e+01    0.2955754    0.1824825  65.84  0.001156394    2.624    0.619
       289 -10.3295    145.7424    158.0179   1.0400145936e+02   2.0864407822e+01    0.2104003    0.2029169  42.03  0.000867822    1.007    0.007
       290  -9.6850     66.4687    158.4793   1.2510134674e+02   3.4905009953e+01    0.1414493    0.1291746 -88.32 0.0007477491    1.027    0.026
       291  -9.7889     11.2957    158.0575   1.3974491320e+02   4.1041827548e+01    0.1698233     0.126959 -82.18 0.0003966932    1.098    0.090
       292 -10.2677      4.4518    157.4150   1.4141052009e+02   4.1720547059e+01    0.2502021    0.1228545  62.25 0.0009895389    2.037    0.509
       293 -10.7006    140.0001    157.0039   1.0520440861e+02   2.2267451588e+01    0.2297479    0.2180162  62.51            0    1.053    0.050
       294 -11.3851    137.5295    154.4883   1.0528696789e+02   2.3341574255e+01     0.505144     0.270477 -49.01  0.001873987    1.917    0.478
       295 -10.1596    184.0159    156.2543   9.4823667120e+01   1.3289981804e+01    0.2041966    0.1879911  35.47 0.0003089153    1.082    0.076
       296 -11.7519    124.4043    155.8417   1.0893561961e+02   2.5663263452e+01    0.2697329    0.2430861  49.11 0.0002796411    1.075    0.070
       297 -10.5077    113.5247    154.5284   1.1153666503e+02   2.8072584629e+01    0.2917037    0.2528721 -75.25  0.000674722    1.196    0.164
       298  -9.6469     71.1475    154.6269   1.2319824992e+02   3.5192751822e+01    0.1812505    0.1392044  18.75 0.0002131604    1.605    0.377
       299 -11.5459    225.4771    151.1596   8.5613454357e+01   6.0398825214e+00    0.3873535    0.2925557 -34.12 0.0009093308    1.218    0.179
       300 -10.5155     89.9890    152.9912   1.1766241308e+02   3.2649577727e+01    0.2200144    0.2022888  78.48  0.001201296    1.043    0.041
       301 -10.3377     35.9712    152.6718   1.3267463638e+02   4.0077903308e+01    0.2940905    0.1568365  85.92  0.001323369    2.129    0.530
       302 -10.9304    163.1073    156.4983   9.9534158351e+01   1.7588630234e+01    0.4651371    0.2932662  13.86  0.001686948    2.647    0.622
       303 -10.8001    249.0555    151.0208   8.1645551461e+01   1.8618719255e+00    0.2026888    0.1736154 -29.04  0.000405755    1.055    0.052
       304  -9.9172    177.6131    151.1607   9.5078159146e+01   1.5650582057e+01    0.2135522     0.141708 -31.48 0.0008369159    1.633    0.388
       305 -11.1053     20.8273    150.4421   1.3652909122e+02   4.2076604272e+01    0.2846415    0.1890447 -33.11  0.001543713    2.039    0.510
       306  -9.7774    154.6565    155.3263   1.0126459672e+02   1.9607462832e+01    0.1597946    0.1235396  81.95   0.00039324    1.740    0.425
       307 -10.4790    106.9467    149.0128   1.1219793448e+02   3.0630302355e+01    0.2323577    0.2154041  66.45 0.0004799954    1.055    0.052
       308 -10.4813     98.3615    148.8710   1.1454376684e+02   3.2220949765e+01    0.2458085    0.1979553  51.98 0.0003955839    1.233    0.189
       309  -9.9080     92.1300    147.8075   1.1608189931e+02   3.3565378910e+01    0.2033543    0.1784204 -21.80  0.000425028    1.367    0.268
       310  -9.4774     37.7558    147.0055   1.3145900873e+02   4.1291393792e+01     0.181223    0.1012942 -70.78 0.0008789137    1.579    0.367
       311 -10.7573    164.1466    145.8051   9.6896730418e+01   1.9641448096e+01    0.2171796    0.1860376  -3.81 0.0004618427    1.339    0.253
       312 -10.6878     25.3225    145.6548   1.3477144842e+02   4.2845282346e+01    0.2674296    0.1427586 -70.67  0.001347707    1.586    0.370
       313 -10.1355     13.8392    144.7645   1.3783221752e+02   4.4032889761e+01    0.2653955    0.1068475 -59.59  0.001227274    2.118    0.528
       314  -9.9103    236.7024    144.7114   8.2310191352e+01   5.0765328516e+00    0.1339478    0.1007142  -1.69 0.0001987346    1.555    0.357
       315 -10.4641     52.8498    144.1568   1.2673285451e+02   4.0274970590e+01    0.2085607    0.1711052  87.56 0.0004955432    1.170    0.145
       316 -10.6822    242.0577    142.3440   8.0935372962e+01   4.5064407522e+00    0.1759644    0.1691241 -10.31 0.0003923416    1.121    0.108
       317 -10.5414     91.8249    142.1623   1.1505176256e+02   3.5010244183e+01    0.4326814    0.2240075  27.43  0.001582394    2.421    0.587
       318 -10.2143    193.0060    140.9631   8.9499759244e+01   1.4427286318e+01    0.2145239    0.2019938  -3.80  0.001169811    1.064    0.060
       319 -10.1462    109.1587    140.7928   1.0985175804e+02   3.2201352002e+01    0.2073626    0.1818877 -22.68 0.0003903138    1.320    0.242
       320 -10.7375    224.1476    139.5202   8.3307791519e+01   8.3404479360e+00    0.2348926    0.1809927 -37.17 0.0003339982    1.195    0.163
       321 -10.0089     62.8762    140.1175   1.2313151796e+02   3.9986455442e+01    0.2089162    0.1790369  74.36 0.0004562112    1.171    0.146
       322 -11.3369     49.5347    136.9190   1.2656625003e+02   4.2488934654e+01    0.4311602    0.2363024 -38.83  0.001417486    2.315    0.568
       323 -12.5053    132.3105    140.6815   1.0356435963e+02   2.7587892527e+01    0.2960365    0.2833421  79.30 0.0003772229    1.056    0.053
       324 -11.2320     34.3997    137.0335   1.3107719161e+02   4.4111117359e+01    0.3110178    0.2126834  63.05 0.0007230995    1.563    0.360
       325  -9.7911     98.5079    137.4673   1.1215148780e+02   3.4987381175e+01    0.1517459    0.1469404 -87.80 0.0008097151    1.008    0.008
       326 -10.1848    122.0361    135.9693   1.0521691368e+02   3.0809549519e+01    0.2289346    0.2235595  82.55 0.0002962733    1.010    0.010
       327  -9.9207    114.0620    135.6832   1.0734627984e+02   3.2477486831e+01    0.2078395    0.1968534  46.61 0.0003334743    1.058    0.055
       328 -11.3646    195.9514    133.4659   8.7165632061e+01   1.5254738269e+01    0.2707303    0.2105054 -38.40 0.0003072899    1.244    0.196
       329  -9.8789    127.1908    132.7710   1.0307228840e+02   3.0491934295e+01    0.2820028    0.1795504  80.14 0.0009710217    2.915    0.657
       330 -10.0013     40.4647    133.2565   1.2871742991e+02   4.4426196938e+01    0.1952261    0.1196517 -83.45 0.0009412536    1.682    0.406
       331 -12.4938     26.1165    130.0674   1.3258606174e+02   4.6611809849e+01    0.3096823    0.2557456  53.70 0.0004566243    1.298    0.230
       332 -10.3035     20.6867    126.2229   1.3371479078e+02   4.8013511741e+01    0.2478158    0.1608832  45.01  0.001333886    1.685    0.407
       333 -10.1423      3.5605    132.0202   1.3941091073e+02   4.7830175090e+01    0.2657644    0.1252472 -75.98  0.001348548    1.714    0.417
       334  -9.6124      1.2870    128.6576   1.3972743688e+02   4.8773787950e+01    0.1262403    0.0780039  71.88 0.0007020424    1.644    0.392
       335 -10.5931     61.7586    130.9903   1.2182845178e+02   4.2425352468e+01    0.2122093    0.1980945 -63.19 0.0002169213    1.055    0.052
       336 -11.0592     62.3294    127.7063   1.2103068072e+02   4.3168949603e+01    0.2671218    0.2019211  59.61 0.0006552333    1.450    0.310
       337 -10.0717     48.3467    130.9535   1.2594682819e+02   4.4121641396e+01    0.1999505    0.1584899 -64.88 0.0004688801    1.133    0.117
       338  -9.8920     51.3027    128.3209   1.2458029579e+02   4.4428939098e+01    0.1975902    0.1246791 -12.35  0.000843037    2.596    0.615
       339 -11.9559    156.5866    128.8212   9.4635123595e+01   2.4954794894e+01    0.2716373    0.2533203  50.31 0.0002744939    1.068    0.064
       340  -9.7412     36.3311    128.2926   1.2921680391e+02   4.6089748463e+01    0.1360835   0.09352846 -38.94  0.000447852    1.631    0.387
       341 -10.8681     91.9263    126.6553   1.1170559520e+02   3.8806499720e+01    0.2654188     0.212226 -59.30 0.0005257828    1.225    0.183
       342 -11.3038     56.5346    124.6997   1.2227659366e+02   4.4683026790e+01     0.375586    0.1657742  35.68  0.001246144    2.343    0.573
       343 -10.4424      3.8093    124.7810   1.3859974102e+02   4.9549899672e+01    0.1790651    0.1392324 -59.72  0.000451756    1.193    0.162
       344  -9.5519    108.4879    123.4918   1.0606054013e+02   3.6481473072e+01    0.1539406    0.1521504 -40.79 0.0008102194    1.038    0.036
       345 -10.2929     63.4393    122.2122   1.1959535693e+02   4.4384907377e+01    0.2001294    0.1333165 -74.47 0.0009362896    1.606    0.377
       346 -10.9714     14.4437    121.4551   1.3500674310e+02   4.9650836897e+01    0.4123797    0.1284419 -46.12  0.001122332    3.479    0.713
       347 -10.7759     20.2344    118.4001   1.3278539397e+02   4.9962071926e+01    0.2837435    0.1662405  24.38  0.001260014    1.989    0.497
       348 -11.1809     24.3299    117.3499   1.3132538336e+02   4.9889507035e+01    0.5127551    0.1448383 -50.55  0.001895295    3.120    0.679
       349 -12.1160     91.8340    117.4440   1.0957738872e+02   4.1056866842e+01    0.8196912    0.4751292 -80.66  0.002741575    3.386    0.705
       350  -9.7935    116.3967    119.8119   1.0287670297e+02   3.5753696321e+01    0.2034341    0.1479263 -38.75 0.0002036235    1.449    0.310
       351 -10.5764     83.1395    120.0019   1.1288335287e+02   4.1935256576e+01    0.4224197    0.2720532  83.04  0.001655075    2.545    0.607
       352  -9.3518     72.3520    118.2846   1.1591182884e+02   4.4067626907e+01     0.148563    0.1121361 -21.25 0.0007019704    1.660    0.398
       353 -10.7673      1.9491    116.7193   1.3828035471e+02   5.1585635814e+01     0.366404    0.1792605  69.93  0.001732659    2.525    0.604
       354 -11.0053      3.1566    112.1384   1.3737455069e+02   5.2609777273e+01     0.313139    0.2168463 -40.60  0.001271247    1.517    0.341
       355  -9.7979     54.7845    117.6286   1.2146512606e+02   4.6660144013e+01    0.1807601    0.1283142  43.02 0.0004145571    1.517    0.341
       356  -9.9889     11.3147    117.0579   1.3541682745e+02   5.0931735035e+01    0.1774691    0.1397911 -74.17 0.0005639488    1.051    0.048
       357  -9.4243    138.5110    115.5962   9.5770836351e+01   3.1920872871e+01      0.15754    0.1532042  57.46 7.050512e-05    1.019    0.019
       358 -10.6356     33.2693    113.3427   1.2776003679e+02   5.0079587078e+01     0.342463    0.1520748 -77.19  0.001361161    2.615    0.618
       359  -9.5543    120.4812    112.4897   9.9826944155e+01   3.6578186424e+01    0.1552541    0.1551961  28.29 0.0008102631    1.014    0.014
       360 -10.8996     74.7426    111.9106   1.1368171906e+02   4.5255041241e+01    0.2507035    0.2099534  40.35 0.0002763744    1.254    0.202
       361 -11.7665     20.0737    109.6045   1.3153373829e+02   5.2111468322e+01    0.2974047    0.2123993 -52.96 0.0004398228    1.245    0.197
       362 -10.4129     85.5261    109.5030   1.0960324655e+02   4.4063038289e+01    0.2426118     0.193167  77.93 -1.581154e-06    1.559    0.359
       363 -10.7974     37.0182    108.5352   1.2563372061e+02   5.0891266585e+01    0.2516837    0.1776737 -66.96 0.0003496064    1.271    0.213
       364 -10.6975    152.8109    105.8622   8.9603896062e+01   3.0691913408e+01    0.5214434    0.1636798 -40.35  0.001533491    3.290    0.696
       365 -10.3954     44.3675    106.8364   1.2278278987e+02   5.0534802018e+01      0.23721    0.1924129  29.52  0.001358414    1.371    0.271
       366  -9.8640      7.5316    107.0764   1.3532038524e+02   5.3564502102e+01    0.1905175    0.1022024 -71.13 0.0006128462    1.519    0.342
       367  -9.9354     63.8112    105.9371   1.1591745724e+02   4.8317078254e+01    0.1961169    0.1624555 -86.34 0.0004872723    1.369    0.269
       368  -9.2125    164.6999    105.2698   8.6696244212e+01   2.7989086811e+01    0.1542785    0.1231785 -84.79 0.0001622294    1.526    0.345
       369 -10.6089     74.6453    100.3212   1.1084596445e+02   4.8031535344e+01    0.1505859    0.1147372  75.26 0.0007046472    1.757    0.431
       370 -10.0374     70.6932    102.0969   1.1264185478e+02   4.8227408973e+01    0.3311898    0.1447419 -37.07  0.001132203    3.045    0.672
       371 -10.7040     51.0110    102.5066   1.1955058815e+02   5.0814005538e+01    0.2849703    0.1909169 -33.74 0.0008987116    1.623    0.384
       372 -12.6911     55.4717     97.0315   1.1669842051e+02   5.1561565013e+01     0.399795    0.3087252 -65.21 0.0003570693    1.294    0.227
       373 -10.2936     29.1769    103.2421   1.2735470422e+02   5.2905867474e+01    0.1898627    0.1557325 -48.06 0.0003758907    1.128    0.113
       374  -9.4865    219.5726    102.1595   7.5510167844e+01   1.5882563705e+01    0.1808598    0.1324923 -27.69 0.0009018974    1.437    0.304
       375 -10.5360    135.1936    101.4597   9.2806329488e+01   3.5728930717e+01    0.2764553    0.2260949 -43.26 0.0008204545    1.236    0.191
       376 -11.2606     85.1146     99.6011   1.0715532213e+02   4.6453070755e+01     0.469654    0.3211856 -25.49  0.001881463    1.812    0.448
       377 -10.3749     43.9011    100.6732   1.2165449361e+02   5.2073427515e+01      0.18257    0.1742862  50.31  0.001131913    1.172    0.147
       378 -10.7794      4.6154     99.2772   1.3522452082e+02   5.5576097391e+01    0.3458163    0.1350372 -55.21  0.001534377    1.976    0.494
       379 -10.3942      9.4811     99.9602   1.3365140756e+02   5.5138339920e+01    0.2192159    0.1566362  44.87 0.0006777284    1.648    0.393
       380 -12.6614    106.5383     97.5899   9.9808250398e+01   4.2831874819e+01    0.3307107     0.292384  42.13 0.0003599621    1.136    0.120
       381  -9.8365    125.1430     97.7754   9.4469694061e+01   3.8793768470e+01    0.2089157    0.1838383   3.30 0.0002525508    1.297    0.229
       382  -9.9310     36.3167     97.9480   1.2378817552e+02   5.3512835565e+01     0.221377    0.1063098 -86.23 0.0007036734    4.467    0.776
       383 -11.0521     62.7883     96.1552   1.1388089812e+02   5.0781829813e+01    0.2261038    0.2138474 -14.63 0.0002870892    1.082    0.076
       384 -10.1414     32.4645     96.4323   1.2486810300e+02   5.4239810568e+01    0.2429419    0.1219947 -76.31  0.001034832    2.383    0.580
       385  -9.8194     39.8343     96.5516   1.2222057962e+02   5.3490365947e+01    0.1750677     0.121694  43.26 0.0008096532    1.651    0.394
       386  -9.8511     24.3124     96.6425   1.2785654977e+02   5.4890989693e+01    0.1709847    0.1266278  44.70 0.0006865513    1.580    0.367
       387 -10.9622     22.4691     93.5491   1.2794370712e+02   5.5767104538e+01    0.2288349    0.1108396 -65.61 3.872906e-05    1.776    0.437
       388 -11.2052    114.4417     90.9997   9.5535948488e+01   4.2586196593e+01    0.4379952    0.2190562  41.56 0.0006977512    2.022    0.506
       389 -10.1964    105.9298     91.3178   9.8172599163e+01   4.4319983984e+01    0.2156535    0.1928823  42.65 0.0004006991    1.121    0.108
       390 -12.2468     77.4492     88.3778   1.0661482858e+02   5.0303056118e+01    0.4789051     0.337231 -12.39 0.0001144034    1.876    0.467
       391 -10.0272     14.5177     83.5466   1.2901344749e+02   5.8656889638e+01    0.1652447    0.1152104  -9.09 5.101374e-05    1.668    0.401
       392 -10.9517      6.6568     89.9809   1.3310075528e+02   5.7638594505e+01    0.2725947    0.2264218  77.87  0.001010339    1.352    0.260
       393 -12.6571      9.4219     85.7496   1.3136170076e+02   5.8461988570e+01    0.2565661    0.2113546 -51.36 0.0004219524    1.062    0.058
       394 -10.7853     88.9024     88.4280   1.0273992658e+02   4.8279206979e+01    0.3690712    0.2713685  -0.94   0.00116035    1.804    0.446
       395  -9.4499     70.2791     90.2765   1.0966606953e+02   5.1029452857e+01    0.1411651    0.1069419 -20.09 0.0006907685    1.500    0.333
       396 -12.0500     63.3047     87.0653   1.1128253359e+02   5.2796346811e+01    0.2728601    0.2618559  46.08 0.0001661011    1.160    0.138
       397 -10.7370    153.9281     86.5684   8.3960278488e+01   3.4251278863e+01    0.2960898    0.2472114   8.16  0.001307317    1.491    0.329
       398 -11.5089     28.8202     85.8182   1.2397834281e+02   5.7052080562e+01    0.3775174     0.348314  40.52   0.00247764    1.270    0.213
       399  -9.6555    138.6164     86.2038   8.7528992015e+01   3.8030215943e+01    0.2079104    0.1504577 -28.30 0.0003820985    1.551    0.355
       400 -10.9477    128.1491     86.1490   9.0237889508e+01   4.0504050157e+01    0.4435249    0.2904541  23.67  0.001781748    2.116    0.527
       401 -10.6563    132.5221     82.6154   8.8014908652e+01   4.0174442543e+01    0.3118275    0.2501864  53.75 0.0009300436    1.230    0.187
       402 -10.5238    105.6342     85.2358   9.6433483263e+01   4.5663559134e+01    0.2878685    0.2017704 -32.80  0.001316351    1.516    0.341
       403 -11.6691     51.0659     83.4785   1.1486554307e+02   5.5246457247e+01    0.5697267    0.4014473  15.99  0.003017038    1.596    0.373
       404 -11.1391     42.7942     79.6975   1.1705486216e+02   5.7067739057e+01    0.3639593     0.310991 -82.60 0.0009512595    1.402    0.287
       405 -10.5922     19.9635     82.0092   1.2659008737e+02   5.8634132402e+01    0.1944631    0.1759153 -20.09 0.0005450548    1.181    0.153
       406 -10.7657     77.1296     80.9172   1.0451497815e+02   5.1983595460e+01    0.2203969    0.2006578 -19.12 0.0006324486    1.059    0.056
       407 -10.7794    154.0657     79.2498   8.1810306637e+01   3.5575380838e+01    0.2758805    0.2232055 -51.49 0.0004162479    1.272    0.214
       408  -9.9659    149.0103     79.8728   8.3142408802e+01   3.6708885862e+01    0.3703447    0.1990674 -62.63  0.001230772    3.107    0.678
       409  -9.8685     82.1177     80.1143   1.0252273256e+02   5.1289853460e+01    0.2109809    0.1833544 -11.62  0.001136484    1.183    0.155
       410 -10.4126     68.4389     78.6343   1.0695500476e+02   5.3883682178e+01    0.2495891    0.1728589  27.23 0.0005655808    1.526    0.345
       411  -9.3782    119.2896     77.2955   8.9946449978e+01   4.4268569177e+01    0.1514755    0.1198778   9.84 0.0001811527    1.552    0.356
       412 -11.0445     96.8266     77.0425   9.6632904073e+01   4.9139078755e+01    0.3753505    0.2172708  32.79   0.00153814    1.896    0.473
       413 -11.6135     52.4587     75.0443   1.1195843967e+02   5.6933023260e+01    0.4541159      0.25438 -25.21  0.001252305    2.309    0.567
       414  -9.9220      3.5268     77.5175   1.3216516849e+02   6.0649497552e+01    0.1857228    0.1434303 -38.47 0.0006995517    1.212    0.175
       415 -10.4540      2.1429     74.1379   1.3210156185e+02   6.1472435305e+01    0.2456139    0.1790378 -82.85  0.001127104    1.431    0.301
       416 -10.0593    131.0403     75.3092   8.6155110868e+01   4.1907344705e+01    0.2186165    0.1840842  52.98 0.0002969343    1.157    0.135
       417  -9.7155     81.4339     75.2158   1.0121658269e+02   5.2429932041e+01    0.2055843      0.13655 -57.97 0.0009394986    1.785    0.440
       418  -9.8030     69.3987     74.1478   1.0521248607e+02   5.4682094562e+01      0.19384    0.1318189 -58.15 0.0008694631    1.669    0.401
       419 -11.4235     58.8274     73.9432   1.0914972519e+02   5.6309859384e+01    0.3904895    0.2521993  44.13  0.001254963    1.790    0.441
       420 -10.5364    116.0249     72.4944   8.9336067751e+01   4.5916502963e+01    0.2566855    0.2127766 -11.93 0.0005770847    1.362    0.266
       421  -9.7207    112.4377     72.4596   9.0358059442e+01   4.6726021903e+01    0.2276109    0.1467305  58.13 7.599868e-05    1.729    0.422
       422 -11.3122     37.1238     72.1852   1.1730455968e+02   5.9332595044e+01    0.3354696    0.2408208  41.93  0.001754469    1.676    0.404
       423 -10.4000     79.9160     69.7035   9.9950890418e+01   5.3811519314e+01    0.2221297    0.1854716 -36.20 0.0003528885    1.166    0.142
       424  -9.8894     75.7085     66.5983   1.0042088979e+02   5.5161837586e+01    0.2844609    0.1649699  56.36  0.001173575    2.552    0.608
       425 -11.2622     53.0572     69.6435   1.1009231218e+02   5.8004995394e+01    0.2698538    0.1809036 -49.38 0.0003084422    1.405    0.288
       426 -10.7692     52.7311     62.0540   1.0778714836e+02   5.9603795780e+01    0.2265183    0.1750768 -36.66  0.000408278    1.175    0.149
       427 -11.2379     88.1213     70.0620   9.7224618064e+01   5.2225085444e+01    0.4154493    0.2606527 -53.20  0.001671921    1.836    0.455
       428 -10.6720    189.4164     68.1401   7.1871039921e+01   2.8668392547e+01    0.3315442    0.2268905  28.94  0.001432508    2.114    0.527
       429 -10.5286    129.5439     67.7431   8.4149709978e+01   4.3627010576e+01    0.4384885     0.250758  70.67  0.001154717    2.560    0.609
       430 -11.6962      2.5653     66.8143   1.3051566962e+02   6.3069138214e+01    0.3040955    0.2234934  39.65  0.001975348    1.730    0.422
       431 -10.0064     26.7801     67.4637   1.2035020842e+02   6.1333137247e+01    0.1617651    0.1131257  -9.30 0.0005578608    1.558    0.358
       432  -9.3916    106.4848     66.4700   9.0139161959e+01   4.9141793644e+01    0.1488715    0.1402101  18.87  0.000809587    1.026    0.025
       433 -11.4574     15.8081     62.4023   1.2378471740e+02   6.3265378215e+01    0.5698917    0.2348993 -59.94  0.002719779    2.056    0.514
       434 -10.4684     83.2606     64.9752   9.7172132745e+01   5.4119266734e+01    0.2000965    0.1864517 -11.00 0.0007286885    1.027    0.026
       435  -9.5072     87.2970     64.2882   9.5542716804e+01   5.3485159359e+01    0.1439752    0.1090141   2.61 0.0002695723    1.553    0.356
       436 -11.0722      9.4999     62.8555   1.2666729162e+02   6.3565512004e+01    0.2292783    0.1863482  16.41 0.0008506884    1.437    0.304
       437 -11.4901      5.9957     59.4495   1.2741777082e+02   6.4486316390e+01    0.2989228    0.2663144  -1.44  0.001231691    1.282    0.220
       438  -9.6639    131.6686     62.1849   8.1824969359e+01   4.4065561588e+01    0.1977736    0.1421483 -23.89 0.0003531692    1.586    0.369
       439 -10.8248     78.4317     60.4321   9.7297766096e+01   5.5854920324e+01    0.3898532    0.2482519 -11.74  0.001713632    2.182    0.542
       440 -10.0231     25.4296     62.2070   1.1949657260e+02   6.2570105060e+01    0.1725571    0.1136701 -67.32 0.0006645426    1.688    0.408
       441 -10.4660     66.9812     60.9865   1.0175686484e+02   5.7705061186e+01    0.2719967    0.1988452  39.77  0.001453131    1.448    0.309
       442 -10.5614     70.4912     60.5392   1.0026343107e+02   5.7214736951e+01    0.3798821    0.2128731  44.85  0.001745007    1.955    0.489
       443 -10.4345     38.9918     59.5056   1.1275284526e+02   6.1804213641e+01    0.2328454    0.1814822 -64.02  0.001360766    1.520    0.342
       444 -10.1906     31.3529     59.0287   1.1595215699e+02   6.2693819337e+01    0.1774793    0.1414775 -45.93 0.0004364179    1.142    0.124
       445 -10.0543     48.1680     58.5349   1.0850507540e+02   6.0903123235e+01    0.1836774    0.1261063  25.49  0.001003228    1.510    0.338
       446  -9.6215    110.9913     57.0319   8.5588287766e+01   4.9781721679e+01    0.1755619    0.1654138  31.19  0.000387913    1.001    0.001
       447  -9.7021     58.2874     56.9257   1.0375924055e+02   5.9820378988e+01    0.1837912    0.1529854 -26.95  0.001078758    1.097    0.088
       448 -11.7567     27.4041     55.0217   1.1649119403e+02   6.3881488797e+01    0.3704445    0.2702862 -48.44   0.00143344    1.227    0.185
       449 -10.3318     21.5895     56.9236   1.1970835715e+02   6.3989108991e+01    0.2185316    0.1698138  20.21 0.0009032386    1.440    0.306
       450  -9.5515    102.2213     56.0468   8.7824218270e+01   5.1887833513e+01    0.1836242    0.1187587 -34.02 0.0005580634    1.604    0.377
       451  -9.2932    241.3092     55.7586   6.1966851853e+01   1.8526080026e+01    0.1297473    0.0855763 -69.08 0.0001963503    1.499    0.333
       452 -11.2932    120.1920     53.4933   8.1851871237e+01   4.8223841371e+01    0.6828651    0.3080899  35.82  0.002364584    2.961    0.662
       453 -10.3558     45.8524     54.6549   1.0816353302e+02   6.1955001233e+01    0.3587606    0.1961693 -14.07   0.00151494    2.779    0.640
       454 -10.9922     41.4905     52.1026   1.0917993514e+02   6.2980013341e+01    0.3238155    0.1990111 -40.13  0.001756056    1.445    0.308
       455 -10.4805     82.7540     51.1906   9.2392896606e+01   5.6683871414e+01    0.2212656    0.2167078  88.03 0.0004977105    1.254    0.202
       456 -11.1046     12.7929     50.6315   1.2198661925e+02   6.5917951361e+01    0.2040668    0.1396476  21.37 0.0009696562    1.655    0.396
       457 -10.6267     19.0389     49.4930   1.1867217557e+02   6.5697774533e+01    0.2837191     0.201515 -11.60  0.001105025    1.391    0.281
       458  -9.9565     21.4536     44.5197   1.1589914202e+02   6.6475495531e+01    0.2445246    0.1352495 -33.64  0.001213825    1.594    0.373
       459 -11.1534     16.2989     47.4562   1.1935652492e+02   6.6309763763e+01    0.3844709    0.1889282 -27.24  0.001950846    2.101    0.524
       460 -11.0224     12.1450     45.7787   1.2086688419e+02   6.6932921325e+01    0.2697861    0.1979865 -67.02 0.0006058324    1.560    0.359
       461  -9.8552    107.9598     50.4687   8.4140465807e+01   5.1522563755e+01    0.2143399    0.1352502  49.44 -1.343546e-05    1.494    0.331
       462  -9.5756     65.4391     49.5192   9.8177554499e+01   6.0057019363e+01    0.1380847    0.1175142  -4.31 7.322143e-05    1.081    0.075
       463 -10.3361     46.4957     48.0133   1.0549472339e+02   6.3123192768e+01    0.1898212    0.1183163 -44.97   0.00101072    1.547    0.354
       464  -9.4801     31.6407     48.2504   1.1231410393e+02   6.4807872054e+01    0.1110782   0.09642249  52.06 0.0006951805    1.608    0.378
       465 -10.3237     94.4840     46.7677   8.6832693362e+01   5.5037238775e+01     0.302382    0.1880255  39.58  0.001015692    1.531    0.347
       466 -11.0631    141.3615     42.9904   7.3380851571e+01   4.4582030880e+01    0.3783194    0.2571624 -20.53  0.001812043    1.748    0.428
       467 -10.3219    122.6563     45.9601   7.8628743716e+01   4.8774022858e+01    0.2429291    0.1841385  42.19 0.0004580932    1.260    0.206
       468 -12.0531     61.6960     44.7982   9.7842273672e+01   6.1475546259e+01    0.2454542    0.2112331 -14.64  0.000283027    1.064    0.060
       469 -10.6932     35.2299     45.1627   1.0954136141e+02   6.5008696153e+01    0.2927383     0.185008  54.74 0.0008583454    2.948    0.661
       470  -9.3409    199.7242     43.6826   6.3966775373e+01   2.9764041389e+01    0.1291983    0.1076415  31.65 0.0002149281    1.569    0.363
       471 -11.5561    163.5601     42.8171   6.9130639263e+01   3.8964827662e+01    0.2587205    0.2188303  70.52 0.0003093118    1.087    0.080
       472 -10.3910     80.8475     43.1902   8.9990047813e+01   5.8345157451e+01     0.189503    0.1782169  22.57 0.0002817057    1.118    0.106
       473 -10.7037     56.6576     41.4619   9.8586020283e+01   6.2825764210e+01    0.2340873    0.2090973  33.39 0.0008199657    1.286    0.223
       474 -10.2024     92.2572     41.5586   8.5553660526e+01   5.6293017139e+01    0.1938437    0.1208872  37.76 0.0004581968    1.529    0.346
       475 -10.0737     70.1990     41.5944   9.3236182628e+01   6.0565237511e+01    0.1759245    0.1176159  28.59 0.0003185485    1.459    0.315
       476 -10.3509     38.6345     40.4075   1.0615377771e+02   6.5476516549e+01    0.3185212    0.1703492  11.07  0.001512087    2.367    0.578
       477 -11.1466     23.8532     38.9764   1.1276057322e+02   6.7305378350e+01    0.3279842    0.2412327 -69.59    0.0013121    2.020    0.505
       478 -10.7307     18.6224     41.1655   1.1615678260e+02   6.7349724274e+01    0.3627517    0.1469376  19.96  0.001751326    2.667    0.625
       479 -11.5707      9.5988     39.9094   1.2031042680e+02   6.8244394853e+01    0.3780428    0.2007325 -30.90  0.002156835    1.666    0.400
       480 -10.8795     13.9740     39.6924   1.1800388411e+02   6.7986122868e+01    0.3227014    0.1738297 -46.07  0.001750825    1.495    0.331
       481 -10.4776    103.7754     38.9996   8.1123891620e+01   5.4154850684e+01    0.2073748    0.1887046 -74.21  0.001070784    1.340    0.254
       482  -9.6867     31.5160     37.9555   1.0859173035e+02   6.6722505343e+01    0.1677371     0.107777 -42.61 0.0003714431    1.423    0.297
       483 -10.7909      3.8938     37.0797   1.2236813755e+02   6.9127726732e+01    0.2889435    0.1669128 -71.68   0.00159688    2.272    0.560
       484 -10.2474     41.1641     36.3080   1.0333214783e+02   6.5869066065e+01      0.21034    0.1635402 -65.58  0.001201375    2.078    0.519
       485  -9.9363    239.2820     36.5757   5.7977772788e+01   2.1573835205e+01    0.1608474    0.1119061  65.85 0.0005961207    1.523    0.343
       486 -10.1173    130.1099     36.5543   7.3648306611e+01   4.8243588352e+01    0.4198186    0.1092241  55.27  0.001351914    3.146    0.682
       487 -11.2593    120.4704     33.7157   7.4856519400e+01   5.0956903877e+01    0.2747302    0.2474693  53.61 0.0009540225    1.028    0.028
       488  -9.5642     97.4697     35.4934   8.1608722431e+01   5.6030901226e+01    0.1379473    0.1261374  32.52 0.0002257349    1.036    0.034
       489 -10.2988     60.8491     34.3177   9.3900658199e+01   6.3292396763e+01    0.2703223    0.1648322 -33.40 0.0009000328    1.616    0.381
       490 -10.7846     55.9943     34.2072   9.5862142724e+01   6.4092280782e+01    0.3543007    0.2110332  53.77   0.00168468    2.558    0.609
       491 -11.4713    143.0879     32.4462   6.9625963557e+01   4.5513293804e+01    0.4410228    0.2850828 -18.51  0.001620472    1.888    0.470
       492 -10.2607     91.9057     33.8320   8.2635926188e+01   5.7453223986e+01    0.2086066    0.1658322  24.69 0.0002854209    1.203    0.169
       493 -10.7524     87.3171     33.3175   8.3874835129e+01   5.8484276222e+01    0.1805984    0.1677993  78.66 0.0009526149    1.356    0.263
       494 -11.9707     78.1839     33.3924   8.6967340846e+01   6.0304825319e+01    0.3822745    0.2615589  61.64   0.00151288    1.933    0.483
       495 -11.7029     81.7998     32.1901   8.5229356755e+01   5.9758120931e+01    0.3019982     0.173631  40.97 0.0008186577    1.592    0.372
       496  -9.8007     35.7440     34.6460   1.0521769660e+02   6.6817329289e+01    0.1494313    0.1079927  28.91 0.0003378258    1.468    0.319
       497  -9.9933     29.0506     34.1100   1.0828747048e+02   6.7659586301e+01    0.1638627    0.1523556  68.97  0.001112327    1.692    0.409
       498 -11.2355    206.4142     31.6541   6.0155304892e+01   2.9715087318e+01    0.2399719    0.2020099 -86.26 0.0002551679    1.043    0.042
       499 -10.7051    159.0847     30.7615   6.6286117745e+01   4.1649963227e+01    0.2705678    0.2013391 -24.34 0.0008995296    1.556    0.357
       500 -10.0532    134.9798     32.4838   7.1238032533e+01   4.7545718021e+01    0.2083616    0.1291056  61.80  7.73244e-05    1.465    0.317
       501 -11.6200    106.3769     31.3495   7.7518584820e+01   5.4571196860e+01    0.3898904    0.2712002  19.10  0.001968717    1.670    0.401
       502 -11.1460     24.5047     31.0094   1.0934404622e+02   6.8658699721e+01    0.2231402    0.1540694  15.41  0.001412031    1.433    0.302
       503 -10.8917     34.9603     29.5033   1.0343197265e+02   6.7761270154e+01     0.383357     0.204873  36.05  0.002060565    2.033    0.508
       504 -10.5682     18.6205     28.6371   1.1147801612e+02   6.9617965121e+01    0.2751727    0.2065867 -73.04  0.001638485    2.334    0.571
       505 -11.5909     17.2223     23.0407   1.0989981026e+02   7.0686043864e+01    0.3017667    0.2358168  46.06  0.001365921    2.020    0.505
       506  -9.4307     12.2520     28.5542   1.1489777982e+02   7.0156056880e+01    0.1023599   0.08885594 -80.05 0.0006888925    1.812    0.448
       507 -10.7136    100.6433     27.0268   7.7399767198e+01   5.6399981797e+01    0.3250799    0.1572769  47.14  0.001238057    1.814    0.449
       508  -9.9158     76.4905     27.5456   8.5095051336e+01   6.1419644319e+01    0.1315241    0.1163879  21.25 0.0001950117    1.049    0.046
       509 -11.9052    206.8344    246.7267   1.0698847626e+02  -6.0169136677e+00    0.3595725    0.2566068  36.89  0.001146578    1.362    0.266
       510 -11.0062      9.9178     22.8514   1.1393183822e+02   7.1320749297e+01    0.2083652    0.1516701 -27.43 0.0006672518    1.061    0.057
       511 -12.1656      1.9990     25.6699   1.1955231726e+02   7.1350739817e+01    0.2288356    0.1436446 -40.08 0.0003409025    1.222    0.181
       512 -10.8726      5.9611     23.3386   1.1639713803e+02   7.1517284447e+01    0.2357703    0.2162275 -10.08  0.001119222    1.327    0.246
       513 -11.2621    131.8019     24.1484   6.9061882200e+01   4.9305818240e+01    0.3941737    0.2192019 -33.25 0.0009264025    1.955    0.488
       514 -11.4285    118.3523     22.6180   7.1346582989e+01   5.2766082035e+01    0.4483576    0.2141475  48.29  0.001126405    1.850    0.460
       515  -9.9310     78.7810     22.5426   8.2160107110e+01   6.1589184982e+01    0.1684223    0.1210669  55.17 0.0002044373    1.484    0.326
       516 -10.9927    136.9388    247.3352   1.2085913386e+02   4.7146525230e+00    0.3853965    0.2102144 -33.27   0.00182533    2.939    0.660
       517 -11.4637    190.2944     20.3735   5.9127653885e+01   3.4981371458e+01    0.2371632    0.2088793  85.34 0.0002561962    1.074    0.068
       518 -11.1148    141.3080    247.7013   1.2001900546e+02   3.9616497092e+00    0.2441773    0.1864244  43.79 0.0007322518    1.107    0.097
       519  -9.9135     99.7946     17.8240   7.3983470557e+01   5.7613183918e+01    0.1638385    0.1510553  84.37 0.0002536515    1.275    0.215
       520 -10.2406     60.8318     18.1694   8.6685370143e+01   6.5496119784e+01    0.2577034    0.1732484  40.07  0.001500367    1.380    0.275
       521 -10.5879     58.9975     14.9921   8.5902828971e+01   6.6195157401e+01    0.1897605    0.1533865  14.12 0.0003492198    1.037    0.035
       522  -9.6599    157.9970     17.0827   6.2352596953e+01   4.3450535015e+01    0.1593964    0.1457308  84.29 0.0004912175    1.062    0.058
       523 -11.9156    145.5735    244.4729   1.1873158628e+02   3.8137804487e+00    0.3747968    0.3062268 -81.81    0.0023472    1.656    0.396
       524 -12.1221     83.5153    237.8432   1.3076865989e+02   1.4648577305e+01     0.383606    0.2121301  48.48 0.0003705232    1.469    0.319
       525 -10.5561     44.0398     16.7865   9.3190867704e+01   6.8400629153e+01    0.2799788    0.2176346  78.40   0.00144664    3.260    0.693
       526 -10.8958    132.5785     16.2950   6.6245454548e+01   4.9931646180e+01    0.2532868    0.1340101  47.37  0.001177837    1.762    0.433
       527 -11.0277     81.3206    231.9356   1.3063825349e+02   1.6120974573e+01    0.2104726    0.1818031  70.53 0.0003825488    1.103    0.093
       528 -10.5818    219.6852     14.6798   5.4867475304e+01   2.8604362047e+01    0.1179028   0.09362137  46.40 0.0003446922    1.655    0.396
       529 -11.4286     76.6680    246.3162   1.3294243024e+02   1.4018176460e+01     0.425623    0.2217834  43.19  0.002024774    1.533    0.348
       530  -9.3573    139.3254     14.2655   6.4386318550e+01   4.8444954723e+01    0.1397069   0.08925454  43.97  0.000212451    1.567    0.362
       531 -10.3651     86.3812     13.8435   7.6026780176e+01   6.0967246624e+01    0.1666625    0.1160676   0.77 0.0003524163    1.582    0.368
       532 -12.7581     75.5907    241.0531   1.3268722724e+02   1.5163821157e+01    0.4502688    0.3253091  58.00  0.001850716    1.118    0.106
       533 -10.3328     13.3055     14.2910   1.0817785400e+02   7.2432541027e+01    0.1864118    0.1404185   4.46 0.0007355143    1.214    0.176
       534 -10.4210     92.4819     18.8087   7.6365526584e+01   5.9136675248e+01    0.2263986    0.1245783 -30.62  0.001114514    1.974    0.493
       535 -10.5567    217.3426     12.3020   5.4527742626e+01   2.9405645351e+01    0.1204525   0.09089095  49.34 0.0005230363    1.678    0.404
       536  -9.7770     95.3533    246.8434   1.2925117002e+02   1.1223892212e+01     0.214429    0.1498079  44.25 0.0009781937    1.168    0.144
       537 -10.4460    162.0091    246.4873   1.1568105743e+02   8.7124425256e-01    0.2858011    0.1562042   9.53  0.001093963    3.918    0.745
       538 -11.0712    164.7145    243.0563   1.1465412586e+02   9.7808404931e-01    0.2913982    0.2177302 -88.96   0.00103222    2.377    0.579
       539 -10.9838    121.2958    244.5623   1.2371523036e+02   7.6600258960e+00    0.3577847    0.1535514 -52.00  0.001677837    2.809    0.644
       540 -11.8541     85.3064    244.9907   1.3109426165e+02   1.3036200272e+01    0.2275903    0.1901558  67.59 0.0004293105    1.112    0.101
       541 -11.0704     89.4384    244.4991   1.3021309079e+02   1.2526488916e+01    0.3505547    0.2566376  15.99   0.00167213    1.961    0.490
       542 -10.1590    216.1234    244.8956   1.0497254961e+02  -7.1087453413e+00    0.1625632    0.1381829  16.62 0.0003340139    1.190    0.160
       543 -10.2699    187.9834    245.2100   1.1036085221e+02  -2.9907260511e+00    0.1951344    0.1368763  18.50 0.0006687957    1.292    0.226
       544 -10.7244    191.3267    241.4144   1.0913323183e+02  -2.9543463792e+00    0.2675627    0.1853805 -54.05  0.001538424    2.118    0.528
       545 -11.1892    182.0084    241.9292   1.1103832128e+02  -1.5844673393e+00    0.3103444    0.2057941   6.39  0.001209741    1.784    0.439
       546 -10.3016    102.5912    250.7239   1.2819185755e+02   9.4491009568e+00    0.2307624    0.0885997  39.27 0.0009468492    2.076    0.518
       547 -10.1024     65.4355    242.5565   1.3484930102e+02   1.6272950350e+01     0.200569      0.12721  80.54 0.0006279175    1.583    0.368
       548 -10.4776     67.0878    238.9846   1.3421865740e+02   1.6738273296e+01    0.1657115    0.1539606  36.52 0.0006621839    1.379    0.275
       549 -10.6610    129.8336    241.4325   1.2157282564e+02   6.8530019943e+00     0.231849    0.1963132  23.56  0.001477753    1.244    0.196
       550 -11.3325     95.3114    228.2476   1.2727598616e+02   1.4763123375e+01     0.424275    0.2962727  52.28  0.001523311    1.212    0.175
       551 -11.3969    105.9678    233.9921   1.2566561557e+02   1.1997508937e+01    0.3876181    0.1894595 -64.49  0.001699395    2.460    0.594
       552 -10.1258    107.0854    228.0931   1.2472565585e+02   1.2955641400e+01    0.1987695    0.1629419  48.88 0.0003411114    1.030    0.029
       553 -10.3557    102.3084    233.9812   1.2643757537e+02   1.2568939810e+01    0.3064405     0.197316 -61.33  0.001450827    1.788    0.441
       554 -12.5593     95.1839    237.7180   1.2834176736e+02   1.2945672907e+01    0.8112473    0.4005663  65.02  0.003591944    2.664    0.625
       555 -10.1258    100.3058    237.7066   1.2727449896e+02   1.2170188578e+01    0.2276785    0.1207888  52.58 0.0001689014    1.689    0.408
       556 -11.8421    202.2364    240.4610   1.0688066286e+02  -4.4766089184e+00    0.5117821    0.1817069  36.84  0.002261119    2.400    0.583
