#   1 NUMBER                 Running object number                                     
#   2 MAG_AUTO               Kron-like elliptical aperture magnitude                    [mag]
#   3 X_IMAGE                Object position along x                                    [pixel]
#   4 Y_IMAGE                Object position along y                                    [pixel]
#   5 X_WORLD                Barycenter position along world x axis                     [deg]
#   6 Y_WORLD                Barycenter position along world y axis                     [deg]
#   7 A_WORLD                Profile RMS along major axis (world units)                 [deg]
#   8 B_WORLD                Profile RMS along minor axis (world units)                 [deg]
#   9 THETA_WORLD            Position angle (CCW/world-x)                               [deg]
#  10 FWHM_WORLD             FWHM assuming a gaussian core                              [deg]
#  11 ELONGATION             A_IMAGE/B_IMAGE                                           
#  12 ELLIPTICITY            1 - B_IMAGE/A_IMAGE                                       
         1 -14.8216     69.2392    147.6371   3.3163348844e+01  -4.3216627201e+01    0.1684076   0.08609328  88.41   0.01112897    4.871    0.795
         2 -14.3841    233.1157     44.3340   2.9736274267e+01  -4.3288063716e+01    0.0680344   0.04698426   5.44  0.006923059    1.908    0.476
         3 -13.9675    217.7153     54.1578   3.0059331617e+01  -4.3284474092e+01   0.05704208   0.04625968  17.63  0.004505817    1.380    0.276
         4 -12.8212      2.6235     22.1338   3.3146963786e+01  -4.4995725444e+01   0.03880206   0.01624711  60.40  0.002032831    2.459    0.593
         5 -12.1830      2.8203     10.6019   3.3043709922e+01  -4.5120304273e+01   0.02189352   0.01506522  52.34  0.001882444    1.467    0.318
         6 -12.9294      2.8946      4.5129   3.2989491393e+01  -4.5186220284e+01   0.03249909   0.02820574 -66.34  0.003934695    1.279    0.218
         7  -9.2273    158.2507      9.0083   3.0570388501e+01  -4.4155183923e+01  0.008040732  0.005585328  57.78 0.0003201923    1.482    0.325
         8 -10.0320     60.3427     21.3379   3.2218399963e+01  -4.4646589925e+01   0.01079523  0.009389375  19.46 0.0005656799    1.215    0.177
         9 -12.2225     74.8708    246.0642   3.3889441756e+01  -4.2104972781e+01    0.0271864    0.0186397  58.79  0.002950935    1.492    0.330
        10 -11.1497     71.4355    241.2948   3.3903562509e+01  -4.2178021422e+01   0.01500133  0.008072491  58.48  0.001438083    1.878    0.467
        11 -11.4675     56.8930    246.9436   3.4173604160e+01  -4.2203513772e+01   0.04559102  0.008757525  52.20  0.002857525    4.390    0.772
        12 -12.1529     47.7208    239.7863   3.4257483441e+01  -4.2337155140e+01   0.02383151   0.01632365  11.91  0.001478527    1.846    0.458
        13 -11.7519     62.6209    225.6729   3.3912347816e+01  -4.2402597984e+01   0.02066141   0.01298107  64.41 0.0008346885    1.696    0.410
        14 -11.3628     54.4609    240.0202   3.4155135487e+01  -4.2294178649e+01   0.01488948   0.01182461  51.20 0.0008235589    1.277    0.217
        15 -13.4739     57.7191    232.4712   3.4043504576e+01  -4.2357517104e+01   0.04175383   0.03589518 -82.47  0.004038391    1.327    0.246
        16 -16.8636     23.0910    181.4041   3.4165275137e+01  -4.3126654984e+01    0.4450327    0.1814661  72.79   0.01111787    3.952    0.747
        17  -9.3128    130.0226    199.0090   3.2654989568e+01  -4.2281510442e+01  0.007776618  0.007398522  51.26 0.0005344267    1.081    0.075
        18 -10.5711    106.9467    195.4967   3.2979805341e+01  -4.2462417765e+01   0.01001757  0.006253738 -28.08  0.000480902    1.551    0.355
        19 -10.5321    191.5235    192.5387   3.1664536250e+01  -4.1966228817e+01   0.02189165   0.01154035 -83.64  0.001275968    6.287    0.841
        20 -10.4428    131.9523    187.2839   3.2527111175e+01  -4.2397056706e+01   0.00907571  0.008394709 -20.61 0.0003318346    1.049    0.046
        21 -10.7404     98.9145    181.3089   3.2985164334e+01  -4.2666641394e+01   0.01246372   0.01121853 -15.09 0.0006914125    1.094    0.086
        22  -9.3968     59.8975    178.8423   3.3569388627e+01  -4.2932423341e+01  0.008634958  0.007422082 -66.33 0.0002585393    1.296    0.228
        23 -11.5986    172.1767    173.9812   3.1800242498e+01  -4.2289194571e+01    0.0241056   0.01555184  50.68  0.001774828    1.564    0.361
        24 -10.4590     91.6909    174.6848   3.3041401858e+01  -4.2783381072e+01     0.014082   0.01092399 -83.69  0.001207637    1.594    0.373
        25 -11.1319    178.8687    164.9369   3.1621210601e+01  -4.2344627836e+01   0.02244375    0.0142519 -75.94   0.00205179    2.495    0.599
        26 -11.2352     95.3179    167.8970   3.2928395700e+01  -4.2835078634e+01   0.03290925   0.00782959 -29.26   0.00213201    3.924    0.745
        27  -9.4266    110.4878    167.4552   3.2690290467e+01  -4.2746080792e+01  0.006473921  0.006214512 -30.36 0.0001063465    1.028    0.027
        28 -13.5467     55.6413    146.3658   3.3365043377e+01  -4.3313780806e+01   0.02970141   0.02119591  27.07 0.0009118841    1.620    0.383
        29 -10.7980    140.2160    249.6078   3.2919670891e+01  -4.1667538629e+01  0.009539358  0.006190588 -14.75 0.0009593667    1.700    0.412
        30 -12.1753     58.3934    158.6087   3.3424467202e+01  -4.3163055868e+01   0.01941394   0.01549482   9.03 0.0009910041    1.400    0.285
        31  -9.9011     58.3093    166.3474   3.3490304141e+01  -4.3078883900e+01  0.006939333  0.004826779  25.56 0.0007044605    1.707    0.414
        32  -9.4371     98.4324    156.9301   3.2787915824e+01  -4.2935366024e+01  0.008781807  0.005673935 -81.98 0.0007783006    2.360    0.576
        33 -10.0524    134.3888    148.6208   3.2162431126e+01  -4.2801718431e+01   0.01229467  0.006347082  78.86 0.0009542686    3.243    0.692
        34 -11.4284     46.6163    147.3250   3.3514343458e+01  -4.3358327956e+01   0.01622348      0.01052 -47.96  0.001674263    1.649    0.394
        35 -12.4089     38.8819    144.5155   3.3612146940e+01  -4.3436134679e+01   0.02564389   0.01584268 -76.16  0.002035032    2.591    0.614
        36 -15.2522     33.5555    175.4276   3.3952232092e+01  -4.3129372212e+01    0.1051259   0.06915107  69.43   0.01016301    1.698    0.411
        37 -12.0042     74.3774    135.6855   3.2982477523e+01  -4.3315487860e+01    0.0187246   0.01356934 -64.09   0.00177639    1.689    0.408
        38 -10.7298     74.9153    128.9941   3.2917463805e+01  -4.3385151110e+01   0.01764747  0.008788062  57.68  0.001633173    2.019    0.505
        39 -10.9295     95.0761    134.5978   3.2650975808e+01  -4.3199344403e+01   0.02192362   0.01412045  21.43  0.002130725    2.051    0.512
        40 -12.4045     81.3925    132.9657   3.2850072593e+01  -4.3301859299e+01   0.01439557   0.01218511  46.17 0.0004831082    1.203    0.169
        41 -11.2572     76.8911    229.7175   3.3725111221e+01  -4.2271955314e+01   0.01888985   0.01079613  65.55 0.0006185138    1.910    0.476
        42 -15.5930     10.3070    243.8600   3.4871131157e+01  -4.2514742845e+01    0.1228216   0.08329617 -27.52    0.0132833    1.422    0.297
        43 -10.7540    106.1844    128.8074   3.2429212191e+01  -4.3193213578e+01   0.02443222   0.01102052  51.16  0.002166549    2.195    0.544
        44 -16.4989      7.2037    217.8676   3.4710750099e+01  -4.2819876937e+01    0.4530967    0.1288726 -23.36   0.02888211    4.212    0.763
        45 -11.8266     67.3911    126.0421   3.3010053980e+01  -4.3463727829e+01   0.02212735   0.01373849  66.47  0.002244416    1.771    0.435
        46 -10.6651     93.6814    122.0565   3.2565922465e+01  -4.3344470614e+01   0.01589354   0.01068316  25.48  0.001615753    1.824    0.452
        47 -12.3380     73.4668    228.4954   3.3767914262e+01  -4.2306089183e+01   0.02540159   0.01973593 -82.24  0.002106636    1.583    0.368
        48 -10.7596     35.6926    122.2881   3.3475940014e+01  -4.3698920973e+01   0.01009527  0.008300148 -24.34 0.0004612691    1.184    0.155
        49 -10.4391     39.2229    121.4084   3.3412945153e+01  -4.3687021099e+01   0.01075873  0.009309161  79.46 0.0005296369    1.275    0.216
        50 -10.5761     37.3889    128.1371   3.3498411607e+01  -4.3624567735e+01  0.009149003  0.006361912  77.98 0.0009483151    1.734    0.423
        51 -10.8788     24.1960    118.7351   3.3627394442e+01  -4.3807756053e+01   0.01270152  0.008796986 -15.74 0.0005948419    1.527    0.345
        52  -9.9887    104.4441    116.4133   3.2350272229e+01  -4.3338733686e+01   0.01073847  0.009329614 -13.15 0.0009668641    1.155    0.134
        53 -10.0728    205.4471    110.5333   3.0745710381e+01  -4.2760549483e+01   0.01130449   0.01037831 -24.40 0.0005364331    1.055    0.053
        54  -9.7197    108.0000    108.5636   3.2227632602e+01  -4.3401714452e+01   0.01442859  0.003727676  60.02 0.0009417774    3.992    0.749
        55 -10.8282     39.8893    106.9708   3.3280487415e+01  -4.3840824638e+01     0.009679  0.009317426 -36.06  0.000427361    1.040    0.039
        56 -11.2621     24.3425    105.4273   3.3512990908e+01  -4.3952598822e+01   0.01655621   0.01209753 -23.53  0.001420879    1.348    0.258
        57 -12.6283     53.8840     94.2054   3.2951390150e+01  -4.3894233469e+01   0.03215801   0.01743533  49.40  0.003109776    1.859    0.462
        58  -9.5285    122.0539     94.8323   3.1890779907e+01  -4.3462206126e+01   0.01224088  0.006744066 -71.53 0.0008878445    3.852    0.740
        59  -9.4146     19.6679     89.7286   3.3454202151e+01  -4.4152880602e+01   0.00663858  0.004913602  17.29 0.0003059986    1.591    0.371
        60 -12.7379     78.1667    145.6906   3.3007850723e+01  -4.3182995117e+01    0.0362475    0.0241262  26.67  0.003692307    1.831    0.454
        61 -11.2040     53.4625     86.9264   3.2895807998e+01  -4.3976198501e+01   0.01345248  0.008495609 -45.10  0.001373857    1.639    0.390
        62 -12.4057     52.7731    162.6752   3.3546115955e+01  -4.3152791523e+01   0.02301341   0.01538456  12.16  0.002291014    1.958    0.489
        63 -10.0508     79.1612     83.8226   3.2465009202e+01  -4.3850597675e+01  0.009998018  0.008545564 -56.88  0.000543069    1.258    0.205
        64 -11.4248    148.4422    229.2483   3.2626237492e+01  -4.1838285500e+01   0.01980991  0.006043525  58.36  0.001452979    3.209    0.688
        65  -9.9556     70.5087     78.5159   3.2555170355e+01  -4.3962158151e+01  0.006468531   0.00624361 -24.65  7.09672e-05    1.016    0.016
        66  -9.7859     21.0331     70.8436   3.3271743007e+01  -4.4351038606e+01   0.01154971  0.006696873 -53.07  0.001076094    2.081    0.520
        67  -9.5340     90.4623    237.4541   3.3579614500e+01  -4.2104857316e+01  0.006448358  0.006220023 -17.68 7.920141e-05    1.004    0.004
        68 -12.7367    208.2969     59.9520   3.0255025762e+01  -4.3284116730e+01   0.02356913    0.0172214  -8.69  0.001609304    1.554    0.356
        69 -10.6199     61.3463    246.9478   3.4104929819e+01  -4.2176731748e+01   0.00917831  0.008692662  51.70 0.0005553746    1.085    0.078
        70  -9.0397     29.2670     63.6960   3.3079643001e+01  -4.4378594374e+01  0.006414191  0.004943721 -64.45 0.0001878019    1.528    0.346
        71 -15.4597      9.7520    206.9568   3.4582640763e+01  -4.2925045143e+01   0.09084541   0.05904018 -13.20  0.006022208    1.697    0.411
        72 -11.1693     12.6817     32.1713   3.3072542869e+01  -4.4824468291e+01   0.01245186  0.008215362 -38.55   0.00131409    1.476    0.322
        73 -11.1186     24.6912     31.3562   3.2873450154e+01  -4.4759391535e+01   0.01225065  0.007156473 -45.26 0.0008235771    1.792    0.442
        74 -12.4382     13.3296     25.6212   3.3005441474e+01  -4.4891916420e+01   0.03304187   0.01092134 -42.99   0.00239499    3.259    0.693
        75 -10.2506     50.5013    246.5244   3.4268933775e+01  -4.2246424257e+01   0.01248328  0.006436507  60.84  0.000671973    1.994    0.498
        76 -11.8061    119.2716    242.8567   3.3182921249e+01  -4.1869922325e+01    0.0153775    0.0117184  81.03 0.0008890697    1.550    0.355
        77 -11.1505    212.0174    242.9920   3.1781877382e+01  -4.1291479625e+01   0.01063119  0.007699281  21.87 0.0008506257    1.641    0.391
        78  -9.5919    189.4853     15.4724   3.0144794200e+01  -4.3882519696e+01  0.006461689  0.006231748 -14.62 7.493644e-05    1.007    0.007
        79 -11.0829    102.4937    242.1376   3.3433469031e+01  -4.1980365667e+01   0.01672378  0.007736298 -22.73  0.001430402    2.309    0.567
