#   1 NUMBER                 Running object number                                     
#   2 MAG_AUTO               Kron-like elliptical aperture magnitude                    [mag]
#   3 X_IMAGE                Object position along x                                    [pixel]
#   4 Y_IMAGE                Object position along y                                    [pixel]
#   5 X_WORLD                Barycenter position along world x axis                     [deg]
#   6 Y_WORLD                Barycenter position along world y axis                     [deg]
#   7 A_WORLD                Profile RMS along major axis (world units)                 [deg]
#   8 B_WORLD                Profile RMS along minor axis (world units)                 [deg]
#   9 THETA_WORLD            Position angle (CCW/world-x)                               [deg]
#  10 FWHM_WORLD             FWHM assuming a gaussian core                              [deg]
#  11 ELONGATION             A_IMAGE/B_IMAGE                                           
#  12 ELLIPTICITY            1 - B_IMAGE/A_IMAGE                                       
         1 -13.9416      9.0978     49.2148   1.0050524241e+02   6.5827809115e+01     1.171784    0.5472493  19.72   0.00150875    2.339    0.572
         2 -12.4367     74.7957     42.2839   6.9306558484e+01   5.8933255303e+01    0.5057442    0.4404407 -69.57   0.00224547    1.687    0.407
         3 -14.4982     40.4071     38.3919   8.1777723902e+01   6.4917217755e+01    0.5855598    0.4172795 -15.74   0.00152416    1.270    0.212
         4 -12.1873    205.1761     21.4845   3.6064924516e+01   3.1666338527e+01    0.4988636    0.3945497 -67.61  0.002331617    1.111    0.100
         5 -13.2307    215.8479     14.1899   3.3416320497e+01   3.0109284189e+01     0.619119    0.4506229  37.67  0.003280854    2.036    0.509
         6 -10.9726    223.2773     16.2589   3.3238319319e+01   2.8265545768e+01    0.3961224    0.2621304  46.04  0.001275738    2.095    0.523
         7 -12.7071     41.9557     20.6701   7.3386213488e+01   6.7427918129e+01    0.4008389    0.2500882  35.28 0.0005752329    1.587    0.370
         8 -11.4559    130.3730     14.9249   4.4345175081e+01   5.0170034592e+01    0.3387318    0.1934756  53.56  0.000742302    1.514    0.340
         9  -9.8465    114.8511     12.1218   4.6384911383e+01   5.4087218168e+01    0.1842483    0.1671991  80.51 0.0004473355    1.182    0.154
        10 -12.8097     64.7680     10.8764   5.9510897489e+01   6.4819817365e+01    0.4849299    0.2293711  41.87  0.001864605    1.803    0.445
        11 -13.0203     54.8027      6.2492   6.0991161449e+01   6.7081134623e+01       0.7455    0.4739191  62.51  0.003082966    2.445    0.591
        12 -10.7063     46.6311     11.3468   6.6832248732e+01   6.7897363261e+01    0.2234987    0.1634038  18.01 0.0006326924    1.136    0.120
        13 -11.3866     36.9391     10.7350   7.0917296005e+01   6.9428916362e+01    0.2653016      0.17755  10.11 0.0006011615    1.324    0.245
        14 -13.2298    193.7622      8.8946   3.4208771396e+01   3.5640075388e+01    0.4353068    0.2314906  63.57  0.000847725    1.732    0.422
        15  -9.8619    127.7502      5.6203   4.1733908040e+01   5.1627706003e+01    0.1843822    0.1110459  76.44  0.000946919    1.639    0.390
        16 -10.7683    115.0376      7.0744   4.4551116069e+01   5.4487372013e+01    0.2098806    0.1603551  60.26 0.0003557086    1.133    0.117
        17 -11.3662    102.3860      2.9404   4.5636522259e+01   5.7711276470e+01    0.2565354    0.1582295  59.72 0.0004265006    1.388    0.280
        18 -11.3227     35.8414    223.1114   1.1767954912e+02   2.2409468923e+01    0.3177163    0.1870192  73.18  0.000903302    1.576    0.366
        19 -11.4948    229.3304    248.6225   8.0926547677e+01  -9.7076605342e+00    0.3609968    0.1695622  30.95  0.001126261    1.899    0.473
        20 -11.0930    223.5464    249.4993   8.2122153407e+01  -9.0907391634e+00    0.3545795    0.1877338  33.03  0.002026838    1.737    0.424
        21 -10.8461     61.3161    248.4518   1.1452904810e+02   1.4174358161e+01    0.2480831    0.2127684 -21.12 0.0008972135    1.793    0.442
        22 -11.6206     22.7113    248.8773   1.2188679197e+02   1.8609168065e+01    0.2889247    0.1973816 -60.96  0.001949878    1.816    0.449
        23 -10.2472     98.0901    221.6640   1.0403138716e+02   1.4472706504e+01    0.2308118    0.1451366  52.02  0.001185894    1.506    0.336
        24 -11.5676     22.9101    218.4857   1.2000280116e+02   2.4796829134e+01    0.3176968    0.2370716  80.23  0.001357894    1.095    0.087
        25 -11.4840    228.7690    217.6258   7.5754622888e+01  -5.2623030142e+00    0.3516087    0.2211546  10.58  0.001768277    1.608    0.378
        26 -10.8555    238.5684    213.2889   7.3198712450e+01  -5.9589283413e+00     0.293584    0.1710163 -51.11  0.001434022    2.732    0.634
        27 -10.3951    179.9962    216.9809   8.5257266557e+01   2.2124306981e+00    0.1961039    0.1703074  71.43  0.000948436    1.659    0.397
        28 -10.4611    176.8885    210.7497   8.4825932339e+01   3.8374017177e+00    0.2330326    0.1877739 -83.18 0.0009254595    2.012    0.503
        29 -10.2450    192.7027    210.3522   8.1452486261e+01   1.3332407730e+00    0.1963751    0.1680683  69.14  0.001109264    1.766    0.434
        30  -9.7832    124.1588    206.0091   9.5847187522e+01   1.3652612339e+01    0.1789165    0.1691492  50.77   0.00105225    1.039    0.037
        31 -10.1288     93.8982    204.8971   1.0280835475e+02   1.8745486684e+01    0.2039502    0.1900254   0.93 0.0008569612    1.275    0.216
        32 -10.0791     80.3766    201.1966   1.0552985510e+02   2.1597880085e+01    0.1975635    0.1247665 -81.54 0.0009511203    1.773    0.436
        33  -9.9383    124.3254    198.6497   9.4628913418e+01   1.5213165253e+01    0.1502846    0.1090001  70.42 0.0007048637    1.756    0.430
        34  -9.2410    202.3458    195.3270   7.6690928216e+01   2.4154119504e+00    0.1467606   0.09868883  -2.55 0.0007050288    1.748    0.428
        35 -11.4481    162.4141    193.7105   8.4901145665e+01   9.5981588477e+00    0.5229422    0.3410955  36.58  0.002526152    1.467    0.318
        36 -10.4629     45.4269    194.2629   1.1303195336e+02   2.7807521540e+01    0.3373882    0.1084052  43.39  0.001342052    2.767    0.639
        37 -10.1197    172.6830    191.3581   8.2170041400e+01   8.2482092998e+00    0.2155874    0.1789226  77.30  0.001105828    1.723    0.420
        38 -10.3543     66.2090    194.4157   1.0808446036e+02   2.5158363932e+01    0.1969938     0.111955  46.82 0.0009445529    1.662    0.398
        39 -10.1446     33.7877    186.0213   1.1497267933e+02   3.1065021145e+01    0.2055772    0.1474908  76.38 0.0006180268    1.270    0.213
        40 -11.8475     43.4795    183.6517   1.1238472486e+02   3.0570674577e+01    0.4672596    0.2091758  26.47  0.001813575    2.604    0.616
        41 -10.3873    147.4077    180.2172   8.5807430639e+01   1.5159264697e+01    0.2120993    0.1444912 -61.42 0.0009536806    1.742    0.426
        42 -10.6564     93.7252    179.3894   9.9067862877e+01   2.4729424728e+01    0.3578247    0.2354166  -7.61  0.001426225    2.786    0.641
        43 -10.2792    191.6676    177.7366   7.5386556377e+01   7.5225914497e+00    0.3094428     0.179564 -48.62  0.001380704    1.855    0.461
        44 -11.0213     58.7962    176.4696   1.0767066913e+02   3.0477471870e+01    0.2975574    0.2090427  87.01 0.0006786762    1.459    0.314
        45 -10.2007    129.4871    175.7148   8.9310495021e+01   1.9463401957e+01     0.482579    0.1425593 -50.20  0.001488622    3.366    0.703
        46 -10.1985    217.8700    175.7325   6.9769369179e+01   3.3345409567e+00    0.2846757    0.1456347 -28.05  0.001225222    2.075    0.518
        47 -11.2740     11.7185    172.7377   1.1906962151e+02   3.6341525493e+01    0.4788931    0.1617919 -71.08  0.002074592    2.369    0.578
        48  -9.9642    159.3262    175.6576   8.2098498378e+01   1.3923660550e+01    0.1506292    0.1212032  81.81 0.0006118937    1.737    0.424
        49 -12.0900     36.9298    174.4707   1.1301469157e+02   3.3536348539e+01    0.5091032    0.1929637  39.54  0.002174375    2.507    0.601
        50 -11.4591     45.3811    171.2427   1.1047971028e+02   3.3401740363e+01    0.4381651    0.2537697  81.32  0.002026798    1.974    0.494
        51 -10.0391    138.8293    165.0150   8.4852216817e+01   2.0181482182e+01    0.2560638    0.1861773 -87.47  0.001085851    2.056    0.514
        52 -11.1965     97.1103    164.6071   9.5643049608e+01   2.7798442264e+01    0.5603517    0.2893653  35.69  0.001440874    1.961    0.490
        53 -10.3945     79.1379    163.0353   1.0025282955e+02   3.1022985888e+01    0.3629099    0.1932887 -87.62   0.00124449    3.250    0.692
        54  -9.7762    168.3390    169.6606   7.8792192660e+01   1.3489416191e+01    0.1509851    0.1222197  84.97 0.0007050474    1.763    0.433
        55 -12.1181     21.3553    159.5789   1.1542601025e+02   3.8737663854e+01    0.4136461    0.3746856  44.71  0.001841534    1.262    0.207
        56 -12.9046    119.8483    157.9425   8.8265199751e+01   2.5427986907e+01    0.7275924    0.4824121  36.55  0.001920746    1.527    0.345
        57 -10.4081    106.3175    158.6572   9.2030913223e+01   2.7696766039e+01    0.5304773    0.2260814  52.51  0.001702848    3.211    0.689
        58 -10.4021    196.6876    157.7056   7.0109695715e+01   1.0508382133e+01    0.2935031    0.1729336 -59.09   0.00117317    2.441    0.590
        59 -11.1064    168.4582    156.3249   7.5889648979e+01   1.6303208633e+01    0.4812865    0.4104584 -33.93  0.002475846    1.142    0.124
        60  -9.1629     51.6600    158.3144   1.0709305065e+02   3.5920315275e+01    0.1488349   0.09798156  68.12 0.0007047452    1.701    0.412
        61 -10.4771    218.4997    156.4989   6.5630078448e+01   6.7164272085e+00     0.260319    0.2187496 -28.90 0.0009430108    1.057    0.054
        62  -9.9808     81.9869    154.9869   9.8064407590e+01   3.2624943471e+01    0.3155365     0.164426  70.36 0.0009567523    4.114    0.757
        63  -9.8056    145.5436    154.6775   8.0976169339e+01   2.1239940944e+01    0.3824398    0.1427644  41.00  0.001262708    2.690    0.628
        64  -9.9295     67.9700    154.4750   1.0193339533e+02   3.4797610473e+01    0.2132638    0.1053115  54.27 0.0008096911    2.512    0.602
        65 -10.8555    237.7444    150.7550   6.1049286962e+01   4.4035487776e+00    0.2124694    0.1552194 -69.49  0.001062377    2.157    0.536
        66 -10.4709    189.8999    149.8179   6.9756292668e+01   1.3394639268e+01     0.292414    0.1977945 -65.31  0.001247198    2.129    0.530
        67 -11.7320    108.5601    146.4634   8.8915277846e+01   3.0300528279e+01    0.7183833    0.3842251  62.86   0.00233619    3.336    0.700
        68  -9.9363     38.6581    147.3280   1.0919852217e+02   4.0171818514e+01    0.1461325   0.09487098  68.65 0.0007051298    1.740    0.425
        69 -10.4443    148.8690    145.5393   7.8095263238e+01   2.2647353631e+01    0.4060297     0.259144  79.04  0.001358029    3.349    0.701
        70 -10.6866     88.9953    145.0388   9.4170352583e+01   3.4034954257e+01    0.2362969     0.232898 -69.43   0.00126625    1.040    0.038
        71 -10.0580    250.3061    144.4210   5.7729097480e+01   3.4085399059e+00    0.1509236    0.1311297  59.74 0.0009338027    1.506    0.336
        72  -9.9855     99.5320    143.8566   9.0902239012e+01   3.2554556470e+01    0.2615667    0.2101513  61.16   0.00126622    1.376    0.273
        73 -10.6562     55.6896    145.7237   1.0402314218e+02   3.8646091442e+01    0.4014516    0.2105746  68.08  0.001482488    3.036    0.671
        74 -10.2950    182.4396    142.1600   6.9579672221e+01   1.6459346630e+01    0.2911229    0.2062031  63.90 0.0009351757    1.855    0.461
        75 -11.2665     21.7579    139.9535   1.1307959845e+02   4.3617558223e+01    0.3025718    0.2865393   4.10 0.0007648884    1.291    0.226
        76 -10.9245     68.9606    136.1738   9.8358581897e+01   3.9339664909e+01    0.3256665    0.3090725  55.25 0.0009888863    1.116    0.104
        77  -9.9312    143.2999    131.6561   7.6188567340e+01   2.6957197919e+01    0.1611389    0.1274855 -86.15 0.0003473567    1.676    0.403
        78 -11.5090     98.5477    127.8008   8.7614653297e+01   3.6713258421e+01    0.5432085    0.3846671  88.77   0.00138513    2.079    0.519
        79 -10.7292     82.5705    131.3293   9.3223585556e+01   3.8531690326e+01    0.2993714    0.1462386 -61.34  0.001136365    2.109    0.526
        80 -10.5467    118.3182    126.0727   8.1478413783e+01   3.3392740247e+01    0.5082482    0.2976153  71.22  0.001565792    3.783    0.736
        81 -10.4439     59.1011    124.2685   9.9087157283e+01   4.3701840287e+01    0.2880555    0.1869213  86.20  0.001241434    2.162    0.538
        82 -11.4626     42.9832    122.3810   1.0391399702e+02   4.6077321375e+01    0.7841975    0.3809181 -81.78  0.002908416    2.957    0.662
        83 -10.7592    189.6989    123.8786   6.3745017283e+01   1.8654765162e+01    0.2923819     0.250146  29.33 0.0006152908    1.278    0.218
        84 -10.7079     28.7692    123.4305   1.0864444417e+02   4.7191682589e+01    0.3376841    0.1735791  89.86     0.001381    2.612    0.617
        85 -10.0068     71.3282    120.6620   9.4402781286e+01   4.2929841664e+01    0.1533008    0.1148312  76.03 0.0007051822    1.731    0.422
        86 -10.3602      2.8742    117.7509   1.1599328745e+02   5.0449568975e+01     0.257505    0.1387974  77.53  0.001247515    2.200    0.546
        87 -11.8289    155.2637    116.0083   6.9291618633e+01   2.7818871255e+01    0.7402134    0.5102051  87.31 0.0009778367    2.453    0.592
        88 -12.6293    144.6455    103.2227   6.8459038805e+01   3.2905022397e+01     0.954324    0.7044215 -81.83   0.00303756    1.940    0.484
        89 -11.2721    136.9561    112.2379   7.2854351098e+01   3.2673128574e+01    0.7776739    0.4119398  66.39  0.002303995    3.944    0.746
        90 -11.5511    140.2294    109.3205   7.1228376874e+01   3.2592089393e+01    0.6882763    0.3573962 -36.79  0.001848023    2.047    0.512
        91 -10.4808    108.3134    116.4240   8.1919843783e+01   3.7643021963e+01    0.3756991    0.2770337 -39.12 0.0009926641    1.357    0.263
        92 -11.3139    108.2450    109.9320   8.0236932223e+01   3.9175238054e+01    0.3963045    0.3070359 -38.57 0.0005993039    1.279    0.218
        93 -10.2155    186.5432    113.9920   6.1957006494e+01   2.1292044915e+01    0.2961273    0.2077761  32.94  0.001353305    1.684    0.406
        94 -11.2984    164.4351    106.6167   6.4724116387e+01   2.7713622131e+01    0.5522762    0.2784266  51.81 0.0008891106    2.084    0.520
        95 -11.5428    162.5305    112.7946   6.6767818583e+01   2.6874325771e+01    0.5276542    0.3551448  56.00  0.001499702    1.619    0.382
        96 -11.9832    156.8084    102.7695   6.5426556619e+01   3.0234193736e+01    0.7884334    0.4134523 -59.68   0.00269605    2.835    0.647
        97 -11.1510     92.4841    113.5161   8.5978526209e+01   4.1269791735e+01    0.4254248    0.2707728 -71.95  0.001703191    2.186    0.543
        98 -11.3940     79.1028    112.8380   9.0069985263e+01   4.3680045694e+01    0.4960783    0.3202832  82.07  0.001868119    2.881    0.653
        99 -11.4726     24.5970    112.7989   1.0828215760e+02   5.0206335433e+01    0.2944085      0.20256 -51.68 0.0007960655    1.261    0.207
       100 -11.0059     20.5153     99.3365   1.0733937657e+02   5.3828121258e+01    0.7320257    0.3400509  87.52  0.002389803    4.775    0.791
       101 -11.3813     13.9707    108.8950   1.1120643775e+02   5.1951904477e+01    0.6623026     0.256612 -59.71  0.002977913    1.945    0.486
       102 -11.7324     19.7783    105.8437   1.0874398232e+02   5.2295597568e+01    0.3046436    0.2132817  -7.08 0.0006988015    1.741    0.426
       103  -9.9912    105.2908     93.9656   7.6664068425e+01   4.3350900924e+01    0.2729946    0.1964272 -51.53 0.0007536632    1.435    0.303
       104 -12.9568    112.3636    102.0063   7.6850507371e+01   4.0152682058e+01     2.090036    0.5677649  48.21  0.005460504    4.548    0.780
       105 -11.5006    127.7121     97.3802   7.1208943047e+01   3.7906659500e+01    0.5883958    0.4175755  28.53 0.0005902305    1.615    0.381
       106 -10.6558    129.1802     92.6208   6.9443575243e+01   3.8575761837e+01    0.3239521    0.2456049 -49.60 0.0007335132    1.355    0.262
       107 -10.9890     57.5712    105.4413   9.5516556277e+01   4.8592429929e+01    0.3749436    0.2745588  13.58  0.001521481    1.577    0.366
       108 -11.6223     64.6013    103.0915   9.2521668909e+01   4.8216188720e+01    0.3813097    0.3117541  87.82 0.0005653924    1.540    0.351
       109 -11.7919     44.1984    101.3942   9.9288442803e+01   5.1169606984e+01    0.5084382    0.3197451  79.33   0.00180972    2.666    0.625
       110 -11.8813     48.6224     99.6292   9.7307240332e+01   5.1099483113e+01    0.5602714    0.4768321 -38.00 0.0009108264    1.086    0.079
       111 -10.5176     35.8347    103.0236   1.0260650674e+02   5.1629447189e+01    0.2089674    0.1929096   2.84 0.0002555448    1.213    0.176
       112 -10.1769      6.6489    102.8500   1.1276521931e+02   5.3872304065e+01    0.2746376      0.13557  81.60  0.001149092    2.966    0.663
       113 -10.3136     81.5060     99.5595   8.5857133569e+01   4.6459284701e+01    0.2770103    0.1444753 -61.91  0.001036811    2.408    0.585
       114 -12.1751    127.7051    102.1441   7.2556829703e+01   3.6889642423e+01    0.6297979    0.4635779  75.42  0.002715035    1.891    0.471
       115 -11.3316     63.3633     96.0474   9.1162516442e+01   5.0066305720e+01    0.5875525    0.3398857 -82.62  0.001955254    4.021    0.751
       116 -11.5996    160.0400     96.2152   6.2915388921e+01   3.0801156967e+01    0.2954831    0.2763226  22.44 0.0004035858    1.146    0.127
       117 -10.2738     77.0743     97.1867   8.6703616338e+01   4.7735847109e+01    0.2182048    0.1870481 -21.34 0.0002939469    1.177    0.151
       118 -10.2531    124.8787     92.7151   7.0634121833e+01   3.9504877682e+01    0.3086973    0.2084382 -68.63  0.001245835    2.150    0.535
       119 -10.0494      4.3384     91.6686   1.1183519242e+02   5.6671710110e+01      0.12358   0.08832791  69.92 0.0007051911    1.740    0.425
       120  -9.7751    233.3333     90.1065   4.8486704770e+01   1.5705686676e+01    0.1884416    0.1497176 -46.34 0.0003152198    1.087    0.080
       121 -10.7147     34.3442     89.3589   1.0017607075e+02   5.5054524328e+01    0.3418395    0.1249804 -65.48  0.001241761    2.982    0.665
       122 -11.4612     86.9974     87.2928   8.0522533401e+01   4.8274228215e+01    0.5498255    0.3628457  77.70  0.002005606    3.328    0.700
       123 -10.0660     74.1199     87.9760   8.5135406131e+01   5.0306393909e+01    0.2133754    0.1923319 -18.06 0.0003324828    1.061    0.058
       124  -9.9925     79.5308     87.5373   8.3125883364e+01   4.9517043851e+01    0.1480797    0.1369397 -22.50 3.685225e-05    1.005    0.005
       125 -10.3575     43.8877     86.8204   9.5931538207e+01   5.4666210707e+01     0.223012     0.174304 -10.22 0.0005858525    1.367    0.269
       126 -11.8000     45.0786     82.4812   9.4340057689e+01   5.5527009829e+01    0.4659076       0.3273  60.95 0.0005288483    2.132    0.531
       127 -11.2038    104.7220     82.6818   7.3445035651e+01   4.5845287756e+01    0.7844431    0.3828082 -52.84  0.002902034    2.473    0.596
       128 -10.2990     36.6526     83.7748   9.7945532964e+01   5.6130345256e+01    0.2861238    0.1939019  67.26  0.001370515    2.370    0.578
       129 -11.0125     24.0672     78.7643   1.0169872535e+02   5.8406687090e+01    0.5548808    0.2630703 -71.95  0.002346844    2.640    0.621
       130 -10.0029    211.9823     80.2963   4.9248649697e+01   2.1802642983e+01     0.186235    0.1729058 -80.15 0.0003200431    1.077    0.072
       131 -10.9621     61.9378     75.5999   8.5877558828e+01   5.4863205230e+01    0.4860479    0.3022747 -32.45   0.00232653    1.607    0.378
       132 -11.1637     82.2564     72.8945   7.7636452646e+01   5.2131812387e+01    0.4760374    0.3487547  87.80  0.001674952    2.588    0.614
       133 -11.1291     51.8765     70.3971   8.8172225313e+01   5.7347523602e+01     0.401739    0.2728232 -67.16  0.001900573    1.998    0.499
       134 -10.2880    140.7958     83.3439   6.3757637220e+01   3.7772635857e+01    0.3791779    0.1954089 -53.21  0.001401389    2.373    0.579
       135 -10.6500    174.0437    222.0201   8.7362341846e+01   2.2791707375e+00    0.3068046    0.1862497 -58.28  0.001453882    2.381    0.580
       136 -12.7198     42.4902     65.2619   9.0397525960e+01   5.9573589545e+01    0.9287984    0.7140259 -20.13  0.004204472    1.213    0.176
       137 -12.9129     35.6558     57.4015   9.0814823720e+01   6.1939238206e+01    0.9438136    0.4682285 -21.74   0.00402608    2.665    0.625
       138  -9.6374    235.4309     67.5084   4.3205648966e+01   1.8863427765e+01    0.1307792    0.1122709 -55.20 3.294152e-05    1.043    0.041
       139 -11.6226      7.8082     65.8347   1.0541799162e+02   6.2396212067e+01    0.4816234     0.240226  24.04   0.00183252    2.308    0.567
       140 -10.1249    100.3101     65.3954   6.9211208953e+01   5.0083588428e+01    0.2136587     0.172797  24.77 0.0008108944    1.246    0.198
       141  -9.5157    145.0128     63.9967   5.6986277642e+01   4.0218049426e+01    0.1821787    0.1555803  56.27 0.0003556351    1.137    0.121
       142 -13.4190     28.5055     61.2170   9.5147968903e+01   6.1867677927e+01    0.7556922     0.525604 -62.41 0.0006170657    1.594    0.373
       143 -11.0421    130.3752     58.6075   5.8692399967e+01   4.4568937289e+01    0.2686975    0.2435098  47.37 0.0005157691    1.057    0.054
       144 -10.0522     89.2382     59.2896   7.0643685104e+01   5.3393673543e+01    0.2205302    0.1118525 -48.74 0.0008571048    2.353    0.575
       145 -10.0653     72.4936     58.4991   7.6216610033e+01   5.6597253376e+01    0.2484864    0.1297563 -51.60  0.001038566    2.377    0.579
       146 -10.6013    113.1606     49.5964   6.0074148033e+01   4.9935418506e+01    0.3034219    0.2350907 -85.30 0.0008812379    1.837    0.456
       147 -10.1074    124.2818     47.0257   5.6370709391e+01   4.7764712094e+01    0.2612441     0.182703  70.52  0.001011482    1.644    0.392
       148 -10.6138    147.0470     44.9671   5.0747521247e+01   4.2613265429e+01    0.2307376    0.1657838  28.78 0.0006940243    1.695    0.410
       149 -11.2464     38.4987    243.6193   1.1861154341e+02   1.7887051415e+01    0.2666627    0.2086541 -86.94 0.0009358793    1.251    0.201
       150 -10.6239     81.4637     38.1904   6.5379977697e+01   5.8287983033e+01    0.2932172    0.2630714  50.35  0.001775484    1.285    0.222
       151 -11.0221    145.1578     36.5204   4.8507882950e+01   4.4193340402e+01    0.2893165    0.2366663  65.51 0.0006670441    1.135    0.119
       152  -9.5422    188.5397     33.9553   4.1012776373e+01   3.4022393753e+01     0.162591    0.1169592  12.72 0.0005383903    2.238    0.553
       153 -11.2925     37.2157    237.8099   1.1846368089e+02   1.9195158861e+01    0.5425151    0.1761058  58.20  0.002234133    3.231    0.690
       154 -12.0237      2.0781     29.8444   9.7902710422e+01   6.9978460263e+01    0.3555742    0.1549874 -49.15  0.001198264    1.793    0.442
       155 -10.4410    196.2529     30.5454   3.9210083528e+01   3.2637544195e+01    0.2289136     0.176753  68.75 0.0007477662    1.248    0.199
       156  -9.5418    186.5077     28.5272   3.9880193245e+01   3.5169354933e+01    0.1332776    0.1156352 -83.94 2.747873e-05    1.018    0.018
       157  -9.5369    249.9857     27.0133   3.3319267914e+01   2.1490174553e+01    0.1406871    0.1098072 -67.94 0.0003116838    1.026    0.025
       158 -10.6952    176.8770     26.2561   4.0520697318e+01   3.7733059297e+01    0.2227466    0.1839465  87.68 0.0003881698    1.096    0.088
       159 -10.6401     25.8237    237.8060   1.2066605138e+02   2.0457510314e+01    0.2284774    0.1337744  78.13 0.0008249601    1.508    0.337
       160 -13.2784     18.6039    236.0154   1.2193187814e+02   2.1576970873e+01    0.5648358    0.2405681  48.66  0.001623637    1.868    0.465
       161 -11.0711    209.8783    237.0960   8.2668765459e+01  -5.5308018338e+00    0.2312491    0.1949282  73.20  0.001369145    2.329    0.571
       162  -9.6423    123.5291     23.4708   4.8548196788e+01   5.0921300438e+01    0.1364218     0.118904  47.85 0.0001166919    1.045    0.043
       163  -9.9314      2.8804    234.8756   1.2479120516e+02   2.3345207421e+01     0.155774   0.09497745  63.41 0.0003823419    1.263    0.208
       164  -9.8612     26.6543     21.9985   8.1460514448e+01   6.9199124076e+01    0.1674128    0.1254858 -18.07 0.0003975534    1.095    0.087
       165  -9.6572    193.4323     21.4680   3.7296388182e+01   3.4366540549e+01    0.1284245    0.1107748 -83.10 9.418654e-05    1.013    0.012
       166 -11.1603    196.1628     18.8188   3.6356736448e+01   3.4031229429e+01    0.2174578    0.1968512  82.75  0.000696366    1.142    0.124
       167 -10.6938     31.9119     20.4777   7.8098526894e+01   6.8799936744e+01    0.3021272    0.1881358  15.47  0.001516243    1.509    0.337
       168 -12.2572     90.8499     18.7396   5.4694361964e+01   5.8797667021e+01    0.2724234    0.2230013  48.40 0.0003964198    1.141    0.124
       169  -9.8097      1.4132     17.0668   9.3358713521e+01   7.2246802759e+01      0.16372   0.08794366 -43.97 0.0005468872    1.544    0.352
       170 -11.3715     72.7836    230.7913   1.1059191394e+02   1.6192284614e+01    0.4545239    0.3519889  81.48  0.002827185    1.258    0.205
       171  -9.5923    166.5336    233.4771   9.0781064242e+01   1.4773632484e+00    0.1314737    0.1127857  20.95  0.000284606    1.011    0.011
       172 -10.1669    123.4934    233.0191   9.9903237225e+01   8.3018870136e+00    0.1865001    0.1315352 -54.52  0.001039042    1.614    0.380
       173 -10.1081     61.6466    233.1916   1.1316249402e+02   1.7169442674e+01    0.1836988    0.1360366  52.67  0.001143717    1.142    0.124
       174  -9.6921    108.9977    232.7718   1.0301295723e+02   1.0572799435e+01    0.1783723   0.09646147  36.84 0.0008704438    1.625    0.384
       175 -10.7970    127.3733    230.2698   9.8687831281e+01   8.2217034222e+00    0.2948414    0.1641607 -51.75  0.001036433    2.019    0.505
       176 -11.1310    149.7496    222.6066   9.2670948464e+01   6.0962604808e+00    0.5202073    0.2793046 -51.98   0.00245248    2.131    0.531
       177  -9.9573    134.8557    225.0138   9.6301771509e+01   8.0442148781e+00    0.2155926    0.1561363  80.35  0.001086638    2.036    0.509
       178 -12.1010      2.5885    221.5749   1.2420211942e+02   2.6098331172e+01    0.3479139    0.1878858 -84.93  0.002120568    1.564    0.361
