#   1 NUMBER                 Running object number                                     
#   2 MAG_AUTO               Kron-like elliptical aperture magnitude                    [mag]
#   3 X_IMAGE                Object position along x                                    [pixel]
#   4 Y_IMAGE                Object position along y                                    [pixel]
#   5 X_WORLD                Barycenter position along world x axis                     [deg]
#   6 Y_WORLD                Barycenter position along world y axis                     [deg]
#   7 A_WORLD                Profile RMS along major axis (world units)                 [deg]
#   8 B_WORLD                Profile RMS along minor axis (world units)                 [deg]
#   9 THETA_WORLD            Position angle (CCW/world-x)                               [deg]
#  10 FWHM_WORLD             FWHM assuming a gaussian core                              [deg]
#  11 ELONGATION             A_IMAGE/B_IMAGE                                           
#  12 ELLIPTICITY            1 - B_IMAGE/A_IMAGE                                       
         1 -14.1555     68.6622    144.2891   9.8169955654e+01   3.7475208936e+01     3.710168       1.9753  85.80  0.003108803    3.932    0.746
         2 -12.0396      1.8423     25.6316   9.4514497179e+01   7.0955363816e+01     1.213496    0.1874556 -54.29  0.004003025    5.559    0.820
         3 -11.7772      2.0839      6.4398   8.5989237786e+01   7.4005138792e+01    0.9002672    0.2507324 -47.24  0.003969823    3.682    0.728
         4 -13.2123    201.9063     42.5681   4.0314687836e+01   3.0071997519e+01      1.09699    0.9294809 -43.07  0.004301116    1.235    0.190
         5 -13.5017    212.6681     32.4389   3.6765581698e+01   2.8997711740e+01    0.8880032    0.7919273  30.52  0.001974414    1.578    0.366
         6 -12.0583    241.6183      7.1651   2.9126418839e+01   2.5920104750e+01    0.6250873     0.397316 -27.67  0.003900774    2.000    0.500
         7 -12.3298    235.8951      5.4671   2.9168973530e+01   2.7245126573e+01    0.6325227    0.4581367 -32.30  0.004287148    1.643    0.391
         8  -9.7863     58.6988      7.0131   5.8136647441e+01   6.6290899440e+01    0.1687938    0.1389924  13.84 0.0003641379    1.077    0.071
         9 -10.6477    107.5502    204.0411   9.7685959265e+01   1.6765657563e+01    0.2566392    0.2266573 -86.81  0.001460241    1.186    0.157
        10 -10.5126    139.8196    249.9439   9.6929022185e+01   2.5874778967e+00    0.2991648    0.1550959  38.81  0.001521723    1.637    0.389
        11 -10.5229    129.0323    249.8242   9.9157247451e+01   4.2093092248e+00    0.2800123    0.1802502  47.14  0.001568423    1.448    0.309
        12 -10.5817    103.5065    237.5068   1.0306829906e+02   1.0310704116e+01    0.2580613    0.2095828 -54.65  0.001362562    1.405    0.288
        13 -10.0749    102.0000    249.0234   1.0470455235e+02   8.3125712518e+00    0.2765217    0.1807003 -73.26  0.001039048    1.849    0.459
        14 -11.5426    101.1771    242.8503   1.0418788576e+02   9.6073641661e+00     0.717352    0.4003505 -87.53  0.001412313    2.938    0.660
        15 -12.9695     52.3686    186.1199   1.0885185968e+02   2.8986916283e+01     1.002602    0.8746079 -31.50  0.005932476    1.448    0.309
        16 -14.2451     37.2062    191.9075   1.1318768443e+02   2.9349459182e+01     4.357509     1.590753  65.45   0.01350827    4.860    0.794
        17 -15.3399      6.7521    160.0056   1.1776112697e+02   4.0006413834e+01     7.638685     1.348496 -73.21   0.02418789    4.232    0.764
        18 -16.9411     14.1210    242.3130   1.2175737268e+02   2.0621631338e+01     6.563903     2.296637  24.19   0.02676346    4.545    0.780
        19 -10.3031    122.4667    199.1818   9.3354805237e+01   1.5400088540e+01    0.3707142    0.2621453 -77.80  0.001170507    1.805    0.446
        20 -10.8841    191.9681    192.7775   7.6539329278e+01   4.7395131079e+00     0.637953     0.353425 -66.12  0.001977446    5.297    0.811
        21  -8.2084     67.6350    198.2800   1.0654842359e+02   2.4063156969e+01    0.1478371   0.09182885  62.31 0.0007013275    1.680    0.405
        22  -8.8049     24.9503    197.2907   1.1653574631e+02   2.9363911294e+01    0.2669665    0.1426821  51.75 0.0006242759    1.730    0.422
        23  -9.2826     21.0500    195.0737   1.1724563440e+02   3.0273063971e+01    0.4450404    0.1720514  28.01  0.001988695    2.832    0.647
        24  -9.5694     58.6979    196.0082   1.0844585301e+02   2.5789301062e+01    0.2109944    0.1909042  40.10  0.000287259    1.210    0.174
        25  -8.6169     82.7903    194.3932   1.0232545288e+02   2.2836205762e+01    0.1918326     0.135671  22.95 0.0009065784    1.652    0.395
        26  -9.7304    148.4646    189.9401   8.5574569860e+01   1.2911344241e+01    0.2972893    0.2291751  81.61  0.001416661    1.849    0.459
        27  -9.4574    146.4869    185.9520   8.5293527203e+01   1.4131203793e+01    0.2625508    0.2417284 -38.23 0.0007747975    1.102    0.092
        28 -10.2142    118.0841    190.1392   9.2912166647e+01   1.8189328466e+01    0.3708695    0.2094292 -71.75  0.001465433    2.468    0.595
        29  -9.0874     84.6594    185.3239   1.0054925259e+02   2.4742853721e+01    0.2958485    0.2268641 -89.21  0.001522134    1.383    0.277
        30 -10.3412     81.2702    182.0133   1.0092527533e+02   2.6062265054e+01    0.5562819     0.389394  88.43  0.002690085    1.625    0.384
        31  -9.9116     99.3551    181.0280   9.6097723561e+01   2.3477525261e+01    0.2699063    0.2450936  37.51 0.0006659493    1.122    0.109
        32 -10.2897     39.7205    176.0246   1.1089001695e+02   3.2967086272e+01    0.4866811    0.2216946 -47.10  0.001893694    2.632    0.620
        33 -10.3095    186.6846    174.7650   7.4059364829e+01   9.1622284405e+00    0.3739886    0.3572728 -80.69  0.001165875    1.267    0.211
        34  -9.3285     90.4940    175.5018   9.7490805515e+01   2.6254996923e+01    0.2546295     0.142679 -74.10 0.0009741441    2.163    0.538
        35 -13.5399     79.2912    158.1020   9.7576894397e+01   3.2372237278e+01     3.805146     1.186056  52.37  0.002280951    7.866    0.873
        36 -11.6118    115.7947    245.7100   1.0142720972e+02   6.9188687131e+00    0.5536079    0.3186643 -51.92  0.002942755    2.000    0.500
        37  -9.7291     43.4714    176.4978   1.0998029046e+02   3.2427987833e+01    0.2232136    0.1320556  31.97  0.001041194    1.806    0.446
        38  -9.1346     34.7253    171.6449   1.1168562139e+02   3.4599598898e+01    0.3397577    0.1670966  57.65  0.001375543    2.245    0.555
        39 -10.2493    240.1720    169.1695   6.2838287019e+01   1.1718053367e+00    0.1736788    0.1465946 -46.67 0.0004195294    1.314    0.239
        40  -8.2221    193.3020    169.6852   7.1634898968e+01   8.9740234470e+00    0.1372738    0.1167306 -80.95 0.0003913188    1.616    0.381
        41  -9.0425    110.9606    167.9577   9.0748422840e+01   2.4694342181e+01     0.249413    0.1841084  77.24 0.0007844053    1.724    0.420
        42 -11.6169     87.4705    152.2775   9.4192295260e+01   3.2582501008e+01    0.6519081    0.4680705 -23.22  0.002076922    1.867    0.464
        43 -10.4900    133.8804    145.6032   8.0067298075e+01   2.5784041236e+01     1.071589    0.2949643 -55.14  0.002538978    5.287    0.811
        44  -8.4554    112.1821    150.4096   8.6903152980e+01   2.8783998939e+01    0.2108368    0.1440725  49.77 0.0003871704    1.548    0.354
        45 -11.5234     56.1150    146.9429   1.0235259133e+02   3.8463737507e+01    0.6413817    0.5785394  42.90  0.003681505    1.194    0.162
        46 -10.7075     30.4741    145.0565   1.0960120577e+02   4.1778162792e+01     0.339041    0.2112374 -55.86  0.001626358    1.455    0.313
        47  -9.3402    174.8630    149.1252   7.1082765393e+01   1.6722705850e+01    0.2325477    0.2094233 -73.08 0.0005742962    1.265    0.210
        48 -10.5903    101.7873    138.2511   8.7183620432e+01   3.3685957464e+01    0.5725524    0.3644199 -18.86  0.002142551    2.608    0.617
        49 -10.1832    105.9223    131.0371   8.4343609649e+01   3.4712578645e+01    0.5121267    0.3614609 -60.64   0.00230521    1.468    0.319
        50  -9.6551    110.9745    129.3504   8.2493800967e+01   3.4169983183e+01    0.3357142    0.2600917   0.89 0.0009012031    1.695    0.410
        51 -11.5495     88.9539    137.7918   9.0835924464e+01   3.6019510720e+01    0.3078046    0.2672559 -39.83  0.000396573    1.172    0.147
        52 -12.6744     68.2986    154.0052   9.9991661029e+01   3.5022425487e+01    0.5990465    0.3957397 -49.13  0.001046299    1.507    0.337
        53 -11.5161     67.2846    171.6257   1.0306318836e+02   3.0661854704e+01    0.4860597    0.3227117 -30.73  0.002216927    2.101    0.524
        54 -11.0219     43.7770    129.4045   1.0315168780e+02   4.4439068507e+01    0.3316493    0.2677111  42.76  0.001844636    1.362    0.266
        55 -10.0613    134.9835    128.6490   7.5772579666e+01   2.9521644218e+01    0.3180634    0.2767408 -25.59  0.001428791    1.222    0.182
        56 -11.5059     71.5335    167.0620   1.0121869601e+02   3.1224853523e+01    0.4696716    0.3331806 -48.49  0.001651359    1.463    0.317
        57 -13.4678     18.4022    218.7163   1.1953050514e+02   2.5151538596e+01     0.788629    0.6077691 -24.52  0.004892291    2.129    0.530
        58  -8.7148    160.5417    127.4989   6.9219011734e+01   2.4354469944e+01    0.1555216    0.1493309 -48.05 0.0001851795    1.015    0.015
        59 -10.3459     98.1683    125.0099   8.5194833869e+01   3.7611402721e+01    0.3300023    0.2669226  -7.33  0.000711105    1.518    0.341
        60  -9.7665    117.1840    123.6214   7.9335465402e+01   3.4329468119e+01    0.2936582    0.1556931  28.77  0.001027257    2.444    0.591
        61  -8.8925     84.5993    118.6127   8.7829422563e+01   4.1538680632e+01    0.2972538     0.210426  73.25 0.0009884875    2.013    0.503
        62 -10.3933     32.6675    118.8071   1.0490810265e+02   4.8267097615e+01    0.2281859    0.1444223 -50.96 0.0007192069    1.398    0.285
        63  -9.0955    107.4477    118.1904   8.0760363031e+01   3.7526058200e+01     0.234541    0.2070415  19.25 0.0003698195    1.223    0.182
        64  -9.9234    231.2970    113.7728   5.2651155797e+01   1.2449221062e+01     0.275354    0.2253013 -45.36 0.0007467205    1.051    0.049
        65  -9.0690    135.0000    113.0086   7.1780224014e+01   3.3058428812e+01    0.2674286   0.08835709 -45.15 0.0006152497    2.963    0.663
        66 -11.2295     33.4945    109.1208   1.0285528639e+02   5.0613961874e+01     0.483417    0.2348124 -64.74  0.002156119    1.833    0.455
        67 -10.0623    244.0000    110.5023   5.0132650119e+01   1.0669841176e+01    0.3034614   0.06467548 -39.41 0.0009336172    3.926    0.745
        68  -9.2571    205.3424    110.2506   5.6019591127e+01   1.8246718879e+01    0.2850744    0.2052976  45.40   0.00111594    1.553    0.356
        69  -9.7329    115.2048    108.7981   7.6051785593e+01   3.8168854740e+01    0.4102948    0.1759838 -39.37  0.001390515    2.546    0.607
        70  -9.7598     40.0137    113.5156   1.0146170277e+02   4.8870575053e+01     0.193927    0.1385909  27.47 0.0006299279    1.568    0.362
        71 -10.3163     35.6863    100.7753   1.0038883878e+02   5.2452611594e+01    0.2935947    0.2348568  68.80  0.001418543    1.551    0.355
        72  -9.9346    121.1308     99.1136   7.1710790083e+01   3.9073513491e+01    0.2430153    0.2160704  -3.66 0.0007461234    1.243    0.196
        73  -8.7117    159.3555     83.2763   5.7906808969e+01   3.3577076381e+01    0.1506786     0.117757  21.77 0.0006423779    1.650    0.394
        74  -8.3862    150.7380     82.7669   5.9631163451e+01   3.5686007653e+01    0.2326121    0.1240383  64.99 0.0008660554    2.380    0.580
        75  -8.5715    109.4800     79.4930   6.9222567631e+01   4.5588400269e+01    0.1472732    0.1454245   3.39 7.030179e-05    1.034    0.033
        76  -8.9560     53.4812     65.0302   8.3869163586e+01   5.8398672534e+01    0.1933896    0.1711057   3.41  0.001165064    1.100    0.091
        77 -11.2424      2.2006     60.4239   1.0482668929e+02   6.4150951507e+01    0.7377673    0.1874255 -64.22  0.002799715    3.431    0.709
        78 -11.1115      1.9838     47.4815   1.0158815710e+02   6.6842877026e+01     0.925698   0.07683244 -60.32  0.002475013    7.279    0.863
        79 -10.7985    119.9916    244.9744   1.0045014252e+02   6.4320309427e+00    0.2555945    0.2100813  50.17 0.0008087144    1.137    0.120
        80  -8.8140     88.5364    209.9404   1.0302265201e+02   1.8375454865e+01    0.1951548    0.1329178 -66.80 0.0004644673    1.522    0.343
        81 -10.6510    124.6417    245.1871   9.9493604058e+01   5.6985527063e+00    0.3793374     0.118954 -53.96  0.001487489    3.599    0.722
        82  -9.1037     33.6885    206.2105   1.1530688203e+02   2.6364186351e+01    0.3927691    0.1199248  50.50  0.001519403    3.126    0.680
        83 -10.4892     13.4685     59.8479   9.9574834039e+01   6.3605329759e+01    0.2505329    0.1979918 -52.20 0.0004278732    1.176    0.150
        84  -8.9136    189.5148     14.9518   3.5063444881e+01   3.6248561624e+01    0.1752702    0.1191171 -36.58 0.0006127491    1.559    0.358
        85  -8.7721    198.3162     23.4904   3.6186800576e+01   3.3287066672e+01     0.203192     0.110707 -34.65 0.0006919389    1.893    0.472
        86 -14.5973      9.5033    207.4062   1.2065972184e+02   2.8521580073e+01     1.074906    0.9815366 -26.65  0.005859868    1.579    0.367
        87 -10.2829    111.0476    203.4980   9.6768303297e+01   1.6323637837e+01    0.2603843     0.205549  74.63 0.0004412695    1.433    0.302
        88 -12.8579    191.8549     49.9042   4.3405899327e+01   3.1353507602e+01     0.958819    0.7412898  45.89  0.001123975    1.525    0.344
