#   1 NUMBER                 Running object number                                     
#   2 MAG_AUTO               Kron-like elliptical aperture magnitude                    [mag]
#   3 X_IMAGE                Object position along x                                    [pixel]
#   4 Y_IMAGE                Object position along y                                    [pixel]
#   5 X_WORLD                Barycenter position along world x axis                     [deg]
#   6 Y_WORLD                Barycenter position along world y axis                     [deg]
#   7 A_WORLD                Profile RMS along major axis (world units)                 [deg]
#   8 B_WORLD                Profile RMS along minor axis (world units)                 [deg]
#   9 THETA_WORLD            Position angle (CCW/world-x)                               [deg]
#  10 FWHM_WORLD             FWHM assuming a gaussian core                              [deg]
#  11 ELONGATION             A_IMAGE/B_IMAGE                                           
#  12 ELLIPTICITY            1 - B_IMAGE/A_IMAGE                                       
         1 -13.6502    209.6070      2.7087   5.4524673429e+01   3.3180058255e+01     1.426342     0.365831  66.31  0.004829785    3.023    0.669
         2 -15.1902    187.0551     31.9550   6.3435764434e+01   3.5008706282e+01     2.474211     1.663427  17.10   0.01176116    2.902    0.655
         3 -10.0921     10.3738    213.6491   1.4351371310e+02   2.8057327167e+01    0.1257208    0.1112142  39.21 0.0008959804    1.481    0.325
         4 -19.4293     31.9142    144.5936   1.3119958245e+02   4.2376544950e+01     20.89165     6.529399 -71.20   0.07226144    3.341    0.701
         5 -10.6218     51.9085    208.6951   1.3441374101e+02   2.4472667456e+01    0.1737967    0.1416335  66.36 0.0003083861    1.109    0.098
         6 -10.7781    159.0293    205.3796   1.0938093488e+02   7.5202624540e+00     0.388142    0.2322911  61.58  0.001419445    2.362    0.577
         7 -10.6140     93.8477    205.4449   1.2445892436e+02   1.9096888432e+01    0.3423243    0.2553542 -33.19  0.001333673    1.839    0.456
         8 -10.0142    163.7126    204.7403   1.0821916884e+02   6.7859747116e+00    0.2301201    0.1796308 -46.74 0.0004430038    1.330    0.248
         9 -10.2044     88.4901    203.3859   1.2541429672e+02   2.0441106372e+01    0.3668598    0.2297654  66.30  0.001705127    1.779    0.438
        10 -12.5947     44.6312    203.4866   1.3545644037e+02   2.6612676129e+01    0.2421044    0.1989344  76.66 0.0006430544    1.054    0.051
        11 -10.2070    210.0984    199.8656   9.7479344665e+01  -6.2800685145e-01    0.1931314    0.1885421 -53.05 0.0003480289    1.208    0.172
        12 -12.4308    193.8323    193.2229   9.9497139770e+01   3.5575963196e+00     0.954793    0.5876476 -59.50  0.003554641    2.126    0.530
        13 -11.2080    140.1812    200.3362   1.1277310384e+02   1.2125215806e+01    0.3078482    0.1366382  32.27  0.001094791    2.631    0.620
        14 -11.2496    121.4135    199.2336   1.1698568763e+02   1.5816903067e+01    0.2890649    0.1375185 -51.41  0.001149085    2.154    0.536
        15 -10.5806    154.1749    195.9122   1.0873340622e+02   1.0470742242e+01    0.2893668    0.2037938  61.90  0.001326252    1.695    0.410
        16 -10.5518     81.8601    195.2649   1.2581582242e+02   2.3419798884e+01    0.3646203    0.3040326  29.53   0.00201095    1.394    0.283
        17 -11.1726     75.9852    182.9679   1.2542650774e+02   2.7319761610e+01    0.3599636    0.3141994  74.16 0.0007602842    1.082    0.075
        18 -11.5425     66.3678    195.1447   1.2948596469e+02   2.5738025955e+01     0.248203    0.1931304  65.76 0.0005329038    1.215    0.177
        19 -13.1926     73.0740    190.5877   1.2725914852e+02   2.5879650838e+01    0.8258662    0.7471114  -3.99  0.003317133    1.468    0.319
        20 -10.8833    105.2172    194.0352   1.1999655191e+02   1.9895242807e+01    0.2712962    0.2114743  58.76 0.0007980223    1.261    0.207
        21 -10.5649     99.5514    192.0373   1.2104570924e+02   2.1339907236e+01    0.2654544    0.1869965  58.38 0.0004464955    1.443    0.307
        22 -12.0747    109.0662    189.7310   1.1834190469e+02   2.0255466490e+01    0.3660138    0.2783618   6.16  0.001706714    1.915    0.478
        23 -10.4942     59.8596    188.6669   1.3017985721e+02   2.8210494742e+01    0.2851696    0.1732847 -59.90 0.0008169053    1.551    0.355
        24 -10.3522    167.0615    187.9150   1.0426073877e+02   9.7406565271e+00    0.3414177     0.216901 -56.55  0.001043738    1.738    0.425
        25 -11.8835    110.5082    183.2767   1.1686270314e+02   2.1556285622e+01    0.3071074    0.2696055  -5.29  0.001530091    1.440    0.306
        26 -11.5639    207.2102    179.8890   9.4074737449e+01   3.7444714577e+00    0.6514097    0.3925257  22.34  0.002773328    2.247    0.555
        27  -9.5722    176.3233    241.0792   1.1176335478e+02  -2.4296150825e+00    0.1749588    0.1229963 -59.19 0.0009266362    1.848    0.459
        28 -11.5517    143.8672    178.7979   1.0784157633e+02   1.6333449814e+01    0.3769923    0.1997662  47.75  0.001493118    1.926    0.481
        29 -11.6731    142.9861    171.6615   1.0661110495e+02   1.8171955279e+01    0.6422302    0.3967353 -86.29  0.002179007    3.232    0.691
        30 -10.7243    146.3712    167.8468   1.0499941160e+02   1.8385221849e+01     0.314568    0.2426845 -18.10   0.00107999    1.685    0.407
        31 -11.6769    195.8833    169.8264   9.4282835806e+01   7.9467090589e+00     0.523022    0.3773283 -48.10  0.001994283    1.362    0.266
        32 -10.6713    193.3992    164.3724   9.3635538447e+01   9.5781877901e+00    0.3766085    0.3439974  68.18  0.001756202    1.215    0.177
        33 -11.9156     70.8407    228.6827   1.3252523034e+02   1.7331450901e+01    0.2336374    0.1933275  73.26 0.0004494578    1.017    0.017
        34 -11.1840    131.7528    172.4285   1.0952161551e+02   2.0203473564e+01    0.3110084    0.1449095  44.57  0.001150863    2.139    0.532
        35 -11.2071    137.2886    170.8069   1.0782721469e+02   1.9503942855e+01    0.2738024    0.2622487  -9.77 0.0007580448    1.142    0.124
        36  -9.8457    110.9940    168.4561   1.1398769964e+02   2.5091445353e+01     0.228496    0.1492586  41.43 0.0006277236    1.545    0.353
        37 -11.2628     99.5470    180.7026   1.1915160847e+02   2.4099023779e+01    0.2743715    0.2662298 -49.03 0.0006001224    1.148    0.129
        38 -10.6604      4.5774    228.7746   1.4562469060e+02   2.5342933067e+01   0.09501938   0.08493485 -47.69 0.0006866046    1.697    0.411
        39 -11.1890    140.7024    157.3668   1.0414498612e+02   2.2002518782e+01     0.288269    0.2595865 -85.53 0.0006385559    1.172    0.147
        40 -12.6551     98.6309    154.9095   1.1457512845e+02   3.0658919602e+01    0.7329532    0.4737987 -36.37  0.003161685    1.861    0.463
        41 -11.2860    165.2128    153.1567   9.7341380235e+01   1.7856099808e+01    0.4064794     0.285419  80.20  0.001661919    2.119    0.528
        42  -9.7497     68.8683    217.8741   1.3172977106e+02   2.0035525164e+01    0.2142032    0.1342973  68.41  0.001058992    1.606    0.377
        43 -11.4085    149.3194    149.6794   1.0031647221e+02   2.2014672837e+01    0.3247878    0.2329928  65.07  0.001183836    1.666    0.400
        44 -11.4912    146.5176    147.4945   1.0050381645e+02   2.3113055037e+01    0.2916949    0.2811761 -62.30 0.0007522005    1.017    0.017
        45 -11.1129    134.3943    148.2213   1.0370157722e+02   2.5464285417e+01    0.4423672    0.2640712 -60.39  0.001416681    1.864    0.463
        46 -11.5715    133.4398    142.5803   1.0265813821e+02   2.6998244499e+01    0.7930427    0.2806144 -57.01  0.002212804    3.799    0.737
        47 -10.8076    174.4759    148.9108   9.4288634074e+01   1.6832998510e+01    0.3236504    0.2779861 -84.83 0.0009640167    1.326    0.246
        48 -12.0867    109.0645    140.3496   1.0862596692e+02   3.2356546768e+01    0.5541458    0.3281982 -37.10  0.002234318    1.969    0.492
        49 -12.3550     97.6794    140.2868   1.1176985686e+02   3.4444086741e+01     0.288026    0.2786016   7.06   0.00034695    1.126    0.112
        50 -10.6155    142.1834    138.8191   9.9564343511e+01   2.6046937385e+01    0.2249795    0.1941144 -15.42  0.001045684    1.366    0.268
        51 -11.2753    106.0897    130.7252   1.0723668155e+02   3.5234183956e+01    0.3968961    0.3266496 -69.30  0.001269962    1.285    0.222
        52 -11.3752    103.7301    126.8399   1.0698118550e+02   3.6598055327e+01    0.3060584    0.2714198 -16.51  0.000682636    1.257    0.204
        53 -12.2871    117.0908    129.9250   1.0400059248e+02   3.3304391178e+01    0.5770673    0.4124833  23.52  0.002349271    1.718    0.418
        54 -12.1685    136.1507    124.9625   9.7736954123e+01   3.0514487404e+01    0.8767141    0.3362319 -47.36  0.002917467    2.576    0.612
        55 -10.5827    111.1635    119.1794   1.0299877525e+02   3.6970965068e+01    0.2647001    0.2435404   6.74 0.0003976443    1.184    0.155
        56 -10.5921    168.2825    113.0513   8.7106612830e+01   2.5934895263e+01    0.3926293    0.2735636 -73.70  0.001103738    1.875    0.467
        57 -11.0053    160.5175    127.5773   9.2440095174e+01   2.4588368064e+01    0.4289639    0.2895732 -67.77  0.001548226    1.868    0.465
        58 -10.3529    205.6367    110.1284   7.9038256312e+01   1.8086324892e+01    0.2651038    0.2170892  51.21 0.0006685821    1.316    0.240
        59 -12.6786     59.3210    214.2623   1.3340352138e+02   2.2196987062e+01    0.4075232    0.2646984  57.06 0.0005308473    1.419    0.295
        60 -12.5585     65.5434    210.6004   1.3161060208e+02   2.2183832070e+01    0.5561095    0.4066021  29.04  0.001579529    1.650    0.394
        61 -12.8355     63.8368    204.3335   1.3124039811e+02   2.3894110789e+01    0.5860094    0.3509511 -46.85  0.001485131    2.063    0.515
        62 -10.1470     97.5803    213.2720   1.2471767046e+02   1.6679804862e+01    0.2934417     0.180192  40.18  0.001417047    1.566    0.362
        63  -9.7588    152.5021     79.9351   8.1924204064e+01   3.6018016465e+01    0.2168548    0.1463665 -40.73 0.0006031428    1.529    0.346
        64 -10.0426     65.3020    232.8465   1.3412247041e+02   1.7210618228e+01    0.2337642    0.1349329 -45.51  0.001013155    2.519    0.603
        65 -12.3835    170.4566     69.9093   7.5597685533e+01   3.3493846668e+01    0.5057321    0.3208044 -86.02  0.001141106    2.233    0.552
        66  -9.3530    107.5560     62.5179   8.7932183332e+01   4.8957756481e+01    0.1374327     0.129785  26.36 6.085708e-05    1.027    0.026
        67 -10.1208    249.3224    249.6749   9.9109293182e+01  -1.4512921388e+01   0.09735891    0.0959394  41.08 0.0004418833    1.685    0.406
        68 -13.7119    172.5523     46.9117   6.9276791367e+01   3.6470740884e+01    0.6384264    0.5973889  31.64 0.0007853704    1.288    0.224
