#   1 NUMBER                 Running object number                                     
#   2 MAG_AUTO               Kron-like elliptical aperture magnitude                    [mag]
#   3 X_IMAGE                Object position along x                                    [pixel]
#   4 Y_IMAGE                Object position along y                                    [pixel]
#   5 X_WORLD                Barycenter position along world x axis                     [deg]
#   6 Y_WORLD                Barycenter position along world y axis                     [deg]
#   7 A_WORLD                Profile RMS along major axis (world units)                 [deg]
#   8 B_WORLD                Profile RMS along minor axis (world units)                 [deg]
#   9 THETA_WORLD            Position angle (CCW/world-x)                               [deg]
#  10 FWHM_WORLD             FWHM assuming a gaussian core                              [deg]
#  11 ELONGATION             A_IMAGE/B_IMAGE                                           
#  12 ELLIPTICITY            1 - B_IMAGE/A_IMAGE                                       
         1 -11.7207    249.0381     75.2377   2.3396230980e+01   1.5174249839e+01     1.729228    0.3098146 -39.57  0.005522904    3.736    0.732
         2  -9.6989    247.7389     16.0957   1.1145711160e+01   2.2732774484e+01    0.7586524    0.1346959 -52.90  0.002517126    5.102    0.804
         3  -7.4826     83.0019      9.2838   2.9928518698e+01   6.2385788665e+01    0.1825849    0.1336858 -46.09 0.0005191116    1.624    0.384
         4  -8.5599    237.5816      5.2399   9.4680019371e+00   2.5855586809e+01    0.1451983     0.104194 -25.64  0.000944861    1.606    0.378
         5  -7.9535     99.0122      3.6890   2.3580797094e+01   5.9027943865e+01    0.1832589    0.1523266  61.92 0.0002480778    1.050    0.048
         6  -7.7010    105.9023    233.1812   8.0871185130e+01   1.2564776030e+01    0.1970709    0.1447451  49.43 0.0009308047    1.266    0.210
         7 -10.3918    248.1558    248.2875   5.5732601087e+01  -8.0079903181e+00    0.5119388    0.2639839  27.45  0.003439105    1.719    0.418
         8 -10.0592     95.4576    249.3934   8.4763687092e+01   1.1148994788e+01    0.2141418    0.1908389  32.08 0.0005753717    1.156    0.135
         9  -7.5728     46.2052    249.9992   9.4983809085e+01   1.7086385109e+01    0.1335997    0.0865816 -82.33 0.0005563714    1.721    0.419
        10  -7.0017      5.2689    228.3174   1.0229280658e+02   2.5375383058e+01   0.09528213    0.0830326 -58.16 0.0002056641    1.557    0.358
        11  -7.2427    144.4139    219.4825   7.0723295988e+01   9.3746584098e+00    0.1291022    0.1100115  22.22 6.140743e-05    1.019    0.019
        12  -7.6264     47.4180    212.7311   9.2162018964e+01   2.4242552078e+01    0.1594085    0.1119292 -63.90 0.0009413579    1.595    0.373
        13  -6.9699     53.5226    210.4402   9.0542825169e+01   2.4003741970e+01    0.1246818    0.1102495  51.52 0.0001779981    1.092    0.084
        14  -7.0372     28.4698    209.4929   9.6322217815e+01   2.7017537107e+01     0.118544     0.104981  63.73 0.0008069713    1.124    0.110
        15 -10.3284    124.0004    206.0013   7.3324528154e+01   1.4968164284e+01    0.1922684    0.1680403  31.20            0    1.008    0.008
        16  -7.2690     82.7654    201.3905   8.2562074830e+01   2.2102405835e+01    0.1707022    0.1206361  24.86 0.0001438936    1.459    0.315
        17  -9.5259    133.6521    187.3170   6.8146538848e+01   1.7094406837e+01    0.2433868    0.2313702   9.40 0.0002441221    1.065    0.061
        18  -7.5278    139.4705    185.0443   6.6392152262e+01   1.6565993274e+01    0.1949667    0.1399422 -47.72 0.0006092733    1.510    0.338
        19  -7.2341     11.6523    181.2949   9.8634146853e+01   3.4927817716e+01    0.1372802   0.07233129  57.47 0.0002539526    1.673    0.402
        20  -7.6213     76.7755    174.9707   8.0713046934e+01   2.8917364754e+01    0.1844905    0.1694513  79.39  0.001071033    1.070    0.066
        21  -6.9953    195.3174    166.2809   5.0880415304e+01   1.0411744235e+01    0.1364167   0.09763596   1.61 0.0002341637    1.579    0.367
        22  -7.7457    220.7259    163.7075   4.5796711547e+01   6.6693476214e+00    0.1564588    0.1440586 -39.19 0.0006710253    1.309    0.236
        23  -7.3332     42.0717    158.4497   8.8375204288e+01   3.7463201778e+01    0.1826431    0.1337181  26.90  0.000452418    1.454    0.312
        24  -7.2371     86.9810    150.7027   7.3996903647e+01   3.3190373609e+01     0.173039     0.130954  35.68 0.0003299645    1.296    0.228
        25  -8.6773    146.8934    142.6851   5.6277518924e+01   2.3936884096e+01    0.3302148    0.2434973 -37.60  0.001262032    1.390    0.280
        26  -9.7754     31.5572    133.8782   8.8628612142e+01   4.4824213871e+01    0.5149138    0.2844785 -38.00 0.0008785877    2.286    0.562
        27  -9.5312     44.9236    132.6829   8.4060637345e+01   4.3695233714e+01    0.4250518     0.192657 -61.49  0.001767547    2.010    0.502
        28  -9.7159     39.2428    133.9603   8.6118969784e+01   4.4006218129e+01    0.3107477    0.2186677  53.64  0.001601067    1.444    0.307
        29  -7.0649    125.4379    126.5730   5.7998959339e+01   3.1784672419e+01    0.1538782    0.1472398   4.50 0.0001114782    1.085    0.078
        30  -7.4042    129.7603    121.2349   5.5553049107e+01   3.2072961256e+01    0.2458788    0.1239946  32.56 0.0005470171    2.429    0.588
        31  -7.1461     64.6825    121.2788   7.5398437994e+01   4.4031257172e+01    0.1510191    0.1102964  65.72            0    1.575    0.365
        32  -9.4244     53.6728    119.2675   7.8798016144e+01   4.6072023734e+01     0.250719    0.2422351 -63.51 0.0001776501    1.044    0.042
        33  -9.9834    246.9545    106.6405   3.0229292893e+01   1.1079717425e+01    0.4002365    0.2665111  58.42  0.002269777    1.864    0.464
        34  -7.1049    169.0215    103.9990   4.1994749565e+01   2.6991275451e+01    0.1712276    0.1675301  58.58 -0.005334738    1.053    0.051
        35  -8.1247    187.3840     99.1402   3.7293995314e+01   2.3827458056e+01     0.238016    0.1927878  42.57 0.0006270615    1.336    0.252
        36  -8.1032    160.8802     97.1484   4.1883606820e+01   3.0110810375e+01    0.2503181    0.2102363 -42.10 0.0004696622    1.166    0.142
        37  -9.9256    250.2285     96.2140   2.7667726006e+01   1.2027417985e+01    0.6830875    0.3097309 -46.27    0.0027135    1.987    0.497
        38 -11.5567    220.1206     91.8460   3.0466588065e+01   1.8219344560e+01     2.152235     1.020612  44.31  0.009513716    2.616    0.618
        39  -9.9045    247.6999    239.6403   5.4509560316e+01  -7.0197073278e+00    0.3433475    0.1814716 -43.37   0.00199062    2.964    0.663
        40  -9.6130    250.5724     68.2233   2.1770086752e+01   1.5848450344e+01    0.7387247    0.1199786 -39.01  0.002503011    3.864    0.741
        41 -10.7347    236.3183     88.7611   2.7705994539e+01   1.5581721612e+01    0.5998926    0.4018291  43.97  0.002279106    1.838    0.456
        42 -11.3626    247.6420     86.9321   2.6011579907e+01   1.3794761018e+01    0.8789846    0.6777804  20.69  0.005072698    1.809    0.447
        43  -8.1973    198.3133     96.8868   3.4895613777e+01   2.1871187222e+01    0.2649447     0.206474  48.22  0.001370397    1.395    0.283
        44  -8.7077    204.7328     95.7365   3.3605520422e+01   2.0717560747e+01    0.3607298     0.194252  63.79  0.001601285    2.275    0.560
        45  -8.8824    179.2749     90.6100   3.6572635860e+01   2.7103660663e+01    0.3707564    0.2920996 -29.40  0.001076476    1.304    0.233
        46  -8.4285    198.9035     85.7225   3.2070962663e+01   2.3576833699e+01    0.2231926     0.182191 -40.12 0.0004026776    1.132    0.116
        47  -7.5332    211.6413     82.7462   2.9502635369e+01   2.1342586112e+01    0.1678518    0.1618035 -31.93 0.0008143071    1.120    0.107
        48  -8.2282    125.5985     83.1115   4.6181907241e+01   4.1023636674e+01    0.2469769    0.2016175  61.57 0.0004415951    1.264    0.209
        49  -7.4015    183.2980     78.3059   3.2665151078e+01   2.8259991186e+01      0.13857    0.1132238  14.93 0.0002668399    1.589    0.371
        50  -9.8586    237.1635     76.9417   2.5020662325e+01   1.7126602013e+01    0.2626042     0.190418 -75.17  0.001053913    1.588    0.370
        51  -8.7979     96.7612     69.9893   5.0359549714e+01   5.0135947300e+01    0.2398804    0.2099202  42.35 0.0003489173    1.119    0.107
        52  -9.8179    236.2704     68.0099   2.3153408213e+01   1.8547591542e+01    0.2370778    0.1852836  64.02  0.001492435    1.468    0.319
        53  -7.2380    165.1559     64.6125   3.2018517168e+01   3.4760555356e+01    0.1863531    0.1321734  50.50 0.0001760217    1.460    0.315
        54  -9.2958    233.7837     58.4883   2.1299498049e+01   2.0329846547e+01    0.2777938    0.1697983 -14.41  0.001360973    2.404    0.584
        55  -9.7835    245.8247     50.8776   1.8536634958e+01   1.8996243322e+01    0.3022596    0.1905903  -5.91   0.00145158    2.900    0.655
        56  -9.5725    249.7913     55.5259   1.9176711383e+01   1.7659824842e+01    0.3302931    0.1886635 -34.08  0.001354252    1.527    0.345
        57  -8.8500    228.4815     46.5241   1.9127562916e+01   2.2967908117e+01    0.2233889    0.1192182 -21.02  0.001041983    2.442    0.591
        58  -8.4621    145.9030     47.8514   3.0490324410e+01   4.2087491004e+01    0.2210201    0.2048232 -34.49 0.0002641778    1.154    0.133
        59  -8.1258    213.0487     37.5815   1.8507444036e+01   2.7368139281e+01    0.3229913    0.1839501 -12.44   0.00144017    2.858    0.650
        60  -8.6014    237.8710     32.8259   1.5311142775e+01   2.2763587246e+01    0.2099976    0.1665056  47.29  0.001280045    1.698    0.411
        61  -8.6202    183.0991     27.3168   1.8982760284e+01   3.5505735956e+01    0.2249509    0.1757921 -44.68 0.0003473473    1.232    0.188
        62  -8.6462    249.6706     27.3416   1.3328041344e+01   2.1114295813e+01    0.1974734    0.1001076 -58.09  0.001106449    1.711    0.415
        63  -8.6865    120.1567    238.4383   7.8399128255e+01   9.6552384813e+00    0.1974048     0.181243  16.95 0.0003400552    1.158    0.136
        64  -7.0860    144.7464     11.6225   1.8981467461e+01   4.6746640501e+01    0.1332782   0.09716615  34.56 0.0002093557    1.653    0.395
        65  -8.3588    227.2189    241.2166   5.8090783810e+01  -4.9291769330e+00    0.1357661    0.1120618  12.10 0.0004501691    1.326    0.246
        66  -8.3224     46.0636    236.9011   9.4195850156e+01   1.9532949492e+01    0.1776858    0.1428419  54.50 0.0005504033    1.038    0.037
