#   1 NUMBER                 Running object number                                     
#   2 MAG_AUTO               Kron-like elliptical aperture magnitude                    [mag]
#   3 X_IMAGE                Object position along x                                    [pixel]
#   4 Y_IMAGE                Object position along y                                    [pixel]
#   5 X_WORLD                Barycenter position along world x axis                     [deg]
#   6 Y_WORLD                Barycenter position along world y axis                     [deg]
#   7 A_WORLD                Profile RMS along major axis (world units)                 [deg]
#   8 B_WORLD                Profile RMS along minor axis (world units)                 [deg]
#   9 THETA_WORLD            Position angle (CCW/world-x)                               [deg]
#  10 FWHM_WORLD             FWHM assuming a gaussian core                              [deg]
#  11 ELONGATION             A_IMAGE/B_IMAGE                                           
#  12 ELLIPTICITY            1 - B_IMAGE/A_IMAGE                                       
         1 -14.3755    236.0150     11.5099   5.7985053695e+01   2.5385084697e+01     3.479606     1.868863 -87.86   0.01833335    1.762    0.432
         2  -8.5482    244.4783     51.4081   6.5443777774e+01   1.8279066381e+01    0.1293298    0.1144959 -80.75 0.0003060155    1.097    0.088
         3 -12.0017    224.9019    177.1077   9.6401043910e+01   4.5081526195e-01     3.182356    0.8663199 -38.37  0.009988839    3.728    0.732
         4 -13.3873    213.7937    155.5372   9.3940767900e+01   6.6955368251e+00     5.854344     1.592177 -38.51   0.01705265    3.852    0.740
         5 -11.6157    241.3898    244.7710   1.0609850539e+02  -1.2855757802e+01    0.8481748    0.5113511 -42.93  0.004830761    2.158    0.537
         6 -11.0827    228.3119    193.5274   9.9090655457e+01  -3.0479479544e+00     1.876028     1.054004 -34.88  0.008967694    1.765    0.433
         7 -11.8340    230.5774    236.1530   1.0662513032e+02  -1.0053689304e+01     1.156846    0.5175455 -49.29  0.004784132    3.806    0.737
         8 -10.3453    228.0290    222.5676   1.0468845901e+02  -7.6639945885e+00     2.519034    0.6972954 -44.43  0.008458911    4.668    0.786
         9 -12.0010    236.2708    216.6942   1.0203881404e+02  -8.1207098748e+00     1.179052    0.8500503 -68.52  0.005650289    3.049    0.672
        10 -12.5686    236.2544    191.5538   9.7184313248e+01  -4.1200749833e+00     3.058625    0.6689699 -44.80  0.008194407    6.005    0.833
        11 -12.0904    247.2065    241.6885   1.0450531905e+02  -1.3300627104e+01    0.9192506    0.5882846 -57.57  0.004309039    3.907    0.744
        12 -11.4118    235.9873    229.0394   1.0434855225e+02  -9.8914575851e+00    0.4891064    0.3619612 -39.18  0.001939061    1.588    0.370
        13 -13.2550    244.7116    188.5302   9.5012910477e+01  -5.0787602787e+00     3.100981     1.001224 -48.69  0.008999004    5.568    0.820
        14 -11.8479    248.7047    180.6114   9.2694169843e+01  -4.4562060620e+00     1.266121    0.3224358 -44.00  0.003936205    4.377    0.772
        15 -12.4808    248.0116    229.3666   1.0218301362e+02  -1.1772196501e+01    0.9054928    0.4312933 -40.98   0.00451326    2.384    0.580
        16 -12.7636    247.7840    216.1648   9.9803992839e+01  -9.8651889344e+00     1.029151    0.4676392 -41.64  0.004832449    2.411    0.585
        17 -12.2692    245.9745    162.5376   8.9438224883e+01  -9.0123905449e-01     1.519728     0.309894 -38.85  0.004327806    4.594    0.782
        18 -15.6809    244.7809    124.1049   8.1336965893e+01   6.1575063482e+00     6.719788     3.638364 -39.66     0.030572    1.682    0.406
        19 -10.3887    140.2982    247.9798   1.2636318600e+02   3.4414903350e+00    0.4204358    0.2948174 -23.86  0.002218119    2.323    0.570
        20  -8.9103    124.1595    249.5574   1.2976558395e+02   5.9146558681e+00    0.2134253   0.09506687 -60.63 0.0009755377    2.776    0.640
        21  -9.8274    151.3097    245.6768   1.2384168317e+02   1.9257419248e+00    0.2476741    0.1848518 -59.61  0.000952461    1.648    0.393
        22  -9.3513    132.6806    246.4639   1.2768670655e+02   5.0170640365e+00    0.2791425    0.1732354 -40.53  0.001455139    2.230    0.552
        23  -9.3266    134.7076    240.8237   1.2653575460e+02   5.6783761443e+00    0.2851719    0.1369384 -58.51  0.001313463    2.547    0.607
        24 -11.4684    209.8221    247.9426   1.1258256668e+02  -8.4108608567e+00    0.5166985    0.4301437 -19.48  0.003284879    1.310    0.237
        25 -10.4694    201.7002    241.7870   1.1316031984e+02  -6.1762041365e+00    0.3445242    0.2421345 -42.48  0.001385701    1.706    0.414
        26 -11.2000    204.7385    234.8521   1.1140336630e+02  -5.6369301814e+00    0.4972057    0.4006559 -59.44  0.002937409    1.785    0.440
        27 -10.1814    198.9924    226.6134   1.1113716819e+02  -3.3382460074e+00    0.3702554    0.2470837 -48.95  0.001658469    1.848    0.459
        28 -10.2103    169.3159    241.7194   1.1962623774e+02  -5.7088354962e-01    0.3530322    0.2816165 -26.66  0.001780861    1.525    0.344
        29 -10.2962    183.5268    239.1205   1.1634939062e+02  -2.6430378788e+00    0.4289969     0.311896 -45.86  0.001742224    1.650    0.394
        30  -8.9799    154.5432    242.0540   1.2267299705e+02   1.9787378964e+00    0.1739881    0.1336754 -49.34 0.0007593459    1.561    0.359
        31  -9.9066    148.2262    240.2542   1.2370171376e+02   3.4076461428e+00    0.3339522    0.1952222 -54.26  0.001672038    2.057    0.514
        32 -10.1216    156.6093    247.5366   1.2303896180e+02   6.8842654787e-01    0.3427365    0.2473223 -41.90    0.0014493    1.707    0.414
        33 -11.0372    190.6539    234.6109   1.1417864764e+02  -3.1658033147e+00    0.5989931    0.3802257 -51.52  0.002565819    2.031    0.508
        34 -10.4565    176.6393    235.2955   1.1713638225e+02  -7.9936056880e-01    0.5242379    0.2279132 -40.76  0.001880008    2.756    0.637
        35  -9.4473    139.1573    236.5450   1.2503819047e+02   5.6779158665e+00    0.2800644    0.1997478 -69.41  0.001542996    1.724    0.420
        36  -9.7742    170.4439    234.4171   1.1826672916e+02   4.5737380034e-01    0.3110946     0.191089 -42.33  0.001105079    1.912    0.477
        37  -9.1663    152.5809    233.7834   1.2186126110e+02   3.7837268166e+00    0.2303445    0.1321737 -45.20   0.00112876    2.077    0.518
        38  -9.6573    145.0223    232.5032   1.2324376257e+02   5.3757329464e+00     0.341569    0.2279388 -72.40  0.001732727    2.033    0.508
        39  -8.8171    165.4826    233.0853   1.1908062240e+02   1.5804865643e+00    0.1794041    0.1369169 -46.00  0.000739941    1.536    0.349
        40  -9.6375    190.3487    225.6671   1.1273180037e+02  -1.6414685842e+00    0.3322007    0.2162741 -43.69  0.001316767    1.756    0.430
        41  -9.5768    184.4026    227.4637   1.1425852973e+02  -8.7298829303e-01    0.2714032     0.164952 -48.79 0.0008694304    1.968    0.492
        42  -8.9904    133.2926    231.9946   1.2561607962e+02   7.5632761591e+00    0.1840259    0.1715197  83.60  0.001158628    1.161    0.139
        43  -8.5124    122.3223    232.3370   1.2794350364e+02   9.4195560545e+00    0.1260765    0.1058225   3.69 0.0005162517    1.713    0.416
        44  -9.4542    174.0081    228.6373   1.1660194716e+02   8.1004458183e-01    0.2397086    0.2027077 -27.96  0.001070614    1.357    0.263
        45  -8.8026    152.4334    228.9888   1.2116639490e+02   4.6824772948e+00    0.1879489    0.1373288 -51.22 0.0009175912    1.590    0.371
        46  -9.6621    162.9186    226.8011   1.1862044066e+02   3.1635302085e+00    0.3286747    0.2366477 -60.77  0.001752462    1.731    0.422
        47  -8.5587    138.4388    228.4791   1.2403494513e+02   7.3124519676e+00    0.1379932     0.117869  52.51  1.77675e-05    1.021    0.021
        48  -8.8161    204.3874    212.7652   1.0755747624e+02  -1.9984767862e+00    0.1935743    0.1358632 -38.44 0.0006764727    1.534    0.348
        49 -10.3855    205.9949    224.9106   1.0943059627e+02  -4.2918230107e+00     0.379957    0.2219719 -42.98  0.001377306    1.946    0.486
        50 -10.3222    202.2420    218.6186   1.0906286369e+02  -2.5979593853e+00    0.4832871    0.2682886 -46.63  0.002292893    2.114    0.527
        51  -8.8436    170.4410    224.9603   1.1674193547e+02   2.1109627936e+00    0.1891388    0.1382971 -45.27 0.0007683831    1.570    0.363
        52  -8.9153    155.4475    225.0201   1.1991325320e+02   4.8641468302e+00    0.1942779    0.1394373 -53.41  0.001032457    1.616    0.381
        53  -9.4301    148.1917    223.2725   1.2118172428e+02   6.5291090564e+00    0.3570277      0.20815 -57.60  0.001700124    2.047    0.511
        54  -9.7051    180.3988    222.8231   1.1430063265e+02   6.5642903029e-01    0.3058757     0.159031 -44.30  0.001197515    2.181    0.542
        55  -9.6302    185.8362    221.2699   1.1290211355e+02  -7.1006626268e-02    0.3342308    0.1899118 -46.67  0.001223015    2.028    0.507
        56  -9.1669    174.5786    222.3382   1.1543599984e+02   1.8155769696e+00    0.2368346     0.138277 -51.49  0.001121181    2.052    0.513
        57  -8.6266    140.4964    222.0063   1.2263256084e+02   8.1854688768e+00    0.1880167    0.1200733 -86.92 0.0008103978    2.547    0.607
        58 -10.3663    193.4276    218.5569   1.1085442617e+02  -9.9207660067e-01    0.4433798     0.279245 -48.29  0.001882727    1.875    0.467
        59  -8.6282    165.5210    221.4818   1.1720468443e+02   3.6521905617e+00    0.1409102    0.1230426  43.23 0.0002165869    1.037    0.036
        60  -8.9733    128.7500    220.7381   1.2496587545e+02   1.0566828464e+01    0.2056542     0.115771 -71.02 0.0008936711    2.418    0.586
        61  -9.9268    210.7360    218.0610   1.0725134153e+02  -4.0143936915e+00    0.3714562    0.2174127 -39.73  0.001150456    1.848    0.459
        62  -9.4901    209.9174    211.9653   1.0629036202e+02  -2.8612862895e+00    0.3259179    0.2024039 -31.37  0.001630109    1.723    0.420
        63  -9.0831    158.5768    219.2612   1.1831905285e+02   5.3622197613e+00    0.2486877     0.140592 -54.87  0.001139119    2.109    0.526
        64 -11.0998    217.6637    212.9487   1.0492992943e+02  -4.3961923209e+00    0.7008333    0.3774033 -49.55  0.003183034    2.423    0.587
        65  -9.7434    217.2751    204.4621   1.0339670909e+02  -2.9196281319e+00    0.3434041    0.2100044 -42.21  0.001100473    1.756    0.430
        66  -9.6470    170.7298    216.6941   1.1528934603e+02   3.5597468456e+00    0.3645414    0.1779252 -51.65  0.001547719    2.447    0.591
        67  -9.2047    179.2927    216.5789   1.1345315683e+02   1.9725842791e+00    0.2379135    0.1933117 -43.03  0.001023282    1.383    0.277
        68  -9.1012    142.8459    216.5118   1.2127204446e+02   8.8318124892e+00    0.2206595    0.1735434 -64.27  0.001050159    1.446    0.308
        69  -9.0621    165.3742    215.7405   1.1627200582e+02   4.7480394313e+00    0.2471215    0.1385358 -52.71  0.001065939    2.096    0.523
        70  -8.7617    185.5204    215.0076   1.1186516538e+02   1.0899779442e+00    0.1939923    0.1399444 -42.93 0.0008114514    1.544    0.352
        71  -8.9196    131.8075    215.6040   1.2353603060e+02   1.1048986568e+01    0.2055542     0.115587  50.58 0.0009380426    1.637    0.389
        72  -8.9564    154.4342    213.9992   1.1834314469e+02   7.1517321420e+00    0.2043332     0.142313 -51.78  0.001032447    1.618    0.382
        73  -9.6463    176.9240    210.8042   1.1293418799e+02   3.4790016407e+00    0.3515863    0.2050685 -52.61  0.001606839    2.049    0.512
        74  -8.6985    149.0000    211.9697   1.1919279527e+02   8.5798366656e+00    0.2153238   0.08302916 -50.89  0.000598281    2.901    0.655
        75  -9.0521    124.5309    212.5309   1.2466506090e+02   1.3003182069e+01     0.143061     0.123561  60.43 0.0001263862    1.033    0.032
        76  -9.0166    200.3219    210.4170   1.0795316750e+02  -8.5084779978e-01     0.212704    0.1283347 -41.45 0.0006225668    1.795    0.443
        77  -9.7017    192.9836    209.7938   1.0935716605e+02   6.2359231530e-01    0.3057409    0.2099977 -47.38  0.001045325    1.659    0.397
        78  -9.0571    186.2177    210.4873   1.1090342856e+02   1.7724754886e+00    0.2363612     0.194876 -36.85 0.0006461788    1.323    0.244
        79  -9.3891    160.7534    210.7163   1.1641086721e+02   6.5885107258e+00    0.2706537    0.1987326 -59.31  0.001333159    1.603    0.376
        80  -8.5634    145.5062    209.4978   1.1955238343e+02   9.7376248153e+00     0.145062    0.1290559  51.43 5.468787e-05    1.015    0.015
        81  -9.1215    120.3714    209.1533   1.2507556412e+02   1.4461906277e+01    0.1935499    0.1308222 -74.26 0.0005762492    1.717    0.418
        82 -10.0156    114.0527    209.2974   1.2649912582e+02   1.5554483540e+01    0.2037016    0.1707167  59.11 0.0007456102    1.053    0.050
        83  -9.7721    206.0089    206.2281   1.0600190267e+02  -1.1714410448e+00    0.5538822    0.1989232 -42.31  0.002079213    2.970    0.663
        84  -9.1631    149.6974    207.2076   1.1824006667e+02   9.4025852599e+00    0.2698514    0.1328188 -59.59  0.001064259    2.612    0.617
        85  -8.9646    182.9714    206.9993   1.1095298418e+02   3.0304476317e+00    0.2079834    0.1745815  87.75 0.0007345453    1.612    0.380
        86  -8.3298    171.2876    207.6645   1.1358454685e+02   5.1525947339e+00    0.1402713    0.1119144  76.85 0.0004085139    1.630    0.387
        87  -8.9931    156.3790    206.7913   1.1669082233e+02   8.2019558785e+00    0.2607715    0.1418334 -54.21  0.001128028    2.118    0.528
        88  -8.3938    126.2944    207.6610   1.2352732408e+02   1.3703779725e+01    0.1471261    0.1038048  73.79 0.0002888367    1.652    0.395
        89  -9.8682    139.4263    205.7498   1.2028304563e+02   1.1658006723e+01    0.2564325    0.1434608 -59.18 0.0009832842    2.063    0.515
        90  -9.6217    197.7090    203.7925   1.0724812449e+02   8.0874526876e-01    0.3690399    0.2391525 -37.51  0.001483583    1.643    0.391
        91  -9.4078    186.7970    203.0780   1.0940886253e+02   3.0243340709e+00    0.3388597    0.1928525 -55.71  0.001451142    2.317    0.568
        92  -8.9245    178.8340    204.0029   1.1128663322e+02   4.3909030198e+00    0.2190639    0.1672017 -77.43  0.001062947    1.903    0.475
        93  -8.6717    172.8266    203.8100   1.1255181360e+02   5.5956976582e+00    0.1898485    0.1695489  76.34 0.0008338092    1.303    0.232
        94 -10.3350    131.0733    203.1594   1.2173529455e+02   1.3774334459e+01    0.3154151    0.1931395 -69.62  0.001252012    2.043    0.511
        95 -10.2066    210.3833    200.9604   1.0410176878e+02  -1.0615890632e+00    0.3833121    0.2588721 -58.16  0.001458609    2.103    0.525
        96  -9.2073    164.4812    202.6042   1.1416037751e+02   7.4612335857e+00    0.2892042    0.1467448 -48.43  0.001211114    2.171    0.539
        97  -9.0218    192.6959    201.9007   1.0793725523e+02   2.1074919770e+00    0.1982706    0.1292427 -52.37 0.0009318235    1.840    0.457
        98  -8.6878    144.3563    202.2276   1.1858208873e+02   1.1449937686e+01    0.1970503      0.13789 -65.81 0.0006449464    1.684    0.406
        99  -9.3473    149.1391    198.7305   1.1689261186e+02   1.1251743786e+01    0.2480656    0.2031435 -71.21 0.0009299393    1.393    0.282
       100  -9.6146    215.2468    197.3422   1.0241526375e+02  -1.3288776322e+00    0.2859131    0.1828408 -43.80  0.001071707    1.687    0.407
       101 -10.3000    215.0965    190.1910   1.0102132365e+02  -3.8729478341e-02    0.4629093    0.1959799 -39.68  0.001557211    2.401    0.584
       102  -9.6567    202.0934    197.0548   1.0503777174e+02   1.1938568655e+00     0.325875     0.210059 -44.57  0.001236005    1.677    0.404
       103  -8.8006    191.0155    197.9332   1.0753150971e+02   3.1685443581e+00    0.1725423     0.158817 -24.83 0.0004382533    1.139    0.122
       104  -9.2370    176.1780    197.7005   1.1068301581e+02   6.1263152987e+00    0.2559879    0.1942286 -56.46  0.001288114    1.532    0.347
       105 -10.0565    140.1866    197.9631   1.1879111308e+02   1.3150540481e+01    0.2309266    0.1709389 -22.46  0.001081454    1.924    0.480
       106 -11.1796    132.4648    195.9013   1.2020596396e+02   1.5072653511e+01    0.3667355    0.2367748 -63.88   0.00170201    1.751    0.429
       107 -11.9537    123.0235    197.5650   1.2265666916e+02   1.6479187466e+01    0.6518307    0.2758107  57.01  0.002173982    3.264    0.694
       108 -11.2568    112.9071    196.8879   1.2487611321e+02   1.8465542252e+01    0.3065526    0.2076486 -66.48  0.001320914    1.562    0.360
       109  -9.1662    184.0379    196.7769   1.0880089549e+02   4.7539384785e+00    0.2490721    0.2135233 -41.28  0.001342179    1.255    0.203
       110  -9.5471    219.3621    194.3002   1.0099376588e+02  -1.5572650399e+00    0.2674254    0.1782559 -35.13 0.0008912362    1.509    0.337
       111  -9.4684    209.2283    194.1854   1.0300644582e+02   3.5490106497e-01    0.2869827     0.198469 -38.39 0.0008983784    1.491    0.329
       112  -9.0480    194.1701    194.4518   1.0618518481e+02   3.2064647191e+00    0.2242411    0.1985106 -74.34  0.001170801    1.431    0.301
       113 -10.6662     74.0081    195.2847   1.3352496203e+02   2.5183299139e+01     0.195114    0.1632348  66.04 0.0008891918    1.081    0.075
       114 -10.0967    146.3847    193.6752   1.1661449439e+02   1.2856810848e+01     0.274446    0.1453757 -55.93  0.001128659    2.126    0.530
       115  -9.3436    161.7556    192.6369   1.1292650464e+02   1.0018983014e+01    0.2890823     0.204283 -60.86  0.001144682    1.667    0.400
       116  -8.3046    157.2749    193.6353   1.1412568539e+02   1.0707679961e+01    0.1489752    0.1155522  83.08 0.0005466364    1.668    0.401
       117 -12.1402    120.3530    157.5665   1.1598967442e+02   2.6175307662e+01    0.9806101    0.6147786  -4.65  0.002946842    4.624    0.784
       118 -12.8293    129.1496    155.3042   1.1327260548e+02   2.4963686784e+01     1.173361    0.6409087 -30.70  0.004042196    2.998    0.666
       119 -11.2983    132.2629    147.2455   1.1072708603e+02   2.6210202633e+01    0.5183519    0.3436996  53.87  0.002245822    1.577    0.366
       120 -14.0825     95.8649    184.2937   1.2689594668e+02   2.4288849198e+01     1.146716    0.7419109 -58.67  0.005645229    1.546    0.353
       121 -14.1197    119.1125    169.4503   1.1864209454e+02   2.3612987871e+01     1.760466     0.923314 -36.72  0.006469631    2.751    0.637
       122  -9.0436    205.2013    190.7694   1.0315008808e+02   1.7457986581e+00    0.2453674    0.1621398 -42.13 0.0007175014    1.583    0.368
       123  -9.4014    198.9214    190.7860   1.0445869719e+02   2.9643618908e+00     0.255022    0.2028945 -40.48   0.00104641    1.322    0.243
       124  -8.9807    185.1504    190.5340   1.0734306556e+02   5.7416462119e+00    0.2377288    0.1687459 -37.09 0.0007171389    1.501    0.334
       125  -9.2819    178.8114    190.1047   1.0864066000e+02   7.0994907750e+00    0.2898641    0.1929985 -48.95  0.001266329    1.637    0.389
       126  -9.1982    172.1519    190.8031   1.1024810934e+02   8.3022524424e+00    0.2548445    0.2024613 -60.19  0.000971435    1.455    0.313
       127 -10.3335    139.0540    191.0326   1.1782971189e+02   1.4862191617e+01    0.2399597    0.1775175  77.48 0.0008414557    1.663    0.399
       128 -11.6443    127.9855    188.1944   1.1991434530e+02   1.7623745047e+01    0.4658301    0.2148127 -52.52  0.001837678    2.274    0.560
       129 -12.2442    100.9255    176.0689   1.2433322952e+02   2.5356620000e+01    0.5187473    0.4691742  82.64  0.002927018    1.024    0.024
       130 -12.2581    113.1954    156.6543   1.1764835554e+02   2.7760195418e+01    0.7225689    0.4481489 -29.11  0.002828719    2.489    0.598
       131 -11.4183    120.8576    188.3254   1.2161807575e+02   1.8936503349e+01    0.4005689    0.2123115 -65.27  0.001627361    2.235    0.553
       132 -12.2919    120.2359    181.5757   1.2059133069e+02   2.0587910211e+01    0.5001565    0.3764607 -60.08  0.002039927    1.367    0.269
       133 -10.4788     72.4994    189.9939   1.3318168065e+02   2.6617335913e+01    0.2067752    0.1232314 -67.46  0.001033118    1.591    0.371
       134  -9.4082    210.2289    188.6380   1.0169115643e+02   1.1675185731e+00    0.2548441    0.1894607 -40.70 0.0007535788    1.396    0.284
       135 -10.1034    156.0494    188.5467   1.1344837977e+02   1.2020852428e+01    0.2972442     0.258072 -20.18  0.001555738    1.343    0.255
       136  -9.2322    193.1406    187.9059   1.0510252862e+02   4.6536529545e+00    0.2127648    0.2035265  73.14 0.0006543613    1.199    0.166
       137  -9.2527    166.1494    186.3323   1.1072202004e+02   1.0436370120e+01    0.2561722    0.2082696 -33.00 0.0008569615    1.358    0.264
       138 -12.5093    112.5482    182.6714   1.2263180141e+02   2.1754603755e+01    0.7106637    0.3895811 -74.49  0.002768155    2.530    0.605
       139  -9.1630    197.6386    183.0341   1.0315839248e+02   4.6901856229e+00      0.48433     0.233181 -55.65  0.001721686    3.084    0.676
       140 -10.5650    139.9584    185.4570   1.1660212160e+02   1.5906195661e+01    0.2994455    0.2334304 -56.49  0.001070324    1.358    0.264
       141 -10.0516    203.4104    183.3457   1.0201382155e+02   3.4795985394e+00    0.3626717    0.2531486 -51.31  0.001027587    1.636    0.389
       142  -8.8926    189.5174    184.9817   1.0528789968e+02   5.9486820274e+00     0.216792     0.146827 -42.35  0.001017104    1.545    0.353
       143  -8.8828    173.3425    185.2113   1.0888387333e+02   9.1976210747e+00    0.2077372    0.1412498 -55.64 0.0008455293    1.686    0.407
       144  -9.6950    183.3931    183.0243   1.0622034258e+02   7.5824831155e+00    0.3332152     0.246214 -47.71  0.001159861    1.447    0.309
       145  -9.0663    154.4261    183.2569   1.1280580387e+02   1.3478851026e+01    0.2061938    0.1473807 -63.64 0.0009455041    1.633    0.388
       146  -9.3559    176.6194    181.4861   1.0740363969e+02   9.2866999269e+00     0.284912    0.1809718 -48.10  0.001009771    1.680    0.405
       147 -11.0447    150.2024    178.5943   1.1287966870e+02   1.5354946720e+01     0.543577    0.1982795 -49.00  0.001831522    2.883    0.653
       148 -11.2689     55.7115    181.6055   1.3596446304e+02   3.0866169848e+01    0.2948601    0.2264972 -29.41  0.001636517    1.952    0.488
       149  -8.6956    159.7676    180.9763   1.1112286271e+02   1.2873988760e+01    0.1985961    0.1286191 -47.57 0.0008784726    1.633    0.388
       150  -9.7296    190.8309    179.1813   1.0381506073e+02   6.8235547100e+00    0.3456843    0.2397016 -49.92  0.001164824    1.574    0.365
       151 -10.2037    145.2905    179.8430   1.1428179627e+02   1.6079405300e+01    0.2664012    0.1885197 -56.08  0.001094174    1.508    0.337
       152 -11.1778    134.3466    178.7169   1.1667339374e+02   1.8520331027e+01    0.3756772    0.2357447 -40.79  0.001635447    1.843    0.457
       153  -9.7364    169.0842    177.6940   1.0832676669e+02   1.1638651098e+01    0.2593211     0.208155 -57.49 0.0007847413    1.371    0.270
       154 -10.8043    139.1703    176.5846   1.1510780425e+02   1.8040387932e+01    0.3391127    0.2207911 -55.97  0.001198973    1.627    0.385
       155  -9.6074    204.9267    176.5663   1.0029068943e+02   4.4651438658e+00    0.3186249     0.205918 -43.56  0.001008997    1.591    0.372
       156  -9.9658    205.2307    169.0925   9.8639481003e+01   5.8432649432e+00    0.4069876    0.2636707 -51.04  0.001841962    1.718    0.418
       157  -9.7185    197.6566    176.3834   1.0177348381e+02   5.9759200492e+00    0.3135935    0.2256703 -46.07  0.001002408    1.461    0.315
       158  -9.6394    182.1277    176.1606   1.0508500739e+02   9.2325064469e+00    0.3100294    0.2209831 -48.26 0.0008079439    1.488    0.328
       159  -9.2778    161.6376    175.5098   1.0958961592e+02   1.3659262218e+01    0.2579247    0.1476023 -47.61  0.001068152    1.835    0.455
       160 -14.0455    107.0333    173.7810   1.2243337435e+02   2.4822439723e+01     1.782451    0.5771278 -51.60  0.005969265    3.085    0.676
       161 -11.6320    126.7990    167.9796   1.1644775617e+02   2.2471247694e+01    0.5217416    0.3764392 -21.15   0.00223741    2.056    0.514
       162 -12.1198     76.7474    172.9819   1.2977557747e+02   2.9986726384e+01    0.4427243    0.2953987 -43.52  0.002187525    1.802    0.445
       163 -12.5239     84.9260    168.5476   1.2704960602e+02   2.9793439649e+01    0.9324731    0.5078897 -26.95  0.002731869    5.652    0.823
       164 -13.3555     89.1206    171.9109   1.2655474866e+02   2.8319342228e+01    0.9892234    0.4709264 -43.17  0.003791425    2.763    0.638
       165 -13.0480     96.1129    164.3760   1.2350717963e+02   2.8964910936e+01     1.081516    0.4360319  29.81  0.003565998    3.523    0.716
       166 -13.0003     99.2814    156.8228   1.2129951077e+02   3.0238031840e+01     1.212784    0.7405154  -8.58  0.003535938    5.388    0.814
       167 -11.3359    107.9890    152.5391   1.1817821337e+02   2.9711867645e+01     0.332066    0.2853429  -7.66  0.001549856    1.484    0.326
       168 -11.7885    105.8430    158.1446   1.1984634261e+02   2.8758130873e+01    0.5639869    0.3393097 -28.41  0.002120431    2.830    0.647
       169 -11.5001    128.5873    174.0463   1.1718067963e+02   2.0717555139e+01    0.3371755      0.28519 -60.58  0.001114996    1.214    0.176
       170  -9.5282    192.5455    173.1552   1.0218189669e+02   7.6677895999e+00    0.3414373    0.1465496 -39.39  0.001195639    2.462    0.594
       171  -9.4256    145.2988    174.6612   1.1326348064e+02   1.7229206521e+01    0.1574319    0.1196347  81.49 0.0004983561    1.661    0.398
       172 -11.7284     62.5555    171.9062   1.3307625411e+02   3.2251726718e+01    0.3362268    0.2529934 -37.71   0.00182802    1.729    0.422
       173  -9.0238    187.5038    172.1221   1.0305428447e+02   8.9293318065e+00    0.2222011    0.1500617 -41.77  0.000694611    1.524    0.344
       174 -10.3006    142.9350    170.8384   1.1306579981e+02   1.8571702992e+01    0.2354902    0.2156993   4.17 0.0006707967    1.256    0.204
       175 -11.4207    134.2138    169.0869   1.1483724335e+02   2.0741905189e+01    0.4853413    0.2965886 -52.15   0.00210046    1.687    0.407
       176 -10.6082     94.8120    170.5711   1.2491437565e+02   2.7701635945e+01    0.2806478    0.2329486 -33.21  0.001094479    1.501    0.334
       177  -9.5859    178.8657    168.6073   1.0421334218e+02   1.1481625029e+01    0.3619506    0.2123784 -47.35  0.001194532    1.781    0.439
       178  -9.2152    158.1729    170.1389   1.0929038252e+02   1.5553641362e+01    0.2334228    0.2141537  -6.39 0.0007327441    1.218    0.179
       179 -10.7077    150.1019    168.5712   1.1087954231e+02   1.7596309993e+01    0.4304141     0.223184 -42.14  0.001326947    2.112    0.527
       180  -8.6911    196.9708    169.3516   1.0042447639e+02   7.5032627805e+00    0.2012772    0.1877487  26.33 0.0004062116    1.039    0.038
       181  -9.1252    169.7545    168.1109   1.0617237239e+02   1.3532368258e+01    0.2817989    0.2147488 -25.46 0.0008816989    1.543    0.352
       182 -10.7099     99.6691    168.3329   1.2330865579e+02   2.7409235446e+01    0.3014569    0.2254217 -42.09    0.0014923    1.533    0.348
       183  -9.1440    200.5495    171.4680   1.0012291336e+02   6.3436066297e+00    0.2397514     0.140421 -30.48 0.0009341039    1.938    0.484
       184 -10.2338    191.6012    164.8609   1.0060114282e+02   9.5374339945e+00    0.4161433    0.2783906 -38.37  0.001141812    1.533    0.348
       185  -9.3288    184.5248    165.1434   1.0220709733e+02   1.0991812640e+01    0.3285013    0.2062462 -37.29  0.001037082    1.681    0.405
       186  -9.1817    159.2328    164.4664   1.0784327059e+02   1.6575045692e+01    0.2484936    0.1910449 -54.00 0.0008426997    1.370    0.270
       187 -11.3603    138.8570    163.1796   1.1249341609e+02   2.1153951746e+01     0.439908    0.3472084 -27.03  0.001602741    1.548    0.354
       188  -9.0057    172.4135    163.3436   1.0453602670e+02   1.3980864520e+01    0.2771082    0.1513223 -41.27 0.0006892547    1.923    0.480
       189 -10.6980    146.5152    162.4865   1.1047182235e+02   1.9717795371e+01    0.3088683    0.2437163 -28.91  0.000875426    1.494    0.331
       190  -9.4396    149.5233    158.4611   1.0887702219e+02   1.9991594977e+01    0.2955709    0.1546435 -43.99 0.0009858181    2.006    0.501
       191 -10.6719    132.4449    162.1877   1.1387876425e+02   2.2691999585e+01    0.4654717    0.1790969 -44.84  0.001542813    2.836    0.647
       192  -9.7308    152.8642    161.4294   1.0870985027e+02   1.8610787873e+01     0.312452    0.2086983 -29.12  0.001001843    1.918    0.479
       193 -10.9251     54.4812    168.7975   1.3460510885e+02   3.4036650071e+01    0.2441864    0.1875294  42.70   0.00142517    1.396    0.283
       194  -9.0101    163.4601    161.0630   1.0611264835e+02   1.6412970391e+01    0.2374432    0.1551408 -43.82 0.0008295978    1.586    0.369
       195  -9.8261    199.2337    164.1919   9.8827978057e+01   8.0546444218e+00    0.3848777    0.2574126 -49.72  0.001751315    1.600    0.375
       196  -9.9353    176.6778    158.9512   1.0259963133e+02   1.3990760748e+01    0.3766585    0.2606602 -36.81  0.001241899    1.532    0.347
       197 -10.2708    158.5012    159.4134   1.0692398337e+02   1.7849370231e+01    0.3038221     0.262819 -19.56 0.0008477059    1.324    0.245
       198 -12.4868     78.4426    159.6952   1.2722901314e+02   3.2924403476e+01    0.8361788    0.4241472  15.44  0.002589305    5.044    0.802
       199  -8.8406    168.0166    158.7523   1.0454150654e+02   1.5926333349e+01    0.2167877    0.2068246  40.31 0.0005856164    1.025    0.024
       200 -10.2279    135.9115    158.8893   1.1232602412e+02   2.2749297412e+01    0.2394008     0.219575  -4.76 0.0008593897    1.266    0.210
       201 -10.1434    197.1253    156.5884   9.7592377589e+01   1.0029582968e+01    0.4288296    0.2860069 -29.30  0.001686344    1.667    0.400
       202  -9.8661    140.6996    157.4094   1.1081867968e+02   2.2096897333e+01    0.2632008     0.194265 -28.12 0.0008280449    1.688    0.408
       203  -9.5573    187.6914    155.3681   9.9347135416e+01   1.2331695806e+01    0.4295266    0.2020683 -39.51  0.001167969    2.214    0.548
       204 -10.4927     61.8507    156.8657   1.3104519060e+02   3.5947016268e+01    0.2107208    0.1814889 -49.13  0.001072906    1.261    0.207
       205  -8.9048    183.7856    154.3934   9.9986638012e+01   1.3393170159e+01    0.4045626     0.221374 -25.94  0.001417431    2.738    0.635
       206  -9.4273    154.5547    156.2113   1.0716595443e+02   1.9416715775e+01     0.289148    0.2335241  20.25 0.0008272491    1.449    0.310
       207 -10.6791    157.2480    152.4534   1.0568017560e+02   1.9670759431e+01    0.4612109    0.3264214 -54.96  0.002055765    1.500    0.333
       208  -9.2987    167.3027    153.4223   1.0351677547e+02   1.7243804516e+01    0.5696915    0.1866672 -37.11  0.001500914    4.397    0.773
       209 -10.6683    136.6241    151.8188   1.1062628440e+02   2.4239487518e+01    0.3624511    0.2882878  -6.22  0.001127309    1.715    0.417
       210 -11.5749     74.3099    166.3489   1.2935855516e+02   3.1933825218e+01    0.3369363    0.2588278  -5.70   0.00169912    2.032    0.508
       211  -9.2211    192.5148    153.5830   9.7899411207e+01   1.1643448458e+01    0.2944096    0.1513343 -43.27 0.0008008698    1.956    0.489
       212  -9.2697    171.4832    153.5287   1.0257122331e+02   1.6296363423e+01    0.3088659    0.1561129 -43.53 0.0009257539    2.028    0.507
       213 -11.0461    144.6560    152.7636   1.0882431459e+02   2.2325760923e+01    0.3811705    0.3310394  19.09  0.001878727    1.304    0.233
       214 -10.8125     85.2484    153.0909   1.2429384135e+02   3.3472369429e+01    0.3111024    0.2204454  14.86  0.001454003    1.988    0.497
       215  -9.7772    151.3656    151.9366   1.0698915511e+02   2.1069466089e+01    0.2675229    0.2186932  58.01   0.00073058    1.250    0.200
       216 -11.2558     79.1769    150.6900   1.2547182871e+02   3.4994361292e+01    0.3521722    0.2026637 -40.76  0.001527543    2.090    0.522
       217 -10.5906     91.4072    149.7085   1.2202083334e+02   3.3293749548e+01    0.3732154    0.2266732 -28.37  0.001457962    2.697    0.629
       218  -9.6146    181.7788    149.4244   9.9300817921e+01   1.4883911312e+01    0.3075661    0.2504101 -22.70 0.0009477657    1.378    0.274
       219 -11.4572     64.3463    192.7351   1.3537115589e+02   2.7142585445e+01    0.2965925    0.2182517  67.41  0.001710013    1.245    0.197
       220  -8.9304    171.9941    148.7363   1.0136014900e+02   1.7218823387e+01     0.221238    0.2112402  38.66 0.0006442344    1.037    0.036
       221  -9.8560    162.0793    148.6275   1.0365584743e+02   1.9454586634e+01    0.3099579    0.2351197 -36.10  0.001046506    1.411    0.291
       222  -9.3823    191.2402    147.4763   9.6780287813e+01   1.3181018360e+01    0.2873174    0.2117861 -39.19 0.0009546748    1.368    0.269
       223  -9.8556    149.6421    147.8951   1.0649883216e+02   2.2358518452e+01    0.2835492     0.218188  32.40 0.0007952442    1.390    0.280
       224  -9.6200    142.9995    147.9628   1.0816426350e+02   2.3779287744e+01    0.2540063    0.2008767  -2.14    0.0010386    1.725    0.420
       225 -11.1350     98.3908    147.1682   1.1964695264e+02   3.2721363181e+01    0.3212426    0.2489929 -21.05  0.001444112    1.725    0.420
       226  -8.9167    186.8175    146.0433   9.7408370826e+01   1.4466292631e+01    0.4093544    0.1799239 -50.98  0.001394806    2.603    0.616
       227  -8.3813    189.4694    143.4480   9.6228744152e+01   1.4410281416e+01    0.2324474    0.1480043  34.22 0.0001748547    1.761    0.432
       228  -9.7610    176.4294    145.3440   9.9560128800e+01   1.6951920293e+01    0.4126638    0.2733003 -25.04  0.001268672    1.935    0.483
       229  -9.0743    166.7139    145.7146   1.0188854011e+02   1.9059705305e+01    0.2909173    0.1910896 -33.76  0.001013266    1.714    0.417
       230 -12.5970     82.5878    163.1002   1.2673754559e+02   3.1468812105e+01    0.7198861    0.4687172 -12.23  0.002796883    3.339    0.700
       231 -11.0566    106.4532    145.1989   1.1707443410e+02   3.1754208451e+01    0.2908423    0.2469636  -8.10  0.001112422    1.494    0.331
       232 -10.9728    139.1440    142.4472   1.0787963991e+02   2.5872516105e+01    0.5115718    0.3854362 -17.96  0.001684756    1.789    0.441
       233 -10.0349    181.7807    140.6845   9.7265081187e+01   1.6729127703e+01    0.6402894    0.3189082 -33.66  0.002289369    2.397    0.583
       234  -9.3374    171.5698    143.4669   1.0023361615e+02   1.8453800113e+01    0.3072644    0.2282626   1.24 0.0008917389    1.954    0.488
       235  -9.8849    155.6619    142.2615   1.0372215851e+02   2.2298958708e+01    0.4176786    0.3094922 -21.47  0.001186706    1.733    0.423
       236 -10.0981    147.7793    142.6669   1.0575648984e+02   2.3951176205e+01    0.4409855    0.3349831   8.10  0.001618067    1.839    0.456
       237  -9.3461    151.9024    138.3781   1.0372582984e+02   2.4007251760e+01     0.265816    0.2011665  26.26  0.001178163    1.539    0.350
       238 -10.3219    155.9271    135.1661   1.0196922842e+02   2.3820123631e+01    0.3595747    0.3245271   0.19  0.001778656    1.262    0.208
       239 -10.4278    127.2418    135.6129   1.0938133384e+02   2.9962023426e+01     0.342391    0.2313377  36.64  0.001358335    1.547    0.354
       240 -10.9038    120.1333    143.7839   1.1312128952e+02   2.9482365551e+01     0.312283     0.253705 -21.86  0.001206686    1.521    0.343
       241 -10.6692    124.1686    139.4876   1.1108988109e+02   2.9686158237e+01     0.411348    0.3062804 -15.54  0.001488507    1.903    0.474
       242 -11.4208     77.7325    191.2471   1.3215077255e+02   2.5554765857e+01    0.3626385    0.1797432 -72.06  0.001592431    2.122    0.529
       243 -11.2460     92.0034    141.4691   1.2022847954e+02   3.5186163112e+01    0.3597967    0.2671948  -6.28  0.001649233    2.017    0.504
       244  -9.1324    186.9136    139.4742   9.5850429846e+01   1.5814378786e+01     0.243605    0.2086159 -40.34 0.0006765249    1.173    0.148
       245  -9.7824    187.6307    134.5817   9.4531909773e+01   1.6667055857e+01    0.3418461    0.2762921 -17.76 0.0008741965    1.449    0.310
       246  -9.7615    166.5523    139.6008   1.0048894325e+02   2.0432089790e+01     0.334773    0.2709046  12.74  0.001082787    1.531    0.347
       247  -9.2182    160.9888    140.0111   1.0190570813e+02   2.1603133674e+01    0.2502314    0.2002791   0.21 0.0006094048    1.640    0.390
       248 -11.3501    110.1198    139.2677   1.1480783645e+02   3.2489812941e+01    0.4544408    0.3064366  12.68  0.001841901    2.320    0.569
       249 -10.3731    116.3065    139.0152   1.1308043426e+02   3.1362519156e+01    0.2247436    0.1991786 -53.87 0.0005449512    1.118    0.105
       250 -10.3475    131.3323    140.2260   1.0937888235e+02   2.8038751103e+01    0.3523288     0.268722 -18.41  0.001018359    1.744    0.427
       251  -9.9159    172.6258    136.6513   9.8373233237e+01   1.9682466181e+01    0.3642251    0.2720383 -22.33  0.001201438    1.635    0.388
       252  -9.1122    147.2320    137.0455   1.0456915638e+02   2.5344750985e+01    0.3286728    0.2306173 -46.52  0.001219165    1.445    0.308
       253  -9.6970    149.8560    134.1687   1.0322356501e+02   2.5408601489e+01    0.3128152    0.2531874  -3.40 0.0009198053    1.607    0.378
       254  -9.1668     87.6304    138.6942   1.2087114853e+02   3.6574879004e+01    0.1496553    0.1140391 -19.70 0.0007034249    1.755    0.430
       255  -9.2839     70.7667    137.4139   1.2532120329e+02   3.9434945380e+01    0.1874438     0.139755  15.46 0.0009311542    1.715    0.417
       256 -10.2065    179.5683    131.7276   9.5613255653e+01   1.9126312818e+01    0.6384913    0.3689296 -28.26  0.002397867    2.252    0.556
       257 -10.1288    163.3925    134.4751   1.0000533647e+02   2.2272742617e+01    0.4072693    0.2836415  -7.32  0.001073886    2.345    0.574
       258  -9.1817    142.9032    135.9256   1.0539336644e+02   2.6551226223e+01    0.2467209    0.2235343  -6.36  0.001221495    1.259    0.206
       259 -10.0427    138.0938    135.7444   1.0657950140e+02   2.7637784332e+01    0.2808023    0.2051796 -31.92 0.0008104548    1.574    0.365
       260 -10.3978    119.9218    133.7083   1.1089225929e+02   3.1896899456e+01    0.2769974    0.2160461 -38.05 0.0008081173    1.363    0.266
       261 -12.6002    122.3358    149.3783   1.1376175256e+02   2.7723244644e+01    0.8829283    0.5961198  11.88  0.003481567    2.435    0.589
       262 -10.3190    114.9599    131.9908   1.1183980484e+02   3.3281588765e+01    0.2499124    0.1947705 -10.58  0.001134061    1.732    0.423
       263 -10.5507    172.2658    128.0449   9.6361765389e+01   2.1606383437e+01    0.3641068    0.2877177  13.00  0.001057266    1.628    0.386
       264  -9.3601    160.6117    130.7199   9.9753468112e+01   2.3731581637e+01    0.2487087    0.1955241  -2.17  0.001016091    1.714    0.417
       265 -10.4330    143.3582    129.9711   1.0383729113e+02   2.7798741720e+01    0.3712263    0.3095701  13.58  0.001420515    1.442    0.307
       266  -9.8768    136.9076    130.6742   1.0566754098e+02   2.9052531351e+01    0.2581773    0.2020795  23.20  0.001172807    1.502    0.334
       267  -9.6743    125.9822    131.0012   1.0862507253e+02   3.1292844423e+01    0.2505346    0.1980733  -4.90  0.001022639    1.700    0.412
       268  -9.0420    155.0167    129.7560   1.0087232485e+02   2.5224243098e+01    0.2625189    0.1857137  17.70 0.0008925581    1.993    0.498
       269  -9.9847    131.4317    129.9078   1.0691455898e+02   3.0402066998e+01    0.3158126    0.2126346  24.53  0.001001741    1.906    0.475
       270 -10.1994    192.8467    127.8103   9.1792826273e+01   1.6852795547e+01     0.442717     0.328484  -7.92  0.001919968    1.880    0.468
       271  -9.5557    186.3996    128.1917   9.3255561323e+01   1.8273875915e+01    0.2938073    0.2460094  10.66 0.0007704624    1.449    0.310
       272  -9.2095    149.4968    129.4833   1.0216967234e+02   2.6536226809e+01    0.1587346    0.1562869  29.65 0.0008100882    1.042    0.040
       273  -9.2732    165.7081    127.3916   9.7721599535e+01   2.3275081817e+01    0.2226116    0.1497243  38.16 0.0007854455    1.567    0.362
       274  -9.8123    159.8104    125.1023   9.8552789321e+01   2.5139720763e+01    0.5081892    0.3148736  -6.77   0.00152186    4.019    0.751
       275 -10.6154    152.2321    125.1926   1.0042357194e+02   2.6864880671e+01    0.3340624    0.2851422   2.84  0.001165262    1.418    0.295
       276 -10.6770    135.3849    124.9873   1.0466534470e+02   3.0672681923e+01    0.4635118    0.2623448  33.66  0.001775788    2.047    0.511
       277 -10.1072    124.9529    124.5349   1.0733057092e+02   3.2994670365e+01    0.2602811    0.1998899   1.96  0.001142624    1.800    0.444
       278  -9.7230    186.3869    113.4493   8.9607793216e+01   2.1278769399e+01    0.3808583    0.2826582  -7.81  0.001580853    1.922    0.480
       279 -10.3166    180.2467    122.6631   9.3236126780e+01   2.0861268556e+01    0.4395735    0.3346209  15.45  0.001275114    1.758    0.431
       280 -10.4708    146.6762    124.0145   1.0151610982e+02   2.8386917189e+01    0.2976294    0.2286159  18.69  0.001312011    1.638    0.389
       281  -9.8954    108.7088    124.1390   1.1171767225e+02   3.6323400224e+01    0.2978941    0.2087311   7.06  0.001237439    2.179    0.541
       282  -9.9644    188.4053    122.0278   9.1317068246e+01   1.9066967164e+01    0.4036684    0.2938968 -17.85  0.001332287    1.783    0.439
       283  -8.6928    190.6876    117.6849   8.9765077005e+01   1.9405266997e+01    0.2329984    0.1362545  29.41 0.0006351504    2.532    0.605
       284  -8.9163    184.2818    118.3579   9.1286014326e+01   2.0789489210e+01    0.2949646    0.2292521  -2.50 0.0006574428    1.758    0.431
       285  -9.3320    170.0133    123.3196   9.5704591318e+01   2.3137308551e+01    0.2312148    0.2018587  45.72 0.0005943825    1.139    0.122
       286  -8.5063    164.5054    123.4457   9.7019559626e+01   2.4402923553e+01    0.1602945    0.1539303  18.77 0.0004148708    1.097    0.088
       287 -10.5936    117.6566    121.6037   1.0860138102e+02   3.5158365095e+01    0.3320414    0.2567625  -8.12  0.001297601    1.736    0.424
       288  -9.7951    194.5418    119.7835   8.9486701430e+01   1.8075581529e+01    0.3455601    0.2675308 -15.65  0.001073289    1.614    0.381
       289  -8.8081    166.3582    119.3063   9.5538756538e+01   2.4847990505e+01    0.1652512    0.1280769  11.78 0.0007040588    1.727    0.421
       290  -9.9260    157.6063    118.7315   9.7470548906e+01   2.7026355445e+01    0.2962514    0.1988555  35.50 0.0009948071    1.635    0.388
       291  -9.7707    173.9105    118.1439   9.3512982005e+01   2.3301066209e+01    0.5075175     0.213735  41.41  0.001675946    2.626    0.619
       292  -9.8097    148.1716    116.1952   9.9141699388e+01   2.9758034545e+01    0.3207704    0.2447805   6.30 0.0009876876    1.821    0.451
       293  -9.9979    140.9774    116.5702   1.0107041519e+02   3.1310007926e+01    0.3340546    0.2656239  16.42  0.001320882    1.546    0.353
       294  -9.0507    199.5717    116.1432   8.7580828360e+01   1.7614786896e+01    0.4318097    0.2033428 -33.10 0.0008196051    2.460    0.594
       295  -9.5939    203.6010    114.3894   8.6363469536e+01   1.7012348938e+01    0.3896544    0.3348745  53.03  0.001925487    1.183    0.154
       296  -9.2065    181.6466    114.1498   9.0795305098e+01   2.2272944974e+01    0.3640842     0.241328  -8.36  0.001337182    2.663    0.624
       297  -9.3624    163.2285    114.9984   9.5168367960e+01   2.6496130274e+01    0.2556151    0.1884121  -8.63 0.0007876623    1.951    0.488
       298  -9.1440    134.3979    114.7377   1.0231356694e+02   3.3173914981e+01    0.2237392    0.1496004 -35.01 0.0008150705    1.634    0.388
       299  -9.6095    129.6728    114.6197   1.0354314379e+02   3.4228176986e+01    0.2417633    0.1907252   3.68  0.001088129    1.656    0.396
       300  -9.8580    195.0778    112.3012   8.7531808231e+01   1.9431567841e+01    0.3383055     0.294378  20.72 0.0009407549    1.341    0.254
       301  -8.7335    191.4969    113.5044   8.8558857932e+01   2.0046942411e+01    0.2140345    0.1529336 -28.78 0.0009435496    1.577    0.366
       302  -8.9554    153.3421    114.3137   9.7368557484e+01   2.8966009397e+01    0.1642374    0.1283773   8.78 0.0007047165    1.705    0.413
       303  -8.7649    173.7400    113.4421   9.2353437337e+01   2.4312556095e+01    0.2196848    0.1492416  39.23 0.0006675662    1.569    0.363
       304  -9.5761    114.9767    113.0202   1.0717910707e+02   3.7642693155e+01    0.2495162    0.1926796  -2.56  0.001131763    1.718    0.418
       305  -9.7958    144.4334    110.6814   9.8641672180e+01   3.1800746179e+01    0.2746808    0.1934396  26.63  0.001100256    1.734    0.423
       306  -9.4096    168.7584    110.2174   9.2647061918e+01   2.6169192791e+01    0.2221389    0.1904838  15.60 0.0009485438    1.377    0.274
       307  -9.5149    201.6036    108.1180   8.5213359504e+01   1.8692577375e+01    0.3096325    0.2369555  -5.88 0.0008981223    1.822    0.451
       308  -9.5468    205.8596    103.9193   8.3377159292e+01   1.8480655454e+01    0.2989685    0.2129128  33.01 0.0009969953    1.743    0.426
       309  -9.1387    176.9937    109.0378   9.0501037330e+01   2.4424740861e+01    0.2440319    0.2344597  21.34 0.0007836219    1.114    0.102
       310  -8.7985    150.4930    109.4283   9.6787323355e+01   3.0666164202e+01    0.1585231    0.1530196  30.83 0.0001779449    1.058    0.055
       311 -10.3109    124.4969    108.6591   1.0338164365e+02   3.6644615115e+01    0.3191871    0.2395096  14.27  0.001420562    1.721    0.419
       312  -9.5542    183.3399    107.3728   8.8709068140e+01   2.3222473433e+01    0.3244318    0.2560636  13.95 0.0009473629    1.680    0.405
       313  -8.8902    155.4972    108.5289   9.5322493763e+01   2.9680060397e+01    0.1582001    0.1548642  44.43 9.117072e-05    1.027    0.027
       314  -9.1986    196.3315    106.6115   8.5865877164e+01   2.0239473098e+01    0.2664928    0.1947871  43.34 0.0007921606    1.443    0.307
       315  -9.8181    160.9376    106.8425   9.3575359492e+01   2.8736031076e+01    0.2516793    0.2181395  14.88  0.001213993    1.342    0.255
       316  -8.9664    171.9368    106.0000   9.0829846223e+01   2.6258820112e+01    0.2588241     0.089133  50.66 0.0005542172    2.857    0.650
       317  -9.6054    134.1193    107.3103   1.0042195073e+02   3.4848245552e+01    0.2563198    0.1976497  24.57   0.00116969    1.495    0.331
       318  -9.1766    190.0567    103.0291   8.6214085710e+01   2.2443427919e+01    0.2416466    0.1929798  12.01 0.0006889738    1.675    0.403
       319  -9.1074    201.0050    102.0689   8.3831242795e+01   1.9985707460e+01    0.2354378    0.1891464  14.37 0.0007348898    1.662    0.398
       320  -8.7333    195.4053    101.8539   8.4854995344e+01   2.1373752843e+01    0.2089242    0.1486232 -25.92 0.0005874241    1.660    0.398
       321  -8.7602    185.4491    101.4810   8.6757278802e+01   2.3862637697e+01    0.1535005    0.1515518  48.07 0.0001826059    1.066    0.062
       322  -9.1663    176.9581    100.7928   8.8365982463e+01   2.6069400224e+01    0.2549325    0.1761978  25.97  0.001049765    1.963    0.490
       323  -9.5558    150.6408    100.6877   9.4399809254e+01   3.2442477185e+01    0.2478489     0.192554   8.46  0.001095159    1.715    0.417
       324  -9.7776    142.1682    100.5864   9.6495971551e+01   3.4440394885e+01    0.3117777    0.2381028  17.09  0.001000609    1.659    0.397
       325  -9.2834    190.1309    107.8112   8.7410428061e+01   2.1496347609e+01    0.2782136    0.2120807  32.07 0.0008785513    1.534    0.348
       326  -9.1329    209.5526     98.8677   8.1468896021e+01   1.8545149249e+01     0.264851    0.2147553  55.73 0.0009106666    1.253    0.202
       327  -8.9838    167.6159     98.6674   8.9858368038e+01   2.8766607528e+01    0.2355276    0.1882267  10.97 0.0007158459    1.635    0.388
       328  -9.3387    160.8738     98.8094   9.1440071095e+01   3.0374635324e+01     0.247033    0.2185811  20.12 0.0008867098    1.268    0.212
       329  -9.3270    203.1756     96.5542   8.2056174149e+01   2.0493111431e+01    0.2793941    0.2367503   4.28 0.0008336483    1.527    0.345
       330  -8.7937    189.1887     97.5530   8.4989457948e+01   2.3701004190e+01     0.214329    0.1420999  41.93 0.0005454044    1.633    0.388
       331  -9.4298    195.7431     95.8252   8.3267870027e+01   2.2426459469e+01    0.2661564    0.2070932  42.54  0.001281449    1.380    0.275
       332  -8.8990    183.6941     94.6285   8.5341715867e+01   2.5601065432e+01    0.2324842    0.1827197  19.91 0.0009849418    1.660    0.398
       333  -8.3879    171.5007     94.4791   8.7876078568e+01   2.8629504598e+01    0.1561336    0.1509516  44.40  0.000212353    1.066    0.062
       334 -10.2051    214.1115    240.6845   1.1055376729e+02  -8.0681687650e+00    0.3006265     0.217265 -36.50  0.001029043    1.583    0.368
       335  -8.8578    207.2539     93.5698   8.0580867394e+01   2.0059952916e+01    0.2052537    0.1386104  45.53 0.0007154713    1.596    0.374
       336  -8.9276    177.4391     91.7856   8.5887119882e+01   2.7678130273e+01    0.2097742    0.1533209 -24.61 0.0008867995    1.631    0.387
       337  -8.8495    165.0428     92.4700   8.8764454715e+01   3.0598442889e+01    0.2251034    0.1287993  31.72 0.0008085484    2.446    0.591
       338  -8.9026    188.8286     91.3994   8.3475285435e+01   2.4939777268e+01    0.2222496    0.1377012  44.23 0.0008524213    1.714    0.416
       339  -9.0518    210.5927     89.8698   7.9090056556e+01   1.9925736148e+01    0.2466681    0.1958978  47.24 0.0006436851    1.351    0.260
       340  -8.5098    197.0170     90.5048   8.1679469052e+01   2.3094435135e+01     0.205569    0.1255848  33.64 0.0007321672    2.269    0.559
       341  -8.9225    218.1516     88.9223   7.7593181370e+01   1.8302690556e+01    0.2161363    0.1790971  14.58 0.0007653433    1.647    0.393
       342 -10.0055    211.7285    227.1908   1.0869372768e+02  -5.6418999033e+00    0.3872752    0.2277075 -37.54  0.001402479    1.853    0.460
       343  -9.0745    158.5215     88.9683   8.9289314970e+01   3.2858400383e+01     0.211594    0.1418273  -9.06  0.000808351    2.411    0.585
       344  -8.2814    183.6633     88.6540   8.3783731257e+01   2.6720482685e+01    0.1594261    0.1226877  17.92 0.0007048541    1.775    0.437
       345  -9.7187    225.6571     80.6334   7.4455208532e+01   1.7974429681e+01    0.3514808    0.2017595  38.31 0.0007481761    2.513    0.602
       346 -10.4207    219.7842    239.7826   1.0930713246e+02  -8.8564308283e+00    0.3318589    0.2022552 -42.63 0.0008932426    1.980    0.495
       347  -8.2808    188.6638     85.6820   8.2024372213e+01   2.6022280338e+01    0.1551978    0.1210164  21.78 0.0007048806    1.701    0.412
       348 -11.1706    216.0801    232.9487   1.0884875761e+02  -7.2530560975e+00    0.4697215    0.3683655 -33.73  0.001918067    1.425    0.298
       349  -8.6898    206.4705     83.4861   7.8228196329e+01   2.2041672170e+01    0.1459938    0.1420454  81.68  0.000103684    1.092    0.084
       350  -8.5046    193.4985     81.4695   8.0024143121e+01   2.5573074207e+01    0.1497089    0.1439085  67.09 0.0008087134    1.077    0.072
       351 -10.5755    224.6275    249.6854   1.1004468396e+02  -1.0986034095e+01    0.2633314     0.230462  17.60  0.001051857    1.189    0.159
       352 -11.3594    225.2025    242.4984   1.0873406114e+02  -1.0097668495e+01     0.510523     0.304207 -35.13    0.0026637    1.841    0.457
       353 -10.6523    216.9237    223.1294   1.0694559645e+02  -5.8933542299e+00    0.4408315     0.278977 -48.34  0.001603401    2.013    0.503
       354 -11.3814    191.5184    247.1804   1.1603191875e+02  -5.2716563716e+00    0.5102618     0.437417 -18.66  0.002343246    1.312    0.238
       355 -10.5596    159.2160    238.0265   1.2112744624e+02   1.8455692521e+00    0.5085096    0.3223445 -55.14    0.0023688    1.940    0.485
       356  -8.6136    167.6723     75.6621   8.3562192239e+01   3.3023806601e+01    0.1578783    0.1193611  21.32 0.0007051781    1.729    0.422
       357  -9.0499    158.0679    230.6486   1.2024218927e+02   3.3554972051e+00    0.2387008    0.1931834 -50.02  0.001386488    1.443    0.307
       358  -8.9622    234.4820     70.6248   7.0896986212e+01   1.7589247217e+01    0.2353193    0.1360645 -25.42  0.001016814    2.351    0.575
       359  -8.3596    230.6107     70.7106   7.1447290582e+01   1.8460912780e+01    0.1376246      0.10823  31.69 0.0007008955    1.763    0.433
       360  -8.3175    242.4450     60.4335   6.7620878640e+01   1.7387138256e+01    0.1307944    0.1197084 -76.36 0.0002364995    1.119    0.106
       361  -9.6831    166.8111    250.3887   1.2141116813e+02  -1.5441216717e+00    0.4034623    0.1263485  38.28  0.001460286    2.766    0.638
       362  -9.2284    250.5244     55.0418   6.5531727466e+01   1.6421395602e+01    0.1879731    0.1188582 -41.43 0.0006412046    1.510    0.338
       363 -10.1300    163.5272    246.7230   1.2153575208e+02  -3.8176061291e-01    0.3853164    0.2307354 -57.48  0.001381724    2.219    0.549
       364 -11.1080    248.7407     43.3193   6.3285388425e+01   1.8495823101e+01     0.610061    0.4944649 -16.15  0.003617756    1.816    0.449
       365 -10.9171    176.4006    245.9743   1.1884692762e+02  -2.4979976536e+00    0.4627985    0.3348231 -31.89   0.00185049    1.676    0.403
