#   1 NUMBER                 Running object number                                     
#   2 MAG_AUTO               Kron-like elliptical aperture magnitude                    [mag]
#   3 X_IMAGE                Object position along x                                    [pixel]
#   4 Y_IMAGE                Object position along y                                    [pixel]
#   5 X_WORLD                Barycenter position along world x axis                     [deg]
#   6 Y_WORLD                Barycenter position along world y axis                     [deg]
#   7 A_WORLD                Profile RMS along major axis (world units)                 [deg]
#   8 B_WORLD                Profile RMS along minor axis (world units)                 [deg]
#   9 THETA_WORLD            Position angle (CCW/world-x)                               [deg]
#  10 FWHM_WORLD             FWHM assuming a gaussian core                              [deg]
#  11 ELONGATION             A_IMAGE/B_IMAGE                                           
#  12 ELLIPTICITY            1 - B_IMAGE/A_IMAGE                                       
         1 -11.0766    237.4979     36.6896   3.5579330609e+02   2.5484717422e+01     0.591748    0.3900046 -50.55  0.003315537    1.168    0.144
         2 -10.0817    120.0455      8.6418   1.9767592264e-01   5.3060277298e+01    0.4039688    0.2539753  58.30   0.00211184    1.546    0.353
         3  -7.1006    210.6028      8.5076   3.5209386763e+02   3.3431231654e+01    0.1093824   0.08029705 -65.42 0.0001816914    1.042    0.041
         4 -12.6661      8.7189    208.1735   7.7173337584e+01   2.7770639554e+01     1.530113    0.9504511 -11.50  0.007534912    2.184    0.542
         5 -12.2811     29.5232    236.3413   7.3129569184e+01   1.9530989726e+01     1.823622     1.403417 -48.31   0.01110439    1.617    0.381
         6 -13.6969     28.9441    180.4523   6.9516397595e+01   3.2862274459e+01     6.544074     2.926936  58.00   0.02564688    2.414    0.586
         7  -8.4962     64.9593    221.6025   6.2877508710e+01   1.9013592538e+01    0.2194647    0.1651417  51.30 0.0006110001    1.286    0.222
         8  -9.0690     77.2152    220.6766   5.9581087212e+01   1.7771895069e+01    0.2898771    0.1898223  61.72  0.001464104    1.801    0.445
         9 -10.2965     20.7711    211.6651   7.4050916691e+01   2.5906028537e+01    0.4704743    0.3275022 -27.80  0.002477206    1.890    0.471
        10  -7.6936     88.4479    191.6327   5.3114632465e+01   2.2871024188e+01    0.2562511    0.1268149  28.85 0.0007591898    1.843    0.457
        11  -8.9062     30.9046    249.6081   7.3494335142e+01   1.6635783564e+01    0.4312309     0.185004  45.79  0.002121213    1.886    0.470
        12  -8.6900    100.9897    175.9806   4.7368826220e+01   2.4717546009e+01    0.2042322     0.193096  29.94            0    1.005    0.005
        13 -10.2621    247.4730    229.4572   2.6412955071e+01  -2.4725292307e+00    0.2938304    0.2052809 -13.16  0.002415436    1.103    0.093
        14  -9.5814     51.9491    166.9442   6.0796162781e+01   3.3845279324e+01    0.3725436     0.277855  -9.97   0.00111519    1.651    0.394
        15  -9.4549     58.0862    162.2563   5.8196950671e+01   3.4291368811e+01    0.3325508    0.2674403 -23.93 0.0007966396    1.468    0.319
        16  -8.3274    124.9500    230.3005   4.9021196744e+01   1.0007003643e+01    0.1904807    0.1512241  18.05  0.001175614    1.080    0.074
        17 -11.8466     20.5275    189.4761   7.2759485259e+01   3.1347392147e+01     1.141085    0.7119001 -13.83 0.0009593703    2.164    0.538
        18  -9.0289     69.3894    154.0716   5.3319257484e+01   3.4862095733e+01    0.3331721    0.2874217  70.76  0.001161037    1.202    0.168
        19  -8.8524    146.9310    152.0638   3.1604253830e+01   2.2580036104e+01    0.2613616    0.2062401  45.04 0.0006768345    1.314    0.239
        20  -8.1277    142.4819    151.9588   3.2588556557e+01   2.3352846105e+01    0.1988008     0.182552  35.51 0.0003500348    1.103    0.094
        21 -12.7051      8.5561    153.1595   7.4106972179e+01   4.1827055909e+01     3.368369     1.049002  85.77    0.0100456    4.289    0.767
        22  -9.4746     77.3138    149.1335   4.9952096760e+01   3.4944424428e+01    0.4949316      0.35945 -11.76  0.001443187    1.850    0.460
        23 -13.5094      8.1184    227.2482   7.8123208175e+01   2.3431718266e+01      2.38583     1.863612  -3.86   0.01292002    1.550    0.355
        24 -10.1674     69.7555    145.3617   5.1772992870e+01   3.7063053333e+01    0.6667289    0.4529554  75.23  0.002422668    1.842    0.457
        25  -9.5727     65.4879    141.5224   5.2558706565e+01   3.8694954012e+01    0.4395155    0.3498558  -7.17  0.001279004    1.523    0.343
        26 -10.8473     54.9759    150.3233   5.7549406693e+01   3.7840739575e+01    0.3695671    0.2993063  -0.47 0.0007533286    1.417    0.294
        27  -8.7599     47.5037    144.9404   5.9373449243e+01   4.0233042981e+01    0.2852226    0.2445507  18.95   0.00066984    1.193    0.162
        28 -11.8756     11.6276    245.5478   7.7944549767e+01   1.9208852738e+01    0.8682178    0.8147897  -0.89  0.004858736    1.313    0.238
        29  -7.9467     45.2885    137.7144   5.9117639505e+01   4.2448010828e+01     0.204464    0.1724044 -28.62  0.001035369    1.333    0.250
        30  -8.3014     81.1613    135.2939   4.6184499715e+01   3.7840901797e+01    0.2447374    0.2043696 -45.60 0.0004620622    1.277    0.217
        31  -7.4998     45.4702    133.4215   5.8396074968e+01   4.3579094622e+01    0.1514811    0.1409939  51.15 9.392892e-05    1.029    0.028
        32  -9.0831     56.9950    130.2612   5.3605334610e+01   4.2882015861e+01    0.4544375     0.155479 -66.56  0.001431875    3.225    0.690
        33  -7.2595    106.6877    128.2827   3.6927861767e+01   3.5031112022e+01    0.1524292    0.1153144  71.81 0.0003547211    1.572    0.364
        34  -9.4743    245.2403    125.4778   1.0735159690e+01   1.2268113292e+01     0.312573    0.1430141 -34.42  0.001148852    2.046    0.511
        35  -9.5776      1.6682    112.7928   7.3505913636e+01   5.3148397504e+01    0.4828873    0.1785225 -79.18  0.001807623    2.634    0.620
        36  -8.3767     45.6690    226.5808   6.8359048067e+01   2.0040831589e+01    0.2456788    0.2070214 -50.32  0.001147694    1.410    0.291
        37  -7.6786     56.4096    103.1889   4.8426463229e+01   4.9971388835e+01    0.1982722    0.1470946 -79.35 0.0004576348    1.542    0.351
        38 -10.9622    104.3847    100.1236   3.1034452463e+01   4.1862997418e+01    0.4882371    0.3919593  31.45  0.001526732    1.388    0.279
        39  -8.8158     99.2962     80.7740   2.7365666405e+01   4.7007832089e+01    0.2810244    0.2339014 -82.88 0.0009459054    1.294    0.227
        40  -8.0059     34.0203     76.8131   5.2159540501e+01   5.9625582316e+01    0.2231542    0.1892875  55.27  0.001214576    1.264    0.209
        41  -7.3466     24.3550     69.3170   5.5321667439e+01   6.2543374542e+01    0.1507122   0.09876729 -24.48 0.0005621762    1.746    0.427
        42  -9.4752    185.5891     65.7934   6.3805623882e+00   3.1021487090e+01    0.2155512    0.1773369 -72.66  0.000257797    1.043    0.041
        43  -7.6951    144.4773     59.4927   1.0965935378e+01   4.0704982582e+01    0.1375237      0.11864 -84.06 7.815793e-05    1.010    0.010
        44  -9.0105    221.4597     40.2033   3.5756568460e+02   2.7789200593e+01    0.2799527    0.1760818 -42.17  0.001032994    1.429    0.300
        45 -10.3327    228.0600     43.5715   3.5771066892e+02   2.6224139672e+01    0.3879132    0.3354518  16.18  0.001407232    2.098    0.523
        46 -11.6013    212.4043     54.3140   1.0823089742e+00   2.7577861616e+01    0.5160785     0.490021  50.83  0.003532769    1.526    0.345
        47 -11.3228    220.4989     49.4425   3.5941971346e+02   2.6782948632e+01    0.6907241      0.44269 -56.75  0.004641104    1.210    0.173
        48  -7.3885     75.6730     49.9878   2.5285995685e+01   5.7932294992e+01    0.2217449    0.1087081 -63.91 0.0007043857    4.253    0.765
        49  -8.2068    249.9855    249.7613   2.8762565106e+01  -5.1420341180e+00    0.1149464   0.06670949  14.52 0.0008889012    1.639    0.390
        50  -7.5646     97.5075     33.5365   1.2881068965e+01   5.5524595195e+01    0.1385757    0.1186593  73.56 9.443834e-05    1.006    0.006
        51  -8.2978    212.7189     25.6072   3.5534998850e+02   3.1132370777e+01    0.1686612    0.1553261 -55.13  0.001327186    1.419    0.295
        52  -7.9856     96.8968     16.5354   6.9397312593e+00   5.7792612390e+01    0.1772019    0.1606574 -85.29 -6.525998e-05    1.130    0.115
        53  -8.4591     57.9815    242.7666   6.6443359135e+01   1.5299759874e+01    0.1962661    0.1830241  52.29  0.000655922    1.164    0.141
