#   1 NUMBER                 Running object number                                     
#   2 MAG_AUTO               Kron-like elliptical aperture magnitude                    [mag]
#   3 X_IMAGE                Object position along x                                    [pixel]
#   4 Y_IMAGE                Object position along y                                    [pixel]
#   5 X_WORLD                Barycenter position along world x axis                     [deg]
#   6 Y_WORLD                Barycenter position along world y axis                     [deg]
#   7 A_WORLD                Profile RMS along major axis (world units)                 [deg]
#   8 B_WORLD                Profile RMS along minor axis (world units)                 [deg]
#   9 THETA_WORLD            Position angle (CCW/world-x)                               [deg]
#  10 FWHM_WORLD             FWHM assuming a gaussian core                              [deg]
#  11 ELONGATION             A_IMAGE/B_IMAGE                                           
#  12 ELLIPTICITY            1 - B_IMAGE/A_IMAGE                                       
         1 -14.7352    125.8940     84.8417   6.3132383739e+01   4.0787599265e+01     4.862044     2.901678 -20.57    0.0186724    2.464    0.594
         2 -15.0079    178.9963    137.9537   6.4432253539e+01   1.8156523760e+01     3.863672     2.454941 -16.64   0.01535726    2.334    0.572
         3 -13.3321    134.5687    149.4751   7.7743147665e+01   2.4520328893e+01     3.001583     1.320212 -60.43  0.009083062    3.390    0.705
         4 -14.9400    164.3384    127.4053   6.5143497968e+01   2.3443810542e+01      5.60128      3.16802 -15.30   0.01643786    4.302    0.768
         5 -15.4654    153.9913    103.3156   6.1367277867e+01   3.0775758874e+01     5.610368     3.133085 -35.60   0.02267531    1.883    0.469
         6 -15.0480    180.5831    169.5795   7.1130268466e+01   1.1162530148e+01     4.250597     3.355722  16.10   0.02170544    1.356    0.262
         7 -10.1856    112.5262     34.5737   5.0425409940e+01   5.1849272207e+01    0.2578725     0.213906  76.01 0.0005363915    1.325    0.245
         8 -10.8836     12.3174     11.8811   7.9655606259e+01   7.2254358601e+01    0.2059848    0.1622914   5.97 0.0006444947    1.210    0.173
         9  -9.6681     91.1843      8.8280   4.6268410574e+01   5.9266671399e+01    0.1794057    0.1221389  39.37 0.0004595083    1.286    0.222
        10  -9.6236     81.8107    246.2249   1.0662022296e+02   1.0830893145e+01    0.2036844    0.1888265 -40.39  0.000442855    1.316    0.240
        11  -8.5839    141.4590    250.0611   9.4084877601e+01   1.5708815682e+00    0.1633501    0.1290994 -46.81 0.0003410326    1.461    0.316
        12  -8.1140    132.6783    250.7499   9.6075934069e+01   2.7237126153e+00    0.1258836   0.09219448   6.30 0.0002174553    1.534    0.348
        13  -8.0638    128.6544    250.7103   9.6942611147e+01   3.3152981970e+00    0.1298772   0.09447315   1.44 0.0005118086    1.657    0.396
        14  -8.9908     88.9136    250.2762   1.0550757777e+02   9.0547776146e+00    0.1722226    0.1444576  37.56 0.0003476716    1.094    0.086
        15  -8.8704     75.9042    250.4904   1.0831066686e+02   1.0770335733e+01    0.1776059    0.1088118  36.09 0.0003649634    1.434    0.303
        16  -8.5977     67.6215    249.8151   1.0999938638e+02   1.1988863935e+01    0.1706464    0.1451676  68.74 0.0005417721    1.095    0.087
        17  -8.9099     71.0011    248.4847   1.0916214610e+02   1.1817094847e+01    0.1718735    0.1373935  43.58 8.398575e-05    1.105    0.095
        18  -8.6739     24.8119    250.4275   1.1872808469e+02   1.6927834694e+01    0.1565153    0.1259015  56.82  0.000329982    1.104    0.094
        19  -9.3232     21.7056    248.1279   1.1919506458e+02   1.7721756820e+01    0.1701613    0.1523566  54.24 0.0004566805    1.252    0.201
        20  -8.1798     15.2499    250.6791   1.2057367795e+02   1.7872872997e+01    0.1183645    0.0647738  65.25 0.0002425569    1.533    0.347
        21 -10.0161     71.7113    242.9090   1.0847751099e+02   1.2860321504e+01    0.2092363    0.1839959  31.86 0.0003899464    1.211    0.174
        22  -9.1507     75.4773    245.0406   1.0787155990e+02   1.1923430205e+01    0.1973425    0.1655216  29.26 0.0004948049    1.246    0.198
        23  -9.0004     78.8033    243.2240   1.0696637982e+02   1.1847991036e+01    0.1786036     0.146132  42.32 0.0003429794    1.094    0.086
        24 -10.4289     42.4431    245.1264   1.1485425058e+02   1.6042820529e+01    0.2707397    0.2411217 -10.19  0.001420729    1.606    0.377
        25 -11.0855     33.8538    246.0337   1.1666367512e+02   1.6835271665e+01    0.3425097    0.2561208 -17.21 0.0007806191    2.316    0.568
        26  -8.3950     12.8572    247.1867   1.2084364901e+02   1.8817886025e+01    0.1338277    0.1218949  82.84  0.000392991    1.283    0.221
        27  -8.6925      7.9200    247.4995   1.2179285320e+02   1.9239981072e+01    0.1466748    0.0987775  39.67 0.0003335961    1.434    0.303
        28  -8.8902    136.0375    246.0357   9.4708319605e+01   3.0907327448e+00    0.1972713    0.1463586  -4.30  0.000486844    1.592    0.372
        29  -8.9119    119.0636    246.3603   9.8476301844e+01   5.5225847850e+00    0.1854957    0.1452509  32.88 0.0004428293    1.110    0.099
        30 -10.0799    104.3816    245.7321   1.0163051280e+02   7.7710804638e+00    0.2458898     0.194736  24.81 0.0006793482    1.239    0.193
        31  -8.5346    102.2819    242.3437   1.0169094557e+02   8.7427449507e+00    0.1371281     0.117208  47.40 0.0003370552    1.060    0.056
        32 -10.2640     57.9331    243.5895   1.1149619550e+02   1.4490658449e+01    0.2721301    0.2458153 -52.13  0.001151607    1.376    0.273
        33  -9.6612     56.8101    239.2026   1.1135215484e+02   1.5549578686e+01    0.2222109    0.1920666 -49.70 0.0003898131    1.434    0.303
        34  -9.9518     50.2310    245.2528   1.1325383451e+02   1.5092918829e+01    0.2002943     0.177519  58.03 0.0005836112    1.116    0.104
        35 -10.2509     50.6392    239.6226   1.1270793074e+02   1.6219538946e+01    0.4048282    0.3251313  -9.98  0.002421925    1.873    0.466
        36  -8.6047    186.6888    245.6389   8.3874907772e+01  -4.1207274012e+00    0.1355441   0.08581397  -5.73  0.000704139    1.747    0.428
        37  -8.7378     66.7118    244.9011   1.0974329640e+02   1.3103514235e+01    0.1671067    0.1438089  70.14 0.0004704115    1.086    0.079
        38  -9.4743    113.0871    243.2272   9.9399151995e+01   6.9996964484e+00    0.2122662    0.1737007 -13.40 0.0006545566    1.482    0.325
        39  -9.4210     22.7324    242.5137   1.1865856549e+02   1.8767872341e+01     0.294845    0.1321789 -73.11  0.001552055    2.135    0.532
        40  -9.4989     17.2246    242.6005   1.1974926640e+02   1.9318661695e+01    0.3218579    0.1899884 -40.29  0.001183672    2.978    0.664
        41  -8.8236    146.3771    242.8231   9.1992880895e+01   2.1496521635e+00     0.177898    0.1169499 -34.36 0.0009417122    1.708    0.415
        42  -9.8151     36.9415    235.1054   1.1524875277e+02   1.8788521735e+01    0.2016958    0.1593307 -79.60 0.0003465475    1.261    0.207
        43 -10.7626     35.8536    229.1288   1.1502456369e+02   2.0212007456e+01    0.3302957    0.2131892  35.81 0.0004271773    1.510    0.338
        44  -9.7089     30.0246    228.1955   1.1620089841e+02   2.1058437087e+01    0.4028347    0.2179378 -53.90  0.002101129    2.194    0.544
        45 -10.2262     27.8745    223.8313   1.1634129889e+02   2.2257669146e+01    0.3935677    0.1900554 -71.38  0.001765853    1.940    0.484
        46  -9.3214     35.4646    239.4457   1.1587578109e+02   1.8028958552e+01    0.2237382    0.1598879  55.62  0.000517902    1.169    0.145
        47 -11.6915     31.2949    234.0783   1.1635761647e+02   1.9637506705e+01    0.3316443     0.238549 -86.34 0.0005322972    1.291    0.226
        48  -9.8676     27.6627    241.9927   1.1764058701e+02   1.8352127236e+01    0.1956302    0.1761704 -55.47 0.0006818348    1.454    0.312
        49  -9.4659     31.4119    240.5329   1.1678389520e+02   1.8249937429e+01    0.2377254    0.1847547  66.41  0.000443485    1.045    0.043
        50  -8.8049     10.8619    243.1304   1.2101231764e+02   1.9844261210e+01    0.1353425      0.12441  76.46 0.0003981245    1.281    0.219
        51  -8.5891      3.9548    242.6406   1.2230390669e+02   2.0607433093e+01    0.1522018     0.116779  61.93 0.0006249557    1.084    0.077
        52  -8.9887    141.5408    241.9396   9.2925238418e+01   3.0299319442e+00    0.1780971    0.1305759 -45.61 0.0004496072    1.524    0.344
        53  -9.0360    133.9838    242.3780   9.4653227958e+01   4.0734529391e+00    0.1883333    0.1464864  28.05 0.0004021679    1.129    0.114
        54  -8.6759     98.4154    241.7608   1.0248126925e+02   9.4143413159e+00    0.1625302    0.1218384 -46.64  0.000465709    1.552    0.356
        55  -9.5341     87.5506    242.5267   1.0497381693e+02   1.0791263003e+01     0.236596    0.1682525 -66.44  0.001148123    1.557    0.358
        56  -9.5112     91.2186    240.8408   1.0397478135e+02   1.0622101354e+01    0.4297523    0.1503109  44.19  0.001721123    2.539    0.606
        57  -9.5282     83.5596    241.2273   1.0571330137e+02   1.1609091491e+01    0.2234628    0.1877399  22.77 0.0003978396    1.288    0.223
        58  -9.1232     63.5983    241.2943   1.1007882400e+02   1.4251381795e+01     0.312047    0.1525966 -74.35  0.001188415    2.268    0.559
        59  -8.5427    126.4878    241.4979   9.6193883227e+01   5.3560169440e+00    0.1334601    0.1168378  22.86 0.0008099294    1.056    0.053
        60  -8.8180    122.0609    241.4613   9.7174220409e+01   6.0207578407e+00    0.1980911    0.1171445  32.32 0.0004287278    1.496    0.332
        61  -8.5866    122.7854    237.9409   9.6538161397e+01   6.5987982454e+00    0.2408946    0.1669101 -30.61 0.0002838424    1.774    0.436
        62  -9.3124    125.7034    234.3884   9.5387663316e+01   6.8600396450e+00    0.2543263    0.1986388   5.54 0.0006016807    1.430    0.301
        63  -8.9313    126.5203    230.5089   9.4648993755e+01   7.5110304846e+00    0.2061441    0.1623394  21.76 9.752202e-05    1.222    0.182
        64  -9.2344    149.7952    245.9675   9.1706052105e+01   1.0814952787e+00    0.3066138    0.1795862 -23.29  0.001451702    2.321    0.569
        65  -8.2562    153.2646    240.3468   9.0123583105e+01   1.5765205445e+00    0.1324683   0.09466131  -9.47 0.0003826765    1.608    0.378
        66  -8.4858    130.5533    240.4740   9.5149056917e+01   4.9454403917e+00     0.133416    0.1169078  20.21 0.0001208922    1.059    0.055
        67 -10.0887     67.7559    238.9017   1.0894943208e+02   1.4215391441e+01    0.2969424    0.1946095 -88.47 0.0004924122    1.682    0.406
        68  -9.1671    226.1614    239.1782   7.5078108889e+01  -8.2572626073e+00     0.150689    0.1315548 -10.15 0.0004239598    1.310    0.237
        69  -9.2131    118.0967    239.1326   9.7751464947e+01   7.0641882578e+00    0.1964172    0.1667224   9.13 0.0004628491    1.250    0.200
        70  -9.8830    104.2934    237.5366   1.0065355735e+02   9.4200520438e+00    0.3451545     0.236431   9.16  0.001747665    1.908    0.476
        71  -9.1042    107.4820    233.2491   9.9383816977e+01   9.8292860709e+00    0.2119742    0.1815772 -25.12  0.001106565    1.370    0.270
        72  -9.9854     77.2914    238.2565   1.0678475181e+02   1.3082311555e+01    0.2232982    0.2007163  30.65 0.0004605067    1.188    0.158
        73  -8.9158    111.8974    238.3010   9.9036456560e+01   8.1483295671e+00    0.1821499    0.1546909  28.94 0.0004178296    1.094    0.086
        74  -9.9831     42.1568    236.3547   1.1424340034e+02   1.7922532315e+01    0.3436882    0.2645083 -47.88   0.00164693    1.672    0.402
        75  -9.2940     17.2298    237.3712   1.1944412949e+02   2.0412574999e+01    0.1948783    0.1378336 -88.40 0.0009959844    1.268    0.211
        76  -8.5785     17.4943    233.5597   1.1916220535e+02   2.1197517587e+01    0.1801281     0.102691 -80.04 0.0004646068    1.613    0.380
        77  -8.7613     21.3734    238.2706   1.1866898599e+02   1.9798712819e+01     0.157601    0.1263614 -53.30  0.001046887    1.610    0.379
        78  -8.9017     20.8170    235.3663   1.1860048920e+02   2.0472917799e+01    0.2361409    0.1724883 -63.99 0.0002663761    1.529    0.346
        79  -8.9396      1.8220    237.5930   1.2246718111e+02   2.1849226010e+01    0.1715299    0.1284662 -84.25  0.000518217    1.260    0.206
        80 -10.2251    204.5325    236.8785   7.8847095392e+01  -5.1396432300e+00    0.2217048    0.1976187  57.83  0.001172988    1.829    0.453
        81  -9.2740    157.0274    236.6872   8.8744167148e+01   1.6791291798e+00    0.1889364    0.1482109  22.82 0.0003742625    1.121    0.108
        82  -9.3950    134.8909    236.8403   9.3667232312e+01   4.9891042497e+00    0.2063228    0.1681744   1.70 0.0007402101    1.304    0.233
        83  -9.6588    130.2661    235.4154   9.4501855053e+01   5.9657839510e+00      0.30195    0.2194908  -0.83  0.001585376    1.689    0.408
        84  -9.9628    101.9097    228.4145   1.0003845965e+02   1.1669046295e+01    0.2216249    0.1898349 -48.44 0.0001650647    1.296    0.229
        85  -9.9205     95.4652    235.8450   1.0244161562e+02   1.1047388388e+01    0.2280028    0.2144437 -46.64 0.0006975112    1.215    0.177
        86  -9.8474     99.5400    233.1153   1.0118191412e+02   1.1026292245e+01     0.274825    0.2366664 -84.86 0.0009524982    1.280    0.219
        87  -8.8894     72.4543    237.0457   1.0773126827e+02   1.3987420927e+01    0.1727434    0.1239493 -70.94 0.0005082996    1.480    0.324
        88  -8.3834      8.5787    237.4608   1.2115561358e+02   2.1244155459e+01    0.1150961   0.09182945  74.19 0.0001028438    1.056    0.053
        89  -8.4599    189.6302    236.2109   8.1743254198e+01  -2.9874901617e+00       0.1716    0.1091796 -27.97 0.0005320362    1.556    0.357
        90  -9.6851    146.0990    236.0163   9.1047670180e+01   3.4489841452e+00    0.2006433    0.1759147  10.66 0.0004177322    1.059    0.055
        91  -8.5518    183.4597    235.5076   8.2904640505e+01  -1.9942802362e+00    0.1350479    0.1083263   1.61 0.0002689587    1.090    0.083
        92  -8.2535    120.2914    235.3338   9.6745449751e+01   7.4895888227e+00     0.133048    0.1016169 -10.96 0.0003029082    1.634    0.388
        93 -10.2143     90.7860    234.2279   1.0331008360e+02   1.2054717086e+01    0.2456591     0.202662 -40.57 0.0004141672    1.440    0.306
        94  -8.7994     52.5536    235.4558   1.1194195405e+02   1.6874730791e+01    0.2063523    0.1667905  42.12 5.944159e-05    1.188    0.158
        95 -10.1124     49.3161    234.3139   1.1254401098e+02   1.7514321896e+01    0.3643329    0.2160805 -42.45  0.001545134    2.452    0.592
        96  -9.5359     54.5895    231.2257   1.1111956900e+02   1.7541411779e+01    0.2257458    0.2025779 -58.32 0.0003771035    1.313    0.239
        97  -9.7585     57.6533    226.4227   1.0998449629e+02   1.8219067727e+01    0.3281124    0.2214343 -27.73   0.00151365    2.394    0.582
        98 -10.3657     62.8582    221.2778   1.0827700261e+02   1.8711051558e+01     0.248811     0.228356  33.68 0.0003466289    1.198    0.166
        99 -10.1599     59.1324    220.7224   1.0908089957e+02   1.9315682322e+01    0.6026989    0.3259591 -35.01  0.002467076    3.326    0.699
       100  -9.2006    228.5237    234.4998   7.3844336724e+01  -7.8512208758e+00    0.1252083   0.09580385  -6.61 9.428438e-05    1.008    0.008
       101  -9.3322    170.3097    233.5686   8.5371504538e+01   2.6021922912e-01     0.227042    0.1427443 -22.75 0.0009690634    1.797    0.444
       102  -8.9270    162.4575    233.5390   8.7065222685e+01   1.4377190222e+00    0.2248279    0.1153109 -34.74  0.001016735    2.193    0.544
       103  -9.3303    140.0845    233.3089   9.1984272397e+01   4.8794300370e+00    0.2021379    0.1739264 -15.64 0.0002902158    1.223    0.183
       104 -10.0776     77.1587    233.2936   1.0628754215e+02   1.4152769049e+01    0.2756188    0.2177271 -29.22 0.0006244067    1.694    0.410
       105  -9.2733     79.9270    229.3532   1.0522429665e+02   1.4623400145e+01    0.1842332    0.1538353  39.70  0.000422604    1.124    0.111
       106  -9.6278     78.9400    223.2625   1.0475468312e+02   1.6102060826e+01     0.214881    0.1874928 -61.97 0.0002804157    1.238    0.192
       107  -9.2036     66.8198    230.7713   1.0835111005e+02   1.6081251942e+01    0.1974447    0.1708275 -64.57 0.0006075921    1.271    0.213
       108  -9.2865     75.6768    227.0024   1.0593645404e+02   1.5722393616e+01    0.2272125    0.1738304  42.52 0.0003585461    1.186    0.157
       109  -9.1706     68.0749    220.1499   1.0694226196e+02   1.8282257246e+01    0.1793914    0.1753521   1.96 0.0002832049    1.220    0.181
       110  -9.9292     72.9933    222.3303   1.0603596753e+02   1.7128008842e+01    0.2319515    0.1909037 -70.14  0.000385621    1.259    0.206
       111  -9.8335     75.4122    218.1146   1.0498272845e+02   1.7752250877e+01    0.2333057    0.2008203  41.56 0.0003804848    1.119    0.106
       112  -9.4352     71.5010    216.9263   1.0577244733e+02   1.8559102502e+01    0.2189018    0.1869963  12.53 0.0004479735    1.396    0.284
       113  -9.7962     72.6149    232.1794   1.0719252040e+02   1.5006920702e+01    0.3436929    0.2548534  -3.72  0.001197891    2.012    0.503
       114 -10.9270     71.5366    227.5132   1.0694162034e+02   1.6170304682e+01     0.488497    0.2721605 -48.52  0.002359844    2.142    0.533
       115  -9.0962    152.8502    232.9265   8.9078343972e+01   3.0037173028e+00    0.2027405    0.1638287  -2.05 0.0003536739    1.251    0.201
       116 -11.0190    114.6365    232.3554   9.7628358714e+01   8.9431946585e+00    0.2853847    0.2272304  21.51 0.0001974576    1.250    0.200
       117  -8.3388    212.7202    232.3030   7.6464007953e+01  -5.5019428782e+00    0.1043563    0.1023327  16.14 0.0002473599    1.549    0.354
       118  -8.4327    166.4547    232.4791   8.6026749077e+01   1.0302938485e+00      0.13637    0.1152255   6.45 0.0006155817    1.051    0.048
       119  -8.9334    134.1417    232.1215   9.3148741597e+01   6.0207791952e+00    0.1959555    0.1694875   5.79 0.0003342133    1.163    0.140
       120  -9.3632    121.8446    231.3415   9.5837855838e+01   8.0576778976e+00    0.2272027    0.1918493 -37.64 0.0003311044    1.309    0.236
       121 -10.1321     84.7524    231.4439   1.0435943624e+02   1.3499236300e+01    0.4125123    0.2698846   5.26  0.001432362    2.381    0.580
       122 -10.6586     92.4743    227.8822   1.0215889683e+02   1.3165550730e+01    0.3881532    0.2844717  52.52  0.001053681    1.298    0.230
       123 -11.3469     85.8750    222.6723   1.0305886905e+02   1.5256041479e+01    0.5975509    0.3248267 -33.32  0.001509137    3.132    0.681
       124  -9.8083     91.9206    221.8402   1.0152973987e+02   1.4567444493e+01    0.2725151    0.2276789 -41.69   0.00034212    1.371    0.271
       125 -10.3743     97.5484    218.4358   9.9744828270e+01   1.4492120217e+01    0.5661932    0.2012016  37.20  0.002147877    2.480    0.597
       126 -10.4422     99.5200    223.6947   9.9978709386e+01   1.3039529755e+01    0.2894671    0.2245587 -34.08   0.00105458    1.549    0.354
       127  -8.9628     95.5551    223.5096   1.0088728566e+02   1.3666858988e+01    0.2182477     0.164442  27.37 9.486549e-05    1.329    0.248
       128  -8.3804    194.4670    231.4536   7.9954525369e+01  -2.8735267456e+00     0.132346    0.1084968   0.84 0.0002218416    1.012    0.012
       129  -8.7394    187.7140    230.8602   8.1244341113e+01  -1.8118280288e+00    0.2331746    0.1275596  -7.87 0.0009590538    2.825    0.646
       130  -9.6498    146.4654    230.4715   9.0119665032e+01   4.4470410247e+00    0.2294297    0.1958917  18.12 0.0005181949    1.054    0.051
       131  -9.3754    132.4776    229.1178   9.3082732714e+01   6.8728870042e+00    0.4441874     0.250946   4.92  0.001664875    3.305    0.697
       132  -8.7910    158.7899    228.8257   8.7113704482e+01   2.8651532241e+00    0.2015265    0.1633794  -1.28 0.0003952038    1.215    0.177
       133 -10.4931    152.9450    227.4249   8.8187827862e+01   4.0315043806e+00    0.4183587    0.2662022 -35.16  0.001652787    1.697    0.411
       134  -9.4946    156.5977    223.8562   8.6791056163e+01   4.1495221526e+00      0.30102    0.1981381 -30.18   0.00122762    1.656    0.396
       135 -10.1085    176.4501    227.2356   8.3007293370e+01   4.7827914863e-01    0.2670554    0.1755992 -21.72  0.001380511    1.628    0.386
       136 -13.0008    136.0191    192.0412   8.6095061130e+01   1.4236087385e+01     2.650545     1.366988 -29.94  0.009460826    2.894    0.654
       137 -13.3456    164.6369    203.6601   8.1461738425e+01   6.8604839458e+00     4.371026     2.311464  -5.41   0.01139927    6.409    0.844
       138 -12.8172    189.7107    192.8410   7.3900700390e+01   4.8689188769e+00     1.550668     1.290675  80.71   0.00437818    1.938    0.484
       139 -12.2555    160.2945    195.1722   8.0873450043e+01   9.3516727343e+00     1.245554       1.0225   5.44  0.006596548    1.240    0.193
       140 -12.8868    156.5910    179.0654   7.8586115543e+01   1.3491920757e+01     1.901133     1.371548 -24.53  0.008924147    1.525    0.344
       141 -13.4243    119.8854    139.0863   7.9321151003e+01   2.9904337719e+01     2.547944     1.878008  35.41   0.01159479    1.397    0.284
       142  -8.6566    113.4158    248.7818   1.0001717451e+02   5.8825577056e+00    0.1570943     0.121435 -40.47 0.0004300815    1.518    0.341
       143  -9.5534    119.6250    194.6094   9.0644298101e+01   1.6442661584e+01    0.2477398     0.238385  -3.92 0.0008251606    1.054    0.052
       144 -10.9735    109.6766    226.3271   9.7953412318e+01   1.0947991614e+01    0.5296096    0.3383998 -23.06   0.00239262    2.393    0.582
       145 -10.4044    120.2988    204.0279   9.2057736771e+01   1.4167970687e+01    0.5380126    0.2753579 -36.77  0.001562367    2.513    0.602
       146  -9.2943    119.6806    198.9200   9.1363947130e+01   1.5435137280e+01     0.298178    0.2045548 -32.24 0.0003573103    1.715    0.417
       147  -9.0699    113.8541    187.1798   9.0823867579e+01   1.9170401924e+01    0.2537008     0.193139  27.23 0.0002481596    1.343    0.255
       148  -9.7989    119.7935    211.1483   9.3320991296e+01   1.2658073807e+01    0.2509015    0.2159264   5.69 0.0003582221    1.247    0.198
       149 -10.0608    124.8761    210.9485   9.2062980671e+01   1.1883337712e+01    0.2520165     0.228116 -23.90 0.0003583458    1.166    0.143
       150 -10.7118    125.1154    206.3489   9.1259381938e+01   1.2858730442e+01    0.5632984    0.2739171  27.60  0.001232943    2.217    0.549
       151  -9.8324    116.5936    220.2929   9.5472791219e+01   1.1172346063e+01    0.3889278    0.3251317  16.06   0.00197675    1.236    0.191
       152 -10.6190    119.9893    215.9350   9.4013916493e+01   1.1579170588e+01    0.4683747    0.2446105 -54.71  0.001554548    2.048    0.512
       153  -9.6815    102.1451    197.0741   9.5488333734e+01   1.8716719888e+01     0.266728    0.2037651  39.53 0.0003109929    1.259    0.206
       154 -10.7157    111.5830    213.1823   9.5619025482e+01   1.3510348462e+01    0.2791897    0.2420992 -20.50  0.000344187    1.304    0.233
       155 -11.2014    114.9219    207.4461   9.3926828277e+01   1.4266610153e+01    0.9849412    0.2781554 -52.60  0.003203816    3.510    0.715
       156 -10.3584    103.2608    189.3049   9.3940463745e+01   2.0407708319e+01     0.396404    0.2422755 -42.31  0.001470124    1.798    0.444
       157 -10.2403    108.0721    186.3393   9.2180931703e+01   2.0339690588e+01    0.7601472    0.3214924  49.83  0.002569233    2.936    0.659
       158  -9.9066    109.7110    196.0112   9.3390991869e+01   1.7752439999e+01    0.3176453    0.2532381  55.02 0.0006375515    1.311    0.237
       159 -10.7659    109.7336    203.2101   9.4543482008e+01   1.6066188225e+01    0.3230897    0.2818105  51.07  0.000619502    1.134    0.118
       160 -10.5215    105.9414    198.5233   9.4753808667e+01   1.7768024273e+01    0.3180906    0.2317874 -49.75 0.0003223929    1.420    0.296
       161 -10.1484     65.6923    225.3947   1.0805441920e+02   1.7415328663e+01    0.2189361    0.2142117  -0.88 0.0003285443    1.241    0.194
       162  -9.0865    229.0561    227.3376   7.2506085623e+01  -6.8311131304e+00      0.16904    0.1332725  -0.66 0.0004126495    1.073    0.068
       163  -9.0388    210.3664    226.8695   7.5982155573e+01  -4.3153357243e+00    0.1819047    0.1018517 -27.40 0.0003892634    1.710    0.415
       164  -8.7081    116.5219    226.5486   9.6389967602e+01   9.8581355801e+00    0.1798865    0.1292692 -40.47 0.0005584192    1.569    0.362
       165  -9.8800    119.9924    224.2313   9.5248869112e+01   9.8086988282e+00    0.2408643    0.2011994 -25.60 0.0002792287    1.351    0.260
       166  -9.5069     46.6784    225.6231   1.1236856724e+02   1.9741407988e+01    0.3055146    0.2034445 -32.06  0.001146334    2.377    0.579
       167  -9.7235     42.1093    225.6413   1.1338141471e+02   2.0273525887e+01     0.225617    0.1831987  86.59 0.0004345233    1.128    0.114
       168  -9.0917     19.7973    227.2384   1.1829006293e+02   2.2338008855e+01     0.177534    0.1327809  70.40 0.0004581346    1.097    0.088
       169  -9.8359      9.7030    225.7778   1.2028405550e+02   2.3643483715e+01    0.3207502    0.2678776  74.25  0.002265121    1.085    0.078
       170  -9.5026     14.8186    223.1363   1.1906631431e+02   2.3737464626e+01    0.1923666    0.1756416 -53.05 0.0003615771    1.426    0.299
       171 -10.2462      1.7899    220.7948   1.2161973254e+02   2.5458875140e+01     0.510941    0.1467659 -83.90  0.002037701    3.373    0.704
       172 -10.2675      5.3845    217.5923   1.2070045278e+02   2.5852997187e+01    0.6417798    0.2400605  75.08  0.002709199    2.978    0.664
       173 -12.4263    188.7117    152.5731   6.5706570928e+01   1.3197633219e+01     1.244492    0.8294939 -29.88  0.004299853    1.523    0.343
       174  -8.4891    184.4355    226.4859   8.1185813952e+01  -5.7453224200e-01    0.1368823    0.1122661  -0.99 0.0004207462    1.072    0.067
       175  -9.3322    162.0806    225.3802   8.5823220607e+01   3.0071899150e+00    0.2618237    0.2059261 -67.44  0.001413656    1.793    0.442
       176 -10.3834    126.6489    224.7992   9.3782273441e+01   8.6557620571e+00    0.2643336    0.2357386 -29.37 0.0006271906    1.206    0.171
       177  -8.8879    190.4398    224.8049   7.9642038828e+01  -1.1601899762e+00    0.1832319    0.1134141 -27.55 0.0006659868    1.610    0.379
       178  -9.0436    167.4713    225.0112   8.4576372612e+01   2.2465466657e+00    0.1981253    0.1638251  18.83  0.001151366    1.085    0.078
       179  -9.4630    108.9962    219.4261   9.7150455170e+01   1.2536090741e+01    0.2344893    0.1966469 -45.25 0.0002889759    1.297    0.229
       180 -10.4278    104.8483    223.1117   9.8645969562e+01   1.2367158772e+01    0.5044569    0.2474749 -63.29  0.001795908    2.353    0.575
       181  -9.2107    110.0489    208.6685   9.5311278042e+01   1.4766234684e+01    0.2211539    0.1956907 -34.33 0.0004358217    1.227    0.185
       182  -9.9139    106.0175    210.2259   9.6533263230e+01   1.5045980742e+01    0.2518784    0.2240684 -15.72 0.0003259215    1.272    0.214
       183  -9.1724    102.4240    209.4028   9.7293121503e+01   1.5791706446e+01    0.2108659    0.1850788 -73.16 7.930044e-05    1.207    0.171
       184  -9.5851    104.8742    205.6081   9.6122562717e+01   1.6282630957e+01    0.2328496    0.2000337 -55.36 0.0003647242    1.216    0.177
       185  -9.6923     89.0599    210.2790   1.0069855908e+02   1.7609887881e+01    0.2606707    0.2314339  57.25 0.0002729958    1.065    0.061
       186  -9.6292    106.5586    215.5514   9.7179731386e+01   1.3765261124e+01    0.2663037    0.2107982   7.09 0.0005740989    1.486    0.327
       187 -10.2141    102.7160    214.5579   9.7965182656e+01   1.4577848616e+01    0.3717811    0.2794635 -74.04 0.0007508459    1.502    0.334
       188 -10.8653     98.5940    211.6626   9.8556509677e+01   1.5862520385e+01    0.3790275    0.3153626 -81.21 0.0007983184    1.305    0.234
       189 -10.9412     92.9525    211.6062   9.9926636900e+01   1.6725668242e+01     0.538052    0.2460139 -51.49  0.001346549    2.297    0.565
       190 -10.1775     36.3668    210.2375   1.1334557019e+02   2.4459806324e+01    0.5082576    0.2305776  22.07  0.002199696    2.800    0.643
       191 -10.9247     67.7303    200.9801   1.0477983520e+02   2.2840018503e+01    0.5474304    0.2701135 -68.24 0.0003198055    2.049    0.512
       192  -9.3763     43.9443    207.0979   1.1127659625e+02   2.4345676339e+01    0.3049065    0.1929173 -45.75 0.0003062361    1.937    0.484
       193  -9.1775     37.3496    221.8660   1.1411791156e+02   2.1665716856e+01    0.2122174    0.1919964 -43.31 0.0004633381    1.416    0.294
       194 -10.7234     44.7906    218.9630   1.1219721254e+02   2.1472369334e+01    0.4045907    0.3097591  21.79  0.001577989    1.551    0.355
       195 -11.4019     43.6970    214.2598   1.1201644088e+02   2.2686652490e+01    0.6325679    0.5527837 -16.80  0.002517037    1.544    0.352
       196  -9.6195     64.6666    206.5085   1.0620874062e+02   2.1916368212e+01    0.2642572    0.2254205  52.70 0.0002748635    1.100    0.091
       197 -11.1052     56.4999    210.4184   1.0862386490e+02   2.2039032614e+01     0.553029    0.3975354  59.06  0.002648615    1.312    0.238
       198 -10.0488     61.2719    214.2099   1.0789597738e+02   2.0541656917e+01    0.2904668    0.2032516 -54.09 0.0003981607    1.555    0.357
       199  -9.7826     64.7618    211.4467   1.0675589755e+02   2.0733539520e+01    0.3902279    0.2894166 -14.90  0.001997161    1.999    0.500
       200  -9.3291     56.9064    199.8734   1.0735196882e+02   2.4521343868e+01    0.2420225    0.1832675 -57.97  0.000320278    1.357    0.263
       201 -10.2791     61.0715    203.8055   1.0677611310e+02   2.3034932194e+01    0.4369993    0.2857919  -7.05  0.001753686    2.645    0.622
       202 -10.1635     55.6518    204.0094   1.0813042528e+02   2.3675269146e+01    0.2610705    0.2289958  64.78 0.0004594655    1.047    0.045
       203 -11.0126     54.2330    216.9099   1.0983062039e+02   2.0805466812e+01    0.5462724    0.4088125 -30.19  0.002330316    1.878    0.468
       204 -10.0582     51.8341    212.5625   1.0995411337e+02   2.2112767043e+01    0.2357447    0.2237932 -69.61 0.0004817975    1.194    0.163
       205  -9.1717    174.8461    221.1038   8.2306170005e+01   1.8405768651e+00    0.1895465    0.1447484  -6.22 0.0004530444    1.306    0.234
       206  -9.7733    123.9183    220.2804   9.3742346965e+01   1.0027876862e+01    0.2629731     0.193572 -38.55  0.000335167    1.497    0.332
       207  -9.3394    126.4557    216.7030   9.2594077973e+01   1.0386041595e+01    0.2334689    0.2039539  15.70 0.0006857361    1.131    0.116
       208  -8.6745    166.9129    220.5346   8.3941622344e+01   3.1747866052e+00     0.199663    0.1256592  28.76 0.0005030478    1.484    0.326
       209  -9.3931    163.6881    218.2211   8.4260206933e+01   4.1241964310e+00    0.4143308    0.2232555 -15.12  0.001483262    3.489    0.713
       210 -10.5278     84.7406    214.2496   1.0227349057e+02   1.7322521507e+01    0.2954104    0.2399445  13.11 0.0002749421    1.441    0.306
       211  -9.8597     81.7202    218.7145   1.0355682859e+02   1.6734854911e+01    0.2232997    0.2001354  46.47 0.0004582056    1.057    0.054
       212  -8.9151     79.8831    214.8756   1.0352383808e+02   1.7871194391e+01    0.1913651    0.1822705 -18.25 0.0003284312    1.228    0.186
       213  -8.8410     16.4709    219.4444   1.1847856286e+02   2.4402513814e+01    0.1225148    0.1004123  75.94 0.0001186667    1.026    0.025
       214  -8.4368    194.9841    218.0808   7.7518382709e+01  -6.4667187743e-01    0.1601746    0.1341757 -13.28 0.0004311935    1.064    0.060
       215  -9.0308    156.9612    217.8439   8.5705150315e+01   5.2648848563e+00    0.2069832    0.1699996  -0.33 0.0003546993    1.210    0.174
       216  -9.5464    179.0519    216.2300   8.0544970118e+01   2.0985262867e+00    0.3852804    0.2135381  10.35  0.001588723    2.543    0.607
       217  -8.9398    169.7481    217.2597   8.2752077090e+01   3.3547599919e+00    0.1875464    0.1451452  -6.99 0.0003837358    1.309    0.236
       218  -9.3788     36.7763    217.1853   1.1385444166e+02   2.2797792855e+01    0.1880303    0.1484518  71.79 0.0004130186    1.098    0.090
       219  -8.6590    160.9882    215.7077   8.4431840922e+01   5.0433765990e+00    0.1952574    0.1646547  20.15 0.0003539385    1.089    0.082
       220  -9.7252     65.9100    215.9491   1.0698766026e+02   1.9532555335e+01    0.1940892    0.1793546  71.60  0.000318975    1.050    0.048
       221  -9.5982     69.1232    212.7075   1.0585199903e+02   1.9857706190e+01    0.2281568    0.2049354 -49.43 0.0004611219    1.264    0.209
       222  -9.9334     13.0532    215.4708   1.1894832473e+02   2.5628821283e+01    0.2043523    0.1743636 -57.21 0.0005773961    1.419    0.295
       223  -8.6033    200.4280    214.7216   7.5800764814e+01  -8.5535872062e-01    0.1887157    0.1120073 -28.03 0.0009373199    1.641    0.391
       224 -10.4499    193.7081    209.7655   7.6273711711e+01   1.0388498309e+00    0.3064382    0.1965537 -12.72 0.0009660399    1.770    0.435
       225  -9.2514    187.0186    214.1280   7.8469638212e+01   1.2616403566e+00     0.211189    0.1760017   0.14 0.0004313724    1.064    0.060
       226  -8.8822    184.4791    210.7883   7.8403065870e+01   2.2728333439e+00    0.1974327    0.1732978 -16.79 0.0006935705    1.083    0.076
       227  -9.2149     29.0542    214.0168   1.1532994106e+02   2.4366860068e+01    0.1855879     0.161327  82.13 0.0003976981    1.072    0.067
       228 -10.2998    170.3799    210.8597   8.1481342013e+01   4.4897227270e+00    0.4003401    0.2477052 -17.37  0.001340257    2.050    0.512
       229  -9.2198    167.5213    208.1205   8.1624585655e+01   5.4905672102e+00    0.2428945    0.2057355 -11.38 0.0004067019    1.130    0.115
       230 -13.2685     29.9494    202.0822   1.1412442943e+02   2.7088628067e+01     2.610975     1.463712 -36.09   0.01184028    2.831    0.647
       231 -12.7367     83.6524    198.5030   1.0042142694e+02   2.1200386936e+01     2.060128     1.264981 -50.13   0.00966033    1.711    0.416
       232 -12.7559     47.6456    200.6497   1.0972661917e+02   2.5464992701e+01     1.310631    0.8773828 -50.61  0.006890776    1.653    0.395
       233 -12.1458     97.7391    162.7751   9.0681749547e+01   2.7954271726e+01     2.155542    0.6426205  33.71  0.006443417    3.451    0.710
       234 -11.8085    103.8798    154.9860   8.7381243935e+01   2.8889034203e+01      1.02173    0.8565897   0.17  0.004971243    1.383    0.277
       235 -12.3650      9.2411    201.1123   1.1882452677e+02   2.9303559995e+01     1.589072    0.7308621  73.00  0.005260778    2.227    0.551
       236 -12.0933     73.1615    181.6906   1.0073376042e+02   2.6895580409e+01     1.165694    0.8028427 -56.11  0.005712895    1.421    0.296
       237 -11.7256     85.4516    177.6179   9.6755159717e+01   2.6126931145e+01     1.637028    0.8655126 -32.28  0.005822421    3.010    0.668
       238 -12.5920     63.5060    188.6035   1.0427187519e+02   2.6464184728e+01     1.472928     1.007441 -66.45  0.006242204    1.403    0.287
       239 -11.8382     63.5755    174.0356   1.0222101839e+02   3.0175205595e+01     1.336509    0.7544317 -21.56  0.004779096    3.447    0.710
       240 -10.9588     55.3742    169.1926   1.0380362163e+02   3.2488394945e+01    0.3011138    0.2555379  -0.31 0.0005920286    1.435    0.303
       241 -13.6653     29.2135    125.8536   1.0514118650e+02   4.6679410782e+01     3.506625      1.72148  59.14   0.01340737    3.159    0.683
       242 -13.0314     25.2370    174.4785   1.1267029359e+02   3.4404362794e+01     1.688699    0.8570366 -87.49  0.006924142    2.018    0.504
       243 -11.6385     76.7995    170.6923   9.8010542016e+01   2.9197309632e+01    0.6202961    0.5582611  82.99  0.001341174    1.116    0.104
       244 -11.4354     83.5971    168.8384   9.5785995338e+01   2.8660065606e+01    0.7028355    0.6097071 -80.63  0.002840288    1.170    0.146
       245 -12.2882     18.0525    190.4166   1.1595988568e+02   3.1087091610e+01     1.317723    0.6156213  41.49   0.00643006    2.043    0.511
       246 -11.7263     35.1909    173.6448   1.0993415160e+02   3.3633411108e+01     1.063873    0.4397734 -85.53  0.003791792    3.138    0.681
       247 -13.4452     11.0866    131.4146   1.1180973946e+02   4.6646543020e+01     1.817154     1.201977 -57.22  0.008502549    1.284    0.221
       248 -13.8625     37.5733    161.4502   1.0777723372e+02   3.6549492617e+01     2.014207     1.634689  87.99   0.01132323    1.177    0.151
       249 -13.2109     13.2568    175.0116   1.1582067817e+02   3.5328621794e+01      1.73413    0.9747962 -51.03  0.008845624    1.863    0.463
       250 -13.7543     16.8907    156.3801   1.1301810030e+02   3.9778195416e+01     2.494133     1.401205 -28.93   0.01151657    2.482    0.597
       251 -13.0153     24.4417    140.5969   1.0887608155e+02   4.3254027752e+01     2.580616     1.036438   0.19  0.007731171    5.842    0.829
       252 -12.2858     42.1940    131.7322   1.0185770893e+02   4.3877549637e+01     1.376212    0.6517876 -39.55  0.005457063    2.373    0.579
       253 -12.2006     47.1430    147.6827   1.0296091953e+02   3.9130478989e+01     1.689316    0.4564761 -69.14  0.004736066    4.273    0.766
       254 -12.8209     56.1236    148.4274   1.0033857857e+02   3.7859430995e+01     1.478681     1.033025  53.99   0.00714123    1.596    0.374
       255 -11.8834     75.8523    150.5906   9.4734673665e+01   3.4585408830e+01    0.8772362    0.5805384  11.33  0.003789118    1.977    0.494
       256 -14.0148     67.0812    134.7187   9.4344005668e+01   4.0013744381e+01     2.618305     2.048639  68.58   0.01281005    1.530    0.346
       257 -12.1954     62.0338    139.6949   9.6930211877e+01   3.9400187477e+01    0.7867593     0.659062  55.64  0.002621995    1.306    0.234
       258  -9.2641    180.7636    211.2357   7.9280687588e+01   2.7696091912e+00    0.3963318    0.1594402 -44.28  0.001587535    2.485    0.598
       259  -9.2670    183.5407    205.9476   7.7713400679e+01   3.3357176821e+00    0.3464583    0.1964335  26.35  0.000987035    1.799    0.444
       260  -9.4842    181.6977    202.0617   7.7384153436e+01   4.3798150923e+00    0.5374323    0.2066874 -35.09  0.001918815    2.976    0.664
       261 -12.9487     63.6438    161.7833   1.0031212832e+02   3.3363427364e+01     1.868051     1.162938  32.39  0.008625276    1.681    0.405
       262 -13.0009    141.1065    211.9968   8.8372642488e+01   9.0169846206e+00     1.946585      1.49906  -3.15   0.01006914    1.481    0.325
       263 -10.4037      1.9344    209.7267   1.2096999195e+02   2.7932233193e+01    0.3443216    0.2073396 -84.06  0.001158335    1.403    0.287
       264  -9.7343      4.7501    206.9823   1.2020010397e+02   2.8322351663e+01    0.2763148    0.1745463 -80.12 0.0008070427    1.360    0.265
       265  -8.9240    225.0741    208.5218   6.9861048670e+01  -3.2927774944e+00    0.2041569    0.1407779 -30.31 0.0005840341    1.261    0.207
       266  -8.8987     72.6787    209.0771   1.0455654087e+02   2.0227084962e+01    0.1830966    0.1668576 -77.62 0.0003464799    1.110    0.099
       267  -8.9720    176.6399    207.6595   7.9523630236e+01   4.1081022740e+00    0.2138743    0.1487074  -9.98 0.0008231506    1.623    0.384
       268  -9.8319    175.5995    203.1830   7.8924606911e+01   5.1515243874e+00    0.3897541    0.2238995 -26.66  0.001709667    2.008    0.502
       269  -9.5973     39.0014    205.7373   1.1231804799e+02   2.5233960252e+01    0.2098233    0.1687708 -81.49 0.0004637065    1.150    0.130
       270  -9.6646     70.8212    204.7753   1.0448259267e+02   2.1505046560e+01     0.216011    0.2072508  88.39 0.0003995895    1.082    0.076
       271  -9.1854    189.5153    203.5957   7.6003122816e+01   2.8360638919e+00    0.2710119    0.1651969 -14.45  0.001063699    2.051    0.513
       272 -11.0732     97.3994    202.4721   9.7517905296e+01   1.8179169834e+01    0.2802888    0.2557231  30.36  0.001583756    1.102    0.092
       273 -10.0567     94.7191    193.7445   9.6872798860e+01   2.0684030017e+01    0.2483366    0.2294555 -47.28 0.0004929813    1.134    0.118
       274  -9.4142     97.6857    197.9922   9.6767789089e+01   1.9198787310e+01    0.2702278    0.1942936 -68.32 0.0002319856    1.484    0.326
       275  -8.6452     98.2643    194.6647   9.6102441969e+01   1.9907311005e+01    0.1944399    0.1418065  20.80 0.0003667224    1.522    0.343
       276  -8.2224    206.2883    201.3557   7.2139093548e+01   6.5654733460e-01    0.1439751    0.0939075 -12.03 0.0007025019    1.677    0.404
       277  -8.1648    202.3299    201.2712   7.2917260838e+01   1.2741785551e+00    0.1398873    0.0959944  -4.06 0.0003601857    1.586    0.369
       278  -9.5011    186.4121    199.3136   7.5850729935e+01   4.1499660972e+00     0.284263    0.1950739 -13.05 0.0007511768    1.616    0.381
       279  -9.3504     92.9390    198.5819   9.8066287110e+01   1.9790073149e+01    0.2237825    0.1915148 -49.88  0.001211657    1.226    0.184
       280 -10.2064     73.8416    198.8328   1.0296206475e+02   2.2524791663e+01    0.2479032    0.2118264  65.75 0.0002788161    1.128    0.114
       281  -8.9246    210.1812    198.1800   7.0763670420e+01   6.4193600013e-01     0.198351    0.1577676  -7.83 0.0003811563    1.139    0.122
       282 -10.0481    124.0426    197.4741   9.0030960837e+01   1.5040007923e+01    0.2565836    0.2121707 -46.73 0.0003514424    1.245    0.197
       283  -9.8556    114.2307    197.7175   9.2529285366e+01   1.6612731687e+01    0.2817215    0.2252136 -24.55 0.0001970952    1.447    0.309
       284  -9.1641    231.7646    197.0966   6.6495009836e+01  -2.2953757388e+00    0.2472187    0.1488754  -0.81  0.001209107    2.092    0.522
       285  -9.6729    223.7411    196.0560   6.7765564816e+01  -9.8242303700e-01    0.3556384    0.2221726  15.99  0.001768476    1.790    0.441
       286  -9.4201     12.7252    195.9877   1.1766048916e+02   3.0216508818e+01    0.1915041    0.1646774  62.13 0.0003715789    1.147    0.128
       287  -9.3465    202.5527    194.6064   7.1592455726e+01   2.4705060258e+00    0.4090011     0.225844  13.14  0.001689175    2.601    0.616
       288  -9.7873     74.1349    194.0225   1.0223852000e+02   2.3664245745e+01    0.2195445    0.1998184  42.04  0.000355981    1.112    0.101
       289  -9.4013    129.8909    177.7201   8.4924904013e+01   1.8639611590e+01    0.3471773    0.1963883 -44.00 0.0003449696    1.793    0.442
       290 -10.1570    129.6488    172.9991   8.4054336531e+01   1.9806986157e+01    0.2706406    0.2370301  21.17 0.0002148381    1.164    0.141
       291 -10.1324    124.9787    192.2536   8.8883500660e+01   1.6085588095e+01    0.3131998    0.2315884 -37.22 0.0003202776    1.440    0.306
       292  -9.7285    130.9210    189.0205   8.6806496785e+01   1.5811569223e+01    0.2423265    0.2108689  26.40 0.0002838543    1.127    0.113
       293  -9.4565    126.3614    188.1599   8.7796856066e+01   1.6801759679e+01    0.2566829    0.2385641  66.61 0.0003914918    1.170    0.145
       294 -10.4161    129.2080    185.1165   8.6513104536e+01   1.7018147716e+01    0.5260528    0.2747537 -42.03  0.002054004    2.029    0.507
       295 -10.1111    226.4014    177.8582   6.3725548111e+01   1.8433006525e+00    0.2319856    0.1369307 -17.87 0.0008446028    2.001    0.500
       296 -11.1341    222.7405    187.4549   6.6288225478e+01   6.7839437686e-01    0.6863334    0.2613979 -36.04  0.002444161    2.404    0.584
       297 -11.4352    218.7129    183.7210   6.6304622962e+01   1.9616427051e+00    0.7148544    0.3335004 -39.18  0.003202304    1.894    0.472
       298  -8.6774    210.4613    192.1351   6.9540787948e+01   1.6971583303e+00    0.1973563    0.1209268 -36.62 0.0003571143    1.471    0.320
       299  -8.0260    245.6587    191.7131   6.3052044107e+01  -3.2834955784e+00    0.1302222   0.08404648  -9.31 0.0007019729    1.641    0.391
       300  -9.1325    215.8172    190.4664   6.8179779388e+01   1.1812484603e+00    0.2004611    0.1575513 -25.65 0.0006731393    1.096    0.088
       301  -9.2461    206.5454    185.1831   6.8940846183e+01   3.6035432242e+00    0.2672336    0.1551939 -28.13 0.0007514146    1.719    0.418
       302  -8.9224    205.7391    188.9780   6.9852991441e+01   3.0194371262e+00    0.2390355    0.1766206 -34.72 0.0004614527    1.232    0.188
       303  -9.2502    202.4700    187.5451   7.0223739685e+01   3.8118073319e+00     0.244432    0.2150994  55.07 0.0008031953    1.516    0.340
       304  -8.5634    237.5192    187.4484   6.3633914202e+01  -1.4602518093e+00     0.133932    0.1043715 -18.05 -0.0001453496    1.080    0.074
       305  -8.6934    210.6123    187.2504   6.8552693543e+01   2.5728682776e+00    0.1826941    0.1155462 -30.52 0.0002371858    1.445    0.308
       306 -10.8906    120.2654    186.1456   8.8985093884e+01   1.8327128096e+01    0.3541994    0.2751809  33.77  0.001750072    1.266    0.210
       307  -8.4172    243.2853    186.4026   6.2444487351e+01  -2.0821108018e+00    0.1385529   0.08358939 -16.03 0.0006990617    1.788    0.441
       308 -10.2911     85.9510    185.3154   9.7857537628e+01   2.4108554846e+01    0.2700127    0.2159284 -51.98 0.0003104201    1.268    0.212
       309 -10.7860     89.7089    181.0795   9.6169606035e+01   2.4595938719e+01    0.2769447    0.2497089  -3.64 0.0003213766    1.259    0.206
       310  -8.5362    196.4304    185.4076   7.1027718936e+01   5.2082389596e+00    0.1426443    0.1237884 -12.72 0.0001416087    1.029    0.028
       311 -10.0719    134.5968    181.8278   8.4526284519e+01   1.6833059736e+01    0.2802925    0.2442553 -29.45 0.0004779238    1.167    0.143
       312 -10.7380    210.2978    180.6803   6.7303909013e+01   3.8483729510e+00    0.4618514     0.276787 -49.97  0.002188182    1.838    0.456
       313  -7.9802    229.3186    181.2931   6.3881834195e+01   7.9178119737e-01    0.1358963   0.09224451  -9.82 0.0006605112    1.605    0.377
       314  -9.3971    199.0100    180.7395   6.9559281404e+01   5.6873200902e+00    0.2875344     0.181224 -37.42 0.0009389279    1.453    0.312
       315  -8.7834    235.5567    179.9740   6.2524760528e+01   1.0613656302e-01    0.1849613   0.09618422 -21.80 0.0004127714    2.303    0.566
       316 -10.4528    204.3683    167.6812   6.5795121855e+01   7.3271696172e+00    0.6762938    0.3701439 -31.65  0.002385818    1.817    0.450
       317 -10.0474    204.4798    179.5270   6.8213532012e+01   5.0143240600e+00    0.2461591    0.1983894 -34.04 8.510671e-05    1.136    0.120
       318 -10.9216    203.3141    174.2604   6.7369269271e+01   6.2250633213e+00    0.5045756     0.444503  39.42  0.002906911    1.311    0.237
       319  -9.4850    124.9185    170.6408   8.4815712053e+01   2.1232146085e+01    0.2704439    0.2131031 -49.94 0.0005367048    1.262    0.208
       320  -9.3753    124.0042    166.3469   8.4187343433e+01   2.2441487096e+01     0.272904    0.2056511 -37.02 0.0003335091    1.375    0.273
       321 -10.5901    122.0653    178.8956   8.7173668058e+01   1.9748633058e+01    0.4446103    0.3404243 -12.98  0.001384483    1.618    0.382
       322  -9.8785    124.4059    174.8304   8.5779626708e+01   2.0312383645e+01    0.2557729    0.2447904 -11.61 0.0003410589    1.048    0.046
       323  -9.8153    230.7764    176.4025   6.2656677948e+01   1.4408252441e+00    0.3770039    0.1907399 -47.17  0.001736848    2.006    0.501
       324  -9.3330    218.5563    177.7296   6.5138505566e+01   3.0826932819e+00    0.3249647    0.2114155   3.02  0.001010814    1.995    0.499
       325  -9.2207    134.8569    176.6161   8.3440279791e+01   1.8005079639e+01     0.240624    0.2007342 -31.42 0.0004926534    1.228    0.186
       326 -10.8242    119.0013    169.5468   8.6165162426e+01   2.2563853801e+01    0.3909844    0.3044504 -69.86   0.00060233    1.453    0.312
       327  -9.0246    110.2408    177.3463   8.9999780581e+01   2.2176007799e+01    0.2189961    0.1902415  31.69 0.0003091854    1.155    0.134
       328  -9.6012    113.0863    174.6767   8.8741051511e+01   2.2344362532e+01    0.2504177    0.2326438 -26.04 0.0003966174    1.113    0.101
       329 -10.1722    112.2703    169.6996   8.8005111382e+01   2.3717421925e+01    0.5124024    0.2599279 -55.91  0.001980267    1.995    0.499
       330  -9.5590    115.3264    166.0230   8.6450518739e+01   2.4089488105e+01    0.2570817     0.225454 -20.82 0.0004027519    1.228    0.185
       331  -8.9290     94.5430    176.9595   9.4163570637e+01   2.4871862978e+01    0.2083257    0.1936497 -66.70 0.0003605122    1.065    0.061
       332  -9.2826    103.0204    177.2399   9.1916547241e+01   2.3418322800e+01    0.2549218    0.2221616  44.33 0.0003216145    1.146    0.128
       333 -10.0398     98.7826    175.1358   9.2687828986e+01   2.4644528596e+01    0.3296817    0.2318843  39.46  0.001537024    1.415    0.293
       334 -10.5472    224.3994    173.3278   6.3179724652e+01   2.9719196728e+00    0.5221062      0.15672 -38.27  0.001838383    3.007    0.667
       335  -9.7592    117.7735    175.4373   8.7640007034e+01   2.1340270464e+01    0.2649765    0.2251175 -37.28 0.0002950601    1.207    0.171
       336 -10.4788    107.1294    172.0787   8.9854874387e+01   2.4013999279e+01    0.3195292     0.251098 -41.54 0.0004045569    1.308    0.235
       337  -9.6158     56.7833    174.0593   1.0410082437e+02   3.1047268109e+01    0.2145035    0.2051231  49.78 0.0003706143    1.115    0.103
       338 -10.2724    218.4810    172.2579   6.4045902595e+01   4.1068829275e+00    0.3641565    0.2121417  52.25   0.00166317    2.452    0.592
       339  -9.6442    233.6544    172.0242   6.1284348342e+01   1.7845006123e+00    0.1899941    0.1426789 -30.67 0.0003811683    1.106    0.096
       340 -10.1136     95.7138    170.7628   9.2742957623e+01   2.6251984935e+01    0.2937381    0.2396551 -41.38 0.0005826523    1.271    0.213
       341  -9.3816    133.8776    170.8715   8.2534267098e+01   1.9540410058e+01    0.2518519    0.2000049 -34.65 0.0004059612    1.289    0.224
       342 -10.1818    142.9907    169.8528   8.0012876498e+01   1.8090143013e+01    0.2907804    0.2369454 -22.77 0.0002590329    1.309    0.236
       343  -9.4428    138.2838    169.6914   8.1166435685e+01   1.9004326939e+01    0.3890861    0.2718473   3.34  0.001174472    1.971    0.493
       344  -9.1761    134.9445    166.8784   8.1436058782e+01   2.0291370562e+01     0.229257    0.2165659 -15.76 0.0003007124    1.049    0.047
       345 -10.5193    229.3273    165.6024   6.0743362597e+01   3.6029076589e+00    0.4702043    0.2416622 -25.05   0.00146699    2.294    0.564
       346  -9.4143    234.1258    162.1366   5.9218518455e+01   3.4757884578e+00    0.2560309    0.1584178 -27.03 0.0005613613    1.542    0.352
       347 -10.5472    101.3956    169.4028   9.0921389851e+01   2.5657110528e+01    0.2814391    0.2551869 -22.95 0.0009543939    1.185    0.156
       348 -10.5542    151.9919    167.2204   7.7234961832e+01   1.7005935051e+01    0.5610172    0.2200192 -47.75   0.00147016    2.499    0.600
       349  -8.1522    241.6733    172.6906   6.0057611120e+01   4.8111081373e-01    0.1340867   0.08968221 -11.76 0.0007039206    1.658    0.397
       350  -8.8407    248.0759    167.0742   5.7914110307e+01   5.2224716408e-01    0.1857398    0.1428697 -55.48 0.0005446876    1.598    0.374
       351  -9.8938    147.7958    166.9878   7.8215399312e+01   1.7851472478e+01    0.2903263    0.2223385  41.78 -0.0006383859    1.343    0.255
       352 -10.4310    129.0049    166.1284   8.2823091779e+01   2.1574626261e+01    0.2777237    0.2173885 -43.50 0.0003024632    1.264    0.209
       353  -8.5289    128.9963    162.2344   8.2010231661e+01   2.2516633575e+01    0.1926389    0.1771826 -44.07 0.0009788672    1.072    0.067
       354  -9.7922    106.8923    166.2376   8.8799470628e+01   2.5518534867e+01    0.2632618    0.2150607 -44.53 0.0002591822    1.224    0.183
       355  -8.4270    217.4273    166.4229   6.3044989723e+01   5.3686376502e+00    0.1408294    0.1182547 -22.04 0.0002385177    1.056    0.053
       356 -10.0347    119.6519    163.0403   8.4672740063e+01   2.4046479558e+01    0.2687277    0.2425236  15.26 0.0003192457    1.156    0.135
       357 -10.1210    146.7706    162.0924   7.7420854936e+01   1.9177989929e+01    0.2836857     0.242011  27.12  0.000259723    1.196    0.164
       358 -10.0074    111.2565    162.4948   8.6852079180e+01   2.5693019439e+01    0.2745069    0.2413149 -27.75 0.0003727023    1.197    0.165
       359  -9.4175    132.8617    161.8609   8.0917394380e+01   2.1880420299e+01    0.2282804    0.2036405 -17.13 0.0003201818    1.168    0.144
       360  -9.6870    124.4588    160.2606   8.2798296968e+01   2.3843245327e+01    0.2540988    0.2327539  11.16 0.0003336898    1.133    0.118
       361  -9.4682    213.2001    158.5904   6.2193368506e+01   7.5668755156e+00    0.4383295    0.2895882 -35.33  0.002214478    1.342    0.255
       362 -10.8549     79.5403    157.6628   9.4958078230e+01   3.2180836865e+01    0.3077891    0.2650244 -39.38 0.0005575874    1.201    0.167
       363  -9.4776     75.7769    155.4542   9.5662065111e+01   3.3321191972e+01    0.2742398    0.2166684 -35.96 0.0004155621    1.364    0.267
       364  -9.2272    119.5802    158.4615   8.3734830424e+01   2.5189403213e+01    0.2565332    0.2233551  36.36 7.023507e-05    1.164    0.141
       365  -9.5498    122.2060    155.7914   8.2449665507e+01   2.5359385397e+01    0.2486465    0.2230495 -19.93  0.000413791    1.167    0.143
       366 -10.4114    122.9135    148.8753   8.0733372891e+01   2.6923728467e+01    0.3026565     0.254074 -15.65 0.0003708296    1.334    0.251
       367 -10.2491    111.4155    152.7250   8.4771101195e+01   2.8114430323e+01    0.3269237    0.2769088   6.48 0.0003864839    1.333    0.250
       368 -10.3826    114.3066    157.1415   8.4903695301e+01   2.6483303837e+01    0.3164442    0.2695596 -27.24 0.0004721541    1.249    0.199
       369 -10.3962    116.9453    152.0567   8.3082180916e+01   2.7264045910e+01    0.5510018    0.3566562 -13.64  0.001559432    2.520    0.603
       370 -10.6354     91.0941    156.9346   9.1450518643e+01   3.0553358316e+01    0.3667053    0.3039924 -56.73 0.0004500782    1.167    0.143
       371 -10.1230     95.8517    153.9666   8.9480288354e+01   3.0529510712e+01    0.2937085    0.2628632   1.26 0.0003177629    1.231    0.188
       372  -9.9183     97.9044    150.0207   8.8069581967e+01   3.1192802661e+01    0.2446601    0.2359497 -41.86 0.0003266024    1.021    0.021
       373  -9.2177    108.7613    247.7729   1.0091281402e+02   6.7459008749e+00    0.2018293    0.1654989 -38.47   0.00115622    1.438    0.305
       374  -9.0582    237.7623    156.2071   5.7413657910e+01   3.9669284722e+00    0.2227808    0.1464636 -29.35 0.0007879047    1.364    0.267
       375 -10.2788    227.7902    155.1076   5.8857732591e+01   5.7657280704e+00    0.3082328    0.2009784 -26.30   0.00121984    1.503    0.335
       376  -9.4651    127.1015    155.6243   8.1093724851e+01   2.4477492112e+01    0.3011271    0.2257506 -49.00 0.0003899758    1.310    0.236
       377  -9.2053    217.5961    155.0318   6.0636474388e+01   7.4902291406e+00    0.2056813    0.1871493 -57.40 0.0007019513    1.266    0.210
       378  -9.4505    204.8832    154.0253   6.2791198204e+01   9.9171319338e+00    0.2165641     0.191219 -28.92 0.0004659832    1.003    0.002
       379 -10.3162     84.6198    153.9641   9.2767275537e+01   3.2361702915e+01    0.2584098     0.255123  11.17 0.0003385632    1.062    0.058
       380 -10.4794     84.9746    148.4288   9.1569998050e+01   3.3746025550e+01    0.3251979    0.2628932 -30.49  0.000571441    1.347    0.258
       381  -9.7752    208.5475    152.2211   6.1705219235e+01   9.6136053405e+00    0.3195976    0.2263892 -68.81  0.001155406    2.102    0.524
       382 -10.6531    214.6756    147.0233   5.9457196610e+01   9.5248204969e+00    0.3148425    0.2023026  33.67 0.0008698087    1.821    0.451
       383  -9.3184    226.7068    146.3558   5.7216429013e+01   7.5586981484e+00    0.2392876    0.1444374 -26.63 0.0002415025    1.746    0.427
       384 -10.4513    111.4173    146.7017   8.3455171045e+01   2.9623699915e+01    0.3207117    0.2687347 -40.99 0.0003343483    1.179    0.152
       385 -12.8668     90.6407    140.6494   8.8232120262e+01   3.4832471058e+01     2.398749     1.534877  -7.27  0.008970283    2.614    0.617
       386  -9.0094    206.2930    145.6982   6.0711872587e+01   1.1297362176e+01    0.1995473    0.1557197 -20.08 0.0003480524    1.331    0.248
       387  -9.6430    208.6841    142.9379   5.9662042286e+01   1.1396598867e+01    0.2415574    0.1960456  13.83 0.0003812744    1.441    0.306
       388  -9.7328     98.7868    145.3448   8.6814771242e+01   3.2235808336e+01    0.2683374    0.2260102 -38.92 0.0003124766    1.189    0.159
       389  -8.9378    223.7138    150.0497   5.8504651232e+01   7.3822621371e+00    0.1928026    0.1542051 -33.82 0.0003335218    1.070    0.066
       390 -10.1460     61.4678    247.6600   1.1110326335e+02   1.3210322128e+01    0.2045776    0.1825909  52.55 0.0004532007    1.114    0.102
       391  -9.6629    195.3432    142.8048   6.2180725508e+01   1.3931303529e+01    0.2804066    0.2356452  32.64  0.001157921    1.297    0.229
       392 -10.1139    230.4140    141.4126   5.5563380244e+01   7.8363474726e+00    0.2901695    0.2112268 -18.50  0.001559675    1.512    0.339
       393  -9.9430    214.8133    141.1666   5.8166678510e+01   1.0619491269e+01    0.1851987     0.153536 -14.48  0.000234017    1.277    0.217
       394  -8.7468    246.2925    137.3330   5.2257807275e+01   5.9438574229e+00    0.1303558   0.09279456 -16.69 0.0005286711    1.635    0.388
       395  -9.2043    219.9373    136.3375   5.6229160593e+01   1.0608221551e+01    0.1807562    0.1680565 -26.39  0.000386022    1.089    0.081
       396 -10.0487    206.0040    135.0517   5.8410011179e+01   1.3433633171e+01    0.2208604    0.1981357 -37.25 0.0005573982    1.009    0.009
       397 -10.7888     97.3713    131.9708   8.4223276956e+01   3.5877049253e+01    0.4352892    0.2688768 -52.74  0.001415487    1.566    0.362
       398  -9.4197    212.5390    132.5584   5.6682855989e+01   1.2681630044e+01    0.1429782    0.1261263 -39.17 -2.762883e-05    1.008    0.008
       399  -9.5369     87.8852    130.6791   8.6853135889e+01   3.7844716040e+01    0.2482829     0.200799 -39.46 0.0003191467    1.217    0.179
       400  -9.9036     87.2029    126.0464   8.5986970405e+01   3.9131938271e+01    0.2460435    0.2306944 -22.16 0.0003631152    1.068    0.063
       401 -10.1716     86.7439    116.0136   8.3678442220e+01   4.1705519697e+01    0.3858474     0.314932 -21.53  0.001384711    1.316    0.240
       402 -10.5720     92.5940    101.9899   7.8039082089e+01   4.3998178139e+01    0.5386745    0.3834854  52.85  0.001432581    1.643    0.391
       403 -10.3282     92.9364    115.0885   8.1448939990e+01   4.0843623870e+01    0.3921242    0.2777461 -45.08 0.0005316531    1.355    0.262
       404 -10.4585     96.7006    123.3368   8.2349453454e+01   3.8148819153e+01    0.2976814    0.2645228 -30.00 0.0002794543    1.122    0.109
       405 -10.4479     97.2862    117.8323   8.0782221547e+01   3.9389058669e+01    0.3199946    0.2628253  -2.47 0.0004811525    1.399    0.285
       406  -9.9919     90.2580    109.4147   8.0823659947e+01   4.2685553879e+01    0.5852301    0.2171728 -42.41  0.001897088    2.790    0.642
       407 -10.9486     90.0648    121.3092   8.3933020452e+01   3.9826376987e+01    0.6880634    0.3828444  40.89  0.001601351    1.875    0.467
       408 -11.3077     96.3664    106.8920   7.8180308385e+01   4.2163265370e+01    0.5877036    0.3586222 -19.83  0.002183793    2.505    0.601
       409 -10.1560    100.1620    100.1253   7.5095696462e+01   4.2987271661e+01    0.4570145    0.3023654  28.11 0.0008663522    1.659    0.397
       410 -10.8017     77.6483    122.4572   8.8222943682e+01   4.1596338617e+01       1.0804    0.5576593 -20.92  0.003031572    4.681    0.786
       411  -9.8448    105.1544     90.8491   7.0847493858e+01   4.4011775258e+01      0.46785    0.3265686 -72.83  0.001801146    2.224    0.550
       412 -11.0896     81.3212    129.3301   8.8620290839e+01   3.9265461694e+01    0.5650973    0.2474879 -50.74  0.001203512    2.110    0.526
       413  -9.6737     82.2516    122.7750   8.6797506474e+01   4.0777612563e+01    0.3528059    0.2428169 -41.12 0.0004260009    1.427    0.299
       414 -10.2858     94.3041     95.7544   7.5708202223e+01   4.5085376581e+01    0.3251464     0.283106 -70.11 0.0006831351    1.358    0.264
       415 -11.1772    100.3671     94.0116   7.3265477124e+01   4.4295481820e+01    0.8975247    0.5681124  55.21  0.003784081    1.939    0.484
       416 -10.3041     92.7874    129.0504   8.4944859914e+01   3.7418584181e+01    0.2798377    0.2509825 -35.93   0.00029708    1.091    0.083
       417 -10.0183    206.3744    128.9240   5.6968260110e+01   1.4551749188e+01    0.2108263    0.1973899  83.98 0.0004973059    1.222    0.182
       418  -9.3998     50.0159    128.5540   9.8696699066e+01   4.3829845586e+01    0.2709824    0.1767869 -46.11 0.0004339903    1.436    0.304
       419  -9.8800    202.2401    127.7519   5.7454716386e+01   1.5584336478e+01    0.1979135     0.167693  -7.48  0.001055167    1.354    0.261
       420  -9.7993    211.9943    126.9640   5.5536605549e+01   1.3849013128e+01    0.2140973      0.16489 -11.72 0.0003859024    1.592    0.372
       421 -10.1536     33.5620    117.7785   1.0225608825e+02   4.8364084625e+01    0.2477881    0.2180436 -45.56 0.0003355373    1.062    0.058
       422 -10.9266     38.9847    118.9488   1.0059543523e+02   4.7531057359e+01    0.7540897    0.2181958 -47.37  0.001699454    3.105    0.678
       423  -8.9840     37.1594    114.8592   1.0044171006e+02   4.8761627116e+01    0.2170144    0.1843773 -47.10 0.0003121458    1.052    0.049
       424  -9.3457      2.8469    123.6018   1.1344375494e+02   4.9139981765e+01    0.2241743    0.1413064 -60.18 0.0004589489    1.283    0.221
       425  -9.0216    208.3246    123.2969   5.5352879865e+01   1.5252911173e+01    0.1402466    0.1107481  -3.88 0.0007023406    1.626    0.385
       426 -10.7277    202.5697    121.5967   5.5987144390e+01   1.6712565465e+01    0.3668365    0.2250083 -13.74  0.001403153    2.912    0.657
       427 -10.6168     34.8486     99.9612   9.8186302603e+01   5.2715803635e+01    0.7572719    0.4281795  85.14  0.002741686    3.707    0.730
       428  -9.6342     62.7368     95.5726   8.6618928517e+01   5.0415175905e+01    0.2412364    0.2163005 -20.76  0.000265397    1.049    0.047
       429 -10.3183     59.8800    107.1301   9.0632901558e+01   4.8036128090e+01    0.2857352    0.2436682  -1.15 0.0003915661    1.239    0.193
       430 -10.1927     56.6362    111.8652   9.2908950791e+01   4.7289806899e+01    0.2723909    0.2359246 -30.64 0.0003035355    1.115    0.103
       431  -9.7837     54.1252    107.5374   9.2794963734e+01   4.8690276992e+01    0.2900614    0.2198315 -45.01 0.0004007395    1.191    0.161
       432 -10.0609     71.8047    105.0498   8.5891802233e+01   4.6811407681e+01    0.3132793    0.2937941 -66.36 0.0002825865    1.164    0.141
       433 -10.7576     65.4394    103.3639   8.7701313170e+01   4.8172645865e+01    0.4698066    0.3653893  79.29  0.001234135    1.822    0.451
       434 -10.4346     41.0878    104.3427   9.6824009179e+01   5.1001683896e+01    0.3294055    0.2572746 -55.83  0.001402431    1.158    0.136
       435 -10.8836     57.5792    100.7642   8.9879403443e+01   4.9897041263e+01    0.5519959    0.4839678   7.15  0.001589553    1.184    0.155
       436 -10.3402     74.7628    117.7188   8.8053433496e+01   4.3239366775e+01    0.2919449    0.2466135 -44.12 0.0003816813    1.109    0.098
       437  -9.7213     64.9825    117.5860   9.1329512660e+01   4.4719731291e+01    0.4269314     0.240945 -33.98  0.001451107    2.041    0.510
       438  -9.9056     69.0452    116.5370   8.9700199212e+01   4.4399174392e+01    0.2763968    0.2274311 -45.91 0.0003565844    1.127    0.112
       439 -10.1762     62.0954    112.8765   9.1229010871e+01   4.6306824445e+01    0.3298314    0.2409158 -38.48 0.0004389431    1.318    0.241
       440 -10.4121     44.4141    107.8618   9.6384834217e+01   4.9764351323e+01    0.3008355    0.2145141 -37.66 0.0005414904    1.330    0.248
       441 -10.5355     49.5722    105.1333   9.3882402143e+01   4.9846034115e+01    0.4237163     0.276787  16.53 0.0008300051    1.724    0.420
       442 -10.8996     69.6572    110.3131   8.7979823065e+01   4.5856513500e+01    0.6786737    0.4428722 -85.94  0.002669382    2.600    0.615
       443  -9.9298     65.4878    109.4742   8.9223850071e+01   4.6674955090e+01    0.2626565    0.2592665 -66.39 0.0005226336    1.113    0.102
       444  -9.0381     48.5127    115.0069   9.6470502258e+01   4.7496716357e+01    0.2138549    0.1309261 -57.33 0.0003382061    1.460    0.315
       445  -8.7511     48.7154    111.7049   9.5683665839e+01   4.8308449180e+01    0.2019328    0.1896808  13.75 0.0002929515    1.158    0.137
       446  -9.5926     52.9889    116.2877   9.5179208316e+01   4.6633996976e+01    0.2922837    0.2587965  73.50 0.0003655904    1.314    0.239
       447  -9.4230     52.2896    112.6949   9.4633648220e+01   4.7629716927e+01    0.2703098    0.2057952 -76.12 0.0007329819    1.476    0.322
       448 -10.2273     17.0247    117.0450   1.0783926077e+02   4.9916407303e+01    0.2035075    0.1708927 -58.31  0.000353489    1.015    0.015
       449  -8.6443      2.3569    248.0008   1.2285186559e+02   1.9669793405e+01    0.1790029    0.1267238   4.13  0.001114495    2.433    0.589
       450 -10.3279     28.5078    114.5570   1.0343302634e+02   4.9644742683e+01    0.2652529    0.2077829 -44.49  0.000212201    1.159    0.137
       451  -9.5999     32.7851    112.2004   1.0147645555e+02   4.9858671655e+01    0.2528766    0.2074429 -35.92 0.0004152086    1.171    0.146
       452  -8.9942      1.4666    115.0204   1.1281184825e+02   5.1373367767e+01    0.1944631    0.1059346 -69.22 0.0003568834    1.476    0.322
       453 -10.3531     43.2262    113.2465   9.7967603396e+01   4.8539649492e+01     0.260804    0.2166106 -41.17 0.0003006806    1.107    0.097
       454  -9.7386     77.9585    113.1016   8.5846878412e+01   4.3881101600e+01    0.2274479    0.2046167 -27.41 0.0003319181    1.080    0.074
       455  -9.5517     81.9014    111.9524   8.4236470814e+01   4.3516877902e+01    0.2363787     0.215669  17.75  0.000295392    1.130    0.115
       456 -12.9270     45.4313    176.7425   1.0755005419e+02   3.1718617303e+01     1.498618     1.009748 -50.77  0.007564313    1.525    0.344
       457 -10.4672     14.1618    112.1885   1.0806268405e+02   5.1343118263e+01    0.3296321     0.169656 -57.88   0.00115189    1.545    0.353
       458 -10.2561     17.9727    108.7679   1.0614905063e+02   5.1940982259e+01    0.3238509    0.2141667  35.28   0.00148692    1.762    0.433
       459  -9.9701     24.4855    105.4980   1.0319407895e+02   5.2264883505e+01    0.4065761    0.2216031  51.85  0.001232725    2.561    0.609
       460 -10.5213     24.6894    110.3564   1.0402472318e+02   5.1029738965e+01    0.2824757    0.2297677 -27.32 0.0002310112    1.259    0.206
       461  -8.8319     21.7057    107.7032   1.0461711737e+02   5.1931973313e+01    0.1810735    0.1713113 -31.02 0.0002041254    1.140    0.123
       462 -11.0884    211.6868    111.3628   5.2082606895e+01   1.6827348975e+01    0.3590011    0.2392741  26.52   0.00156225    2.249    0.555
       463  -9.7848     38.9629    110.3110   9.8882500427e+01   4.9732248976e+01    0.2590726    0.1785059 -52.12 0.0004145577    1.257    0.205
       464  -9.1615     35.5639    108.4478   9.9728504019e+01   5.0540696992e+01    0.2120805      0.19204 -43.42 7.765195e-05    1.046    0.044
       465  -9.0106     74.3813    110.1378   8.6310758511e+01   4.5175736707e+01    0.2089882    0.1841422 -46.71 0.0004759006    1.079    0.073
       466  -9.1078     22.8536    101.1722   1.0296409360e+02   5.3467356769e+01    0.1914609    0.1318332 -41.88 0.0002559335    1.289    0.224
       467 -10.0306    249.9491    106.1283   4.5428233766e+01   1.0665566985e+01    0.2001463    0.1507876 -59.16 0.0009138919    1.264    0.209
       468 -10.1548    115.3131    192.0569   9.1298465841e+01   1.7763421009e+01    0.2708263    0.2400524   0.87 0.0004725213    1.225    0.183
       469 -10.1679     74.7924    100.7231   8.3695422569e+01   4.7370556826e+01    0.4917446    0.2484786  22.68  0.001315419    2.495    0.599
       470  -9.4464     88.4077     94.1361   7.7176171886e+01   4.6540786229e+01    0.2798121    0.2384321  50.72 0.0004990569    1.313    0.238
       471 -10.9723     85.1703    105.1922   8.1365062529e+01   4.4582282887e+01     0.327085     0.301279 -62.54 0.0004995228    1.171    0.146
       472 -10.4192     85.7205     98.9516   7.9456942028e+01   4.5937099713e+01     0.488699    0.3373728 -28.53  0.002213904    1.578    0.366
       473  -9.0396     80.8503     99.1200   8.1156900343e+01   4.6743033184e+01    0.2076333    0.2021625 -64.14  0.001138677    1.141    0.123
       474  -9.2696      4.9119    106.5380   1.1044223447e+02   5.3308825125e+01     0.165344    0.1295801   2.66 0.0004383457    1.506    0.336
       475  -8.3249      1.2605    103.6405   1.1130939215e+02   5.4208694115e+01    0.1258536   0.08987833  78.29 0.0004816398    1.627    0.385
       476 -10.7323     77.5554    105.1966   8.3941273007e+01   4.5862999549e+01    0.3155142    0.2430783 -29.18 0.0003838908    1.324    0.245
       477  -8.8871     46.3544    100.9464   9.4082590224e+01   5.1252180010e+01    0.2005534    0.1615027 -45.52 0.0004029765    1.099    0.090
       478  -8.8137     30.3691    100.1214   9.9916668167e+01   5.3095058061e+01    0.1911381    0.1510221 -54.52 0.0004209064    1.106    0.096
       479  -9.4638     67.1965     98.3065   8.5735577271e+01   4.9118707388e+01    0.2433021    0.1983182 -24.48 0.0006118499    1.213    0.176
       480  -8.9060     71.4479     97.4459   8.3977771962e+01   4.8668503247e+01    0.1921479    0.1762153  72.73  0.000160135    1.329    0.248
       481 -10.1692     74.8097     94.3996   8.1930985821e+01   4.8833406985e+01    0.3079595    0.2379681  -0.96 0.0005019841    1.455    0.313
       482  -9.5543     17.4812     98.0307   1.0438360682e+02   5.4636694984e+01    0.2419545     0.184667  80.49  0.001280668    1.628    0.386
       483  -8.9720     18.5109     93.9460   1.0318591968e+02   5.5556828627e+01    0.2121318      0.15116 -40.07 0.0002947585    1.231    0.188
       484  -9.6081     15.0064     93.4580   1.0445071249e+02   5.5916070050e+01    0.2327942    0.2100204  21.74 0.0003623196    1.310    0.237
       485 -10.1548     50.6716     97.3459   9.1579588209e+01   5.1607088805e+01    0.2524206    0.2080433 -32.81 0.0003250886    1.115    0.103
       486 -10.0618     40.3223     96.4427   9.5291684209e+01   5.3014345054e+01    0.5086189    0.1641877 -45.69  0.001059378    2.716    0.632
       487  -9.5203      7.4920     95.5704   1.0772580548e+02   5.5860356376e+01    0.1849195    0.1146995 -78.07 0.0001351623    1.635    0.388
       488 -12.4330    242.7992     95.0186   4.4060309270e+01   1.3759705696e+01    0.5706424    0.3449719 -42.49   0.00311928    1.374    0.272
       489  -9.9964     23.1610     96.3888   1.0188580287e+02   5.4615081298e+01    0.3362983    0.1816777 -23.50   0.00124035    2.168    0.539
       490 -10.0722     27.9948     94.7126   9.9658549684e+01   5.4621998045e+01    0.3333891    0.1813144 -21.85  0.001486829    2.222    0.550
       491 -10.1839    227.9260     95.3219   4.6075854023e+01   1.6485584035e+01    0.2092747    0.1640021 -61.15 0.0006407153    1.199    0.166
       492  -9.8957    225.2530     91.5495   4.5623612475e+01   1.7641538652e+01    0.2976805    0.1709813 -74.27  0.001035817    2.731    0.634
       493  -9.3904      3.4378     95.5011   1.0924524863e+02   5.6089221203e+01     0.184993    0.1415539 -58.62  7.13328e-05    1.056    0.053
       494  -9.3140      3.4870     92.0486   1.0864507183e+02   5.6918717653e+01     0.183176    0.1393448 -58.46 0.0003575263    1.069    0.065
       495 -10.2161     80.9903     93.2537   7.9439198970e+01   4.8055143172e+01    0.2538194    0.2041229 -34.69 0.0003205622    1.193    0.162
       496  -8.6588     68.5761     94.2217   8.4113744166e+01   4.9861011064e+01    0.1982651    0.1293676 -38.76 0.0002996891    1.466    0.318
       497  -9.6242     55.5719     93.3872   8.8700729251e+01   5.1917340055e+01    0.3007571      0.21553 -30.84  0.001342949    1.364    0.267
       498 -10.3043     60.6081     89.6313   8.5767053614e+01   5.2092667771e+01    0.4646026    0.2988306  50.32  0.001457565    2.037    0.509
       499  -9.6863     49.0087     91.4970   9.0704850225e+01   5.3196963105e+01    0.2500965    0.1708766 -37.65 0.0003642032    1.346    0.257
       500 -10.0323     35.1722     91.5530   9.6121147705e+01   5.4714095885e+01    0.2566439    0.2260674   0.13 0.0008430267    1.192    0.161
       501  -8.2686      8.2776     92.2964   1.0684122102e+02   5.6607145531e+01    0.1365724   0.07684615 -41.98  0.000243049    1.532    0.347
       502  -8.8723     66.6212     91.0019   8.3918008433e+01   5.0896302224e+01    0.2049411    0.1674878 -38.62 0.0003736308    1.136    0.120
       503  -8.7101     22.1873     91.3803   1.0120997474e+02   5.5899998194e+01    0.1608906    0.1239264  28.66 0.0002624369    1.503    0.335
       504 -10.0626    224.2597    247.0190   7.6738390861e+01  -9.1674036892e+00    0.1935411    0.1306852  -5.85 0.0004170497    1.259    0.205
       505 -10.5195     71.4370     88.7818   8.1516700578e+01   5.0645007330e+01    0.2809933    0.2310542 -19.70 0.0004396961    1.202    0.168
       506  -9.2842     43.1953     89.7805   9.2520786565e+01   5.4282613346e+01    0.1935419    0.1789288 -34.06 0.0004365563    1.080    0.074
       507  -9.7066     88.0698     88.2847   7.5554383293e+01   4.7881542274e+01    0.2472663     0.205377 -36.59 0.0006310479    1.169    0.145
       508  -9.4398     29.7174     89.4019   9.7771853536e+01   5.5740056499e+01    0.1691374    0.1244202  -6.32 0.0003106267    1.456    0.313
       509  -8.2407     17.4687     89.5229   1.0268709193e+02   5.6692137892e+01    0.1365066    0.1098145 -44.89 0.0002060783    1.032    0.031
       510  -8.9815     11.8483     89.1959   1.0485382123e+02   5.7139649079e+01    0.1863091    0.1232358 -41.50 0.0003867064    1.291    0.225
       511  -9.6579     83.2480     87.0030   7.6806720504e+01   4.9032671965e+01    0.4565856    0.2323176 -31.20  0.001044419    2.422    0.587
       512 -10.6671    250.1170     86.6416   4.1484043973e+01   1.3797476233e+01    0.3053098    0.1414467 -39.89  0.001231196    1.812    0.448
       513 -10.9100     94.9199     85.8238   7.2547584189e+01   4.7103911691e+01     0.417474    0.2514857  39.80   0.00113948    1.661    0.398
       514  -8.7297     59.5441     83.5269   8.4409954809e+01   5.3615189289e+01    0.1900985    0.1348933  37.88 0.0001448215    1.538    0.350
       515  -8.6462     67.4551     82.5671   8.1125158649e+01   5.2639726021e+01    0.3747401    0.1866066  31.35 0.0001509275    2.082    0.520
       516  -9.8058     65.9081     86.1564   8.2777176376e+01   5.2092733382e+01    0.3310281    0.2668485 -69.73  0.001696463    1.570    0.363
       517  -8.5240     62.6810     85.3073   8.3738761080e+01   5.2765160405e+01    0.3033251    0.1540499 -41.88 0.0004619788    1.856    0.461
       518  -8.6480     47.0374     87.5344   9.0416135983e+01   5.4356401035e+01    0.1946982    0.1373002  23.10 0.0004341478    1.500    0.333
       519  -9.6534     34.8621     86.4526   9.4987573645e+01   5.5944686945e+01    0.2936043    0.1965209  -0.26   0.00150546    1.674    0.403
       520  -8.7502     21.9704     86.7019   1.0026534294e+02   5.7027835894e+01    0.1776262    0.1517462 -28.63  0.000335979    1.101    0.092
       521  -9.1684      5.9431     87.0856   1.0679340454e+02   5.7977028323e+01    0.1927844    0.1533173 -47.49 0.0003196321    1.031    0.030
       522  -9.8151     45.6465     96.3157   9.3225434125e+01   5.2454173813e+01    0.2769786    0.2012549 -41.62 0.0007775522    1.227    0.185
       523  -9.4194     76.2271     86.0968   7.8994028852e+01   5.0447832185e+01    0.2343838     0.202373  17.83 0.0004980655    1.153    0.132
       524  -9.6071    107.4269     85.0880   6.8423663667e+01   4.4732720885e+01    0.2534517    0.2043959  20.05 0.0004672795    1.336    0.251
       525  -9.8348    109.7198     81.0368   6.6499435658e+01   4.5055773005e+01    0.2770188    0.2199547  22.14 0.0001850783    1.359    0.264
       526  -9.3362     15.9788     85.0869   1.0234401420e+02   5.7844492853e+01    0.1988393    0.1607254 -42.26 0.0003550182    1.031    0.030
       527 -10.8508    213.7164     84.4684   4.5664639327e+01   2.1151181191e+01    0.3056295    0.1290523  55.11  0.001285002    2.558    0.609
       528  -9.1093     40.9353     83.8336   9.1850632032e+01   5.5909994636e+01    0.2094907    0.1622281 -23.91 0.0003454233    1.218    0.179
       529  -9.0250     27.6341     84.0388   9.7328905305e+01   5.7182289070e+01     0.193402    0.1664389  -7.41 0.0002789405    1.187    0.157
       530  -8.5924     80.2133     84.0247   7.6952788768e+01   5.0206947708e+01    0.1979802    0.1781234 -25.74 0.0003138409    1.056    0.053
       531 -14.2077    126.5312    105.9340   6.8989999633e+01   3.6280770649e+01     3.422462     1.991527  52.59   0.01376691    1.901    0.474
       532 -11.9161    193.9639     77.9646   4.7108012209e+01   2.6464847527e+01     0.385475     0.329403 -57.31  0.001533233    1.074    0.069
       533 -12.1290    190.5058     76.9690   4.7417267108e+01   2.7398478194e+01    0.6414283    0.4344315   7.26  0.002639501    3.038    0.671
       534  -9.0417    104.5109     78.9360   6.7400250576e+01   4.6560475561e+01    0.2106928    0.1936201  24.46 0.0003218522    1.054    0.052
       535  -9.3681     88.9841     82.4487   7.3458043147e+01   4.8940384416e+01     0.230265    0.1925061 -23.27 0.0001392234    1.188    0.158
       536 -10.4047     92.9998     78.4380   7.0866856524e+01   4.8982512743e+01     0.492607    0.3217572   6.93  0.001686179    2.262    0.558
       537  -8.4458     97.6041     81.4513   7.0333763150e+01   4.7470887311e+01    0.2589657    0.2029284   5.91 9.017663e-05    1.465    0.317
       538  -9.3569     99.0175     78.0297   6.8809859018e+01   4.7865506423e+01    0.2181078    0.2061611   2.51 0.0003104014    1.007    0.007
       539  -9.1108     71.6070     83.1703   7.9774758732e+01   5.1846476300e+01    0.2053463    0.1662759 -32.07 0.0006949648    1.165    0.141
       540  -9.7702    115.5345     81.6311   6.5005379041e+01   4.3691723056e+01     0.262411    0.2368552  18.92  0.000426931    1.126    0.112
       541  -8.6626     56.4501     81.9285   8.5135576265e+01   5.4403239219e+01    0.2034144    0.1306756 -47.24 0.0002733675    1.454    0.312
       542  -8.7239     51.7468     81.9111   8.6979905031e+01   5.5039343872e+01    0.1908654    0.1636643 -36.29 0.0003153573    1.071    0.067
       543  -8.5336     34.4213     82.2060   9.4074064898e+01   5.6967944669e+01    0.1702067    0.1247529 -62.29 0.0003332027    1.425    0.298
       544  -8.5564      5.5440     82.4877   1.0607069225e+02   5.9078533982e+01    0.1321151     0.102238 -47.27 6.986142e-05    1.034    0.033
       545  -9.3120     14.7554     81.3765   1.0203469842e+02   5.8792393112e+01    0.1877848    0.1234964 -38.91 0.0002360073    1.294    0.227
       546  -9.1234      2.4807     80.9252   1.0702206353e+02   5.9594002612e+01    0.1952838    0.1026326 -61.89  0.000597018    1.535    0.349
       547 -10.1652    114.3940     74.9577   6.3263580062e+01   4.5204952311e+01    0.5631986     0.412031   7.66  0.001892961    1.805    0.446
       548 -10.8260    100.1271     53.2008   6.0201388561e+01   5.2006949177e+01     1.125353    0.2134788 -36.61  0.003028254    5.454    0.817
       549 -10.7185    122.7619     67.7982   5.8763005608e+01   4.4616245238e+01    0.5644081    0.3697043   0.94  0.002279361    2.555    0.609
       550 -10.8876     94.1364     65.7528   6.6344098595e+01   5.1152909877e+01      1.15539    0.4902786  32.70  0.003989687    3.034    0.670
       551 -10.2172    115.9395     68.7080   6.0863327326e+01   4.5989906077e+01    0.3481341    0.2390207  27.12 0.0003200549    1.694    0.410
       552 -10.8673    120.1367     63.9292   5.8224315928e+01   4.5865667985e+01    0.4556199    0.2714282  43.63  0.001232519    1.629    0.386
       553  -9.9581    112.9045     64.0892   6.0213039128e+01   4.7457515553e+01    0.2611994     0.224775  18.63 0.0003451341    1.208    0.172
       554  -9.9852    115.0968     59.2760   5.8052287739e+01   4.7763630182e+01    0.3752817     0.232603 -21.31  0.001472287    1.998    0.499
       555 -12.4550    107.6565     51.8578   5.7594901940e+01   5.0577856909e+01     1.267727    0.6104012 -48.41  0.005045742    2.675    0.626
       556 -10.4301     81.9450     78.2764   7.4547330002e+01   5.1094853382e+01    0.4678332    0.3725118  85.42  0.001596174    1.973    0.493
       557 -10.9812     87.2133     73.4961   7.1194049049e+01   5.1068398079e+01    0.6145581    0.5397232  55.93  0.002331022    1.329    0.248
       558  -9.2608     86.5661     68.3175   6.9695724099e+01   5.2176425159e+01    0.3057456    0.2016343  28.72 0.0005673839    1.563    0.360
       559  -9.8013    108.0518     75.9992   6.5416824115e+01   4.6378503225e+01    0.2640218    0.2563632  -9.11 0.0007856723    1.044    0.042
       560  -9.9929    109.9543     70.8261   6.3217245311e+01   4.6925629963e+01    0.5157197    0.2799088 -29.82 0.0008658936    2.124    0.529
       561  -9.3531    109.0484     66.3369   6.2026888605e+01   4.7917409916e+01    0.2199692    0.1908983  14.94 0.0004410941    1.189    0.159
       562 -10.2523    104.9140     69.0142   6.4104633754e+01   4.8332633528e+01    0.4232593     0.294879 -14.69  0.001354668    1.784    0.439
       563  -9.7412    101.1546     66.6370   6.4453058995e+01   4.9550074563e+01    0.3213554    0.2671229 -55.67 0.0006736151    1.413    0.292
       564 -10.2571    103.1512     62.9301   6.2620546296e+01   4.9773053053e+01    0.4097939    0.3111396 -12.06   0.00124921    1.510    0.338
       565  -9.8981     75.2722     79.3183   7.7246515825e+01   5.2051537804e+01    0.2546568    0.2199512  -4.45  0.001384406    1.123    0.109
       566  -9.6566     38.2888     79.9430   9.1871399599e+01   5.7079820407e+01    0.2070768    0.1812133  21.31  0.000329005    1.263    0.208
       567 -10.0641    248.6502     79.5666   4.0230586594e+01   1.5166994866e+01    0.2057944    0.1177493  57.38 0.0009501625    2.061    0.515
       568  -9.4021     63.8730     78.9983   8.1382023135e+01   5.3958840561e+01    0.2153424    0.1844544 -20.54 0.0002980722    1.073    0.068
       569  -8.8917     60.1860     79.5783   8.2977335238e+01   5.4384163935e+01    0.2674865    0.1405448  29.57 0.0004254779    1.971    0.493
       570  -8.7803     58.0057     76.9704   8.3026196061e+01   5.5257912234e+01    0.2103845    0.1893724 -18.26 0.0003307709    1.029    0.029
       571  -9.1462     28.3440     78.8861   9.5736598874e+01   5.8300827769e+01    0.1908448    0.1749563   8.90 0.0003943416    1.220    0.181
       572  -8.8631     69.6945     78.4726   7.9024658067e+01   5.3155052543e+01    0.1796048    0.1352255  14.67 0.0003068514    1.384    0.277
       573  -9.6280     43.7024     77.3187   8.8894521501e+01   5.7052648616e+01    0.2532111       0.2237  -9.52 0.0007663452    1.084    0.078
       574  -8.4827     23.6287     80.1246   9.8031206244e+01   5.8423800232e+01    0.1871139   0.09858859 -47.68   0.00015185    1.551    0.355
       575  -8.9631      7.7746     78.2917   1.0428645504e+02   5.9930529433e+01    0.1826907    0.1151074 -39.70  0.000444319    1.327    0.246
       576  -8.6712     53.9900     77.2544   8.4702794416e+01   5.5758408187e+01    0.1900162    0.1648165  -9.72 0.0002720027    1.070    0.065
       577  -8.4401     17.6379     77.2207   9.9860039081e+01   5.9546954302e+01    0.1843543    0.0959359 -49.65 0.0002636531    1.535    0.349
       578  -9.2979     48.7606     76.1063   8.6462623409e+01   5.6695529819e+01    0.1961124    0.1776493 -36.56 0.0004112379    1.131    0.116
       579  -9.5701    102.5012     74.3159   6.6545983649e+01   4.7863813823e+01    0.2411307    0.2121599  18.15  0.000330393    1.128    0.114
       580  -8.7207     65.5695     75.4871   7.9632071641e+01   5.4434634708e+01    0.1899541    0.1718887 -17.85 7.038825e-05    1.034    0.033
       581  -8.9353     64.0137     72.1090   7.9140342011e+01   5.5370789855e+01    0.1974256    0.1952237  74.40 0.0006443879    1.275    0.215
       582  -9.9642     73.8846     73.2284   7.5795499802e+01   5.3531135623e+01    0.2378454    0.2034486 -21.38 0.0002596168    1.102    0.092
       583  -9.1138     70.2354     71.2179   7.6483850517e+01   5.4547420742e+01     0.641198    0.1894183 -40.02  0.002043545    3.529    0.717
       584 -10.5549     10.1014     72.8677   1.0208232579e+02   6.1028820996e+01    0.3851409    0.1570052 -63.05  0.001691726    2.189    0.543
       585  -9.5008    102.8580     82.8211   6.9115970790e+01   4.6133407755e+01    0.2352045    0.1974921 -20.51 0.0003368523    1.231    0.188
       586 -13.7609    143.2313    135.2914   7.2164095427e+01   2.6111489674e+01      2.84841     1.478412 -46.39  0.009613738    1.870    0.465
       587 -10.0921     97.3383     71.7759   6.7325494399e+01   4.9402436932e+01    0.2760821    0.2260201  17.66 0.0004520825    1.260    0.206
       588  -9.3688     79.4024     70.2959   7.2838719067e+01   5.3135953773e+01    0.2367924    0.1953966  -7.66 0.0005231671    1.215    0.177
       589  -8.9609     50.3155     71.0537   8.4264559711e+01   5.7564973525e+01     0.189492    0.1599257 -27.03 0.0004391516    1.053    0.051
       590  -8.3342     42.5500     71.5296   8.7649025645e+01   5.8439597166e+01    0.1379533    0.1187995 -24.16 5.578698e-05    1.015    0.015
       591  -9.7561     37.0323     70.2272   8.9607057747e+01   5.9343962762e+01    0.2803658    0.1874612 -59.08   0.00112898    1.640    0.390
       592  -8.7956     23.2725     71.5535   9.5979224229e+01   6.0378282025e+01    0.1643185     0.114865  -9.76 0.0003531174    1.448    0.309
       593 -11.0109    207.1625     71.2061   4.3549867985e+01   2.4692312990e+01    0.4273237    0.1695135 -35.62  0.001708805    2.537    0.606
       594 -10.3528    221.9841     69.0036   4.1120675142e+01   2.1936922852e+01      0.30109    0.1294973  69.69  0.001265724    2.851    0.649
       595  -8.9242     74.0088     68.7023   7.4247968573e+01   5.4398597193e+01    0.1932403    0.1687088  12.44 0.0002953295    1.079    0.073
       596  -8.6492     58.5164     69.0885   8.0306721994e+01   5.6816579421e+01    0.1936362    0.1290738 -41.21 0.0003032394    1.420    0.296
       597 -13.3786    134.8172    124.5717   7.1687029866e+01   3.0332722894e+01     1.846613     1.391319  23.99  0.008346803    1.523    0.343
       598  -8.5838     64.5353     65.9651   7.6892569189e+01   5.6506640698e+01    0.1975847    0.1306544 -39.03 2.818801e-05    1.457    0.314
       599  -9.1059     81.8158     65.3404   7.0315226619e+01   5.3625283274e+01    0.1938405    0.1627956  19.06 0.0003386553    1.135    0.119
       600  -8.7824     76.6754     64.9457   7.2000266672e+01   5.4638837429e+01    0.1921663    0.1707647 -23.03 0.0002548619    1.104    0.094
       601  -9.0682     71.6670     64.9255   7.3826776717e+01   5.5522139477e+01    0.1934171    0.1644637 -24.22 0.0003328651    1.122    0.109
       602 -10.7611    227.0195    243.7063   7.5677015413e+01  -9.0214086250e+00     0.279361    0.1537525  26.63 0.0008963952    1.695    0.410
       603 -10.1628     87.1486     62.9406   6.7670163075e+01   5.3041046484e+01    0.3324445    0.2743944 -61.00  0.001177578    1.566    0.361
       604  -9.6179     88.7964     58.8205   6.5693503653e+01   5.3431507448e+01    0.2902637    0.2338203 -28.56  0.001386685    1.260    0.206
       605  -9.6189    250.0000     62.9542   3.6795922362e+01   1.7414082059e+01     0.205903   0.05800791 -38.80 0.0008112405    3.004    0.667
       606 -11.6152    116.7753    120.2513   7.5557027346e+01   3.5052204273e+01    0.7685102    0.4839086  22.89 0.0003689552    2.038    0.509
       607  -8.8423     66.8997     62.3376   7.4729505708e+01   5.6810833909e+01    0.1911196    0.1573264  12.65 0.0003390365    1.145    0.127
       608  -8.4292     58.3538     62.5062   7.8149192056e+01   5.8133269437e+01    0.1384426    0.1181191 -16.52 0.0001432185    1.050    0.047
       609  -8.5889     41.4856     61.0034   8.4740775856e+01   6.0730599513e+01    0.1932408    0.1194044 -43.43  0.000552745    1.484    0.326
       610  -8.5293     72.9274     60.7834   7.1916063942e+01   5.6066606073e+01    0.1784358    0.1086366  35.14 0.0002091574    1.595    0.373
       611  -8.6764     62.4360     60.0732   7.5669551303e+01   5.7956953686e+01    0.1922136    0.1276694 -37.18 0.0003139361    1.456    0.313
       612  -8.3642     49.2567     58.9532   8.0680471742e+01   6.0123880431e+01    0.1605631    0.1086303 -41.77 0.0003199279    1.421    0.296
       613  -9.2841    207.5239     58.4896   4.0575075400e+01   2.6561489217e+01     0.132891    0.1143042 -69.05 6.418215e-05    1.004    0.004
       614  -8.4393     31.9951     58.0582   8.8018366233e+01   6.2393422858e+01    0.1599948    0.1287794 -28.44 0.0005240071    1.057    0.054
       615  -8.8121    105.0189     57.2247   6.0157130140e+01   5.0317279685e+01    0.1966088    0.1710081  37.18 0.0003234585    1.074    0.069
       616  -8.5822     57.4188     57.5564   7.6785216701e+01   5.9203653254e+01    0.1375149    0.1183753  -6.96 0.0001013926    1.010    0.010
       617 -10.2248    171.8930     49.9080   4.3501822915e+01   3.5854673031e+01    0.2031084    0.1889893 -81.82  0.001238473    1.044    0.042
       618  -9.6911    120.1219     55.2966   5.5459528325e+01   4.7251435680e+01    0.2609067    0.2006315  21.73 0.0007877175    1.493    0.330
       619  -9.2523     24.4410     64.5865   9.3501580241e+01   6.1781665307e+01     0.131448    0.1072979 -28.55 7.481789e-05    1.010    0.009
       620  -9.6622     82.7566     56.0015   6.6718420961e+01   5.5088206919e+01    0.2330175    0.2201618  -2.31 0.0009731199    1.103    0.094
       621  -8.1955     70.6697     56.7409   7.1310778778e+01   5.7181125359e+01    0.1409124   0.09984566   6.59  0.000247498    1.565    0.361
       622  -9.5891     95.1106     59.1038   6.3769574691e+01   5.2105315926e+01     0.424889    0.1974208  34.24  0.001628235    2.461    0.594
       623  -8.9405     62.7279     55.0661   7.3753159378e+01   5.8815667545e+01    0.1895514    0.1581978 -17.59 0.0003681261    1.110    0.099
       624  -8.8315     95.6938     53.4003   6.1603117252e+01   5.2912144046e+01    0.3699041    0.1307756 -29.93  0.001216696    3.666    0.727
       625  -8.9901     68.6634     53.8312   7.1004424608e+01   5.8033542790e+01    0.3308236    0.1688573  24.91  0.001376149    2.344    0.573
       626 -12.7912    166.9413     53.7607   4.5332353902e+01   3.6465741098e+01    0.7105932    0.4869364 -79.93  0.001777945    1.731    0.422
       627 -10.4531    114.0104     53.0167   5.6279225874e+01   4.8985701705e+01    0.4508391    0.2563077  15.56  0.001514267    3.588    0.721
       628 -10.7507    113.4684     47.9521   5.4729607862e+01   4.9855137396e+01    0.4508207    0.3157193 -69.56  0.002117257    2.136    0.532
       629 -10.8465    115.5092     44.5094   5.3061372897e+01   4.9876051605e+01    0.4498294     0.267702  70.53  0.001983657    2.148    0.534
       630  -9.1154     91.0586     51.4123   6.2340391384e+01   5.4182718612e+01    0.1975153    0.1786775 -10.67 0.0003247354    1.112    0.101
       631  -8.7973     86.8878     52.3693   6.4028435548e+01   5.4873780029e+01    0.1930909    0.1621909  25.07 0.0004035658    1.098    0.089
       632 -10.6272    122.5671     50.5223   5.3316206106e+01   4.7404149659e+01    0.3385458    0.2308013  65.53  0.001661275    1.558    0.358
       633  -8.5585     19.5414     48.4740   9.0756009722e+01   6.5465899116e+01     0.129646   0.09948796 -23.93 0.0001594062    1.046    0.044
       634 -12.1281    123.7013     46.4337   5.1728303567e+01   4.7724413198e+01    0.7159891    0.3566394 -45.97  0.002694769    2.329    0.571
       635  -9.3967     90.8356     47.1639   6.0877572558e+01   5.4877205539e+01    0.1856504    0.1496843  11.08 0.0003703549    1.271    0.213
       636  -8.1790     84.6461     47.2436   6.2894583487e+01   5.6118021992e+01    0.1283837    0.1083349  71.46 0.0001892527    1.586    0.370
       637  -9.2167     80.7622     60.1026   6.8863794365e+01   5.4763198921e+01     0.239562    0.1878128  20.24 0.0003416563    1.245    0.197
       638  -8.9174     73.6910     46.4320   6.6371813169e+01   5.8343666781e+01    0.1827866     0.117836  29.64 0.0004781924    1.490    0.329
       639  -9.6497    110.3915    191.0452   9.2386812509e+01   1.8821517143e+01    0.2872176    0.2364933 -28.48 0.0004029312    1.358    0.264
       640 -10.8022    145.8678     43.7264   4.6254700609e+01   4.2867434886e+01    0.2244122     0.190858 -14.12 0.0005017676    1.393    0.282
       641  -9.1330     84.8592     43.8232   6.1552555318e+01   5.6584377876e+01    0.1983601    0.1662195  17.94 0.0002811606    1.112    0.101
       642 -12.4281    105.0486    112.7678   7.7063593160e+01   3.9133000685e+01     1.975141     0.871645 -42.41  0.006989962    2.285    0.562
       643  -9.2304     71.8416     41.8129   6.5262265941e+01   5.9386894133e+01    0.1994242     0.158454  10.79 0.0003570235    1.186    0.156
       644 -10.2695    140.9778     39.7911   4.6011135796e+01   4.4545744353e+01    0.2417922    0.1367587  38.70  0.001082537    2.087    0.521
       645 -10.3770    132.8478     39.8937   4.7651701225e+01   4.6458133249e+01    0.2798018    0.1861511  57.00 0.0006384479    1.358    0.264
       646  -8.4056     77.5356     40.4648   6.2726216450e+01   5.8509541214e+01    0.1372607    0.1172822  17.92 4.435322e-05    1.033    0.032
       647  -9.2905    126.9792     39.0232   4.8611675499e+01   4.7949838684e+01    0.1620289    0.1479839  56.15 0.0003293649    1.005    0.005
       648 -10.0296    108.4355     38.6314   5.2838418483e+01   5.2262714889e+01    0.2692054    0.2430915 -39.56 0.0007701327    1.240    0.194
       649  -9.0463     96.9777     38.8621   5.6017716405e+01   5.4752996960e+01    0.2073707     0.161303  27.05 0.0003106409    1.255    0.203
       650  -8.3520     85.3066     39.3291   5.9715709431e+01   5.7131157279e+01     0.141758   0.09643134  16.71 0.0007037962    1.657    0.396
       651  -8.3923     40.3066     39.6716   7.7423917060e+01   6.4762003893e+01    0.1105576    0.1056444  70.41 0.0004547331    1.656    0.396
       652  -9.1807    190.0283     37.3008   3.7793000375e+01   3.3363035594e+01    0.1807357    0.1546018 -86.07 0.0006481952    1.027    0.026
       653  -8.9840    103.9674     37.0459   5.3444234412e+01   5.3463413859e+01    0.2022569    0.1761196  34.12 0.0003176406    1.056    0.053
       654  -8.6795     90.4754     41.4784   5.8903395165e+01   5.5772121117e+01    0.1385707    0.1213122  25.76 0.0001500557    1.023    0.023
       655  -8.8184    133.2743     36.2976   4.6446320912e+01   4.6811382347e+01    0.1331415   0.09861319  31.84 0.0001521509    1.529    0.346
       656 -10.3766    150.0123     34.6961   4.2890055322e+01   4.3034510576e+01      0.24652    0.1759026 -63.53  0.001134477    1.556    0.357
       657  -8.1856     80.2938     34.7056   5.9557837784e+01   5.8760602910e+01    0.1191258    0.1072547 -87.49 0.0002026661    1.558    0.358
       658  -9.3005    105.1989     32.8638   5.1641474839e+01   5.3710398695e+01    0.1952577    0.1790286  74.45 0.0007139858    1.210    0.174
       659  -8.1929    130.3511    247.3021   9.6123583596e+01   3.6932243415e+00    0.1328409   0.09587268  -0.49  0.000703925    1.698    0.411
       660  -9.3917     77.0820     29.6994   5.8632756169e+01   6.0036672148e+01    0.1865671     0.146238  33.17 0.0003910427    1.105    0.095
       661  -8.5256    112.8995     29.2146   4.8501383103e+01   5.2398599211e+01    0.2448094     0.125541  37.42  0.001083986    2.132    0.531
       662  -8.8098    102.0000     24.9814   4.9623030449e+01   5.5329100805e+01    0.1967495   0.07584938 -27.26 0.0007989553    2.918    0.657
       663  -9.8552    100.0158     33.5130   5.3232111541e+01   5.4777833836e+01    0.1960276    0.1757246  -9.75 0.0006832993    1.192    0.161
       664  -8.5750     90.9863     23.0000   5.1776914354e+01   5.7947260143e+01    0.2169902   0.06610623  55.14            0    2.898    0.655
       665  -9.4431      4.5275     24.5089   8.9976324547e+01   7.0978053994e+01    0.1189268   0.08794948 -19.93  5.54965e-05    1.002    0.002
       666 -12.1832    112.5436    114.7393   7.5345234974e+01   3.7193985130e+01      1.12377    0.5632525 -32.86  0.003866649    2.590    0.614
       667  -9.2848     73.3718     16.7691   5.4519406896e+01   6.2236146578e+01    0.1636441    0.1121375  -3.82 0.0004735858    1.591    0.372
       668 -10.3538     93.5223    246.3297   1.0408169255e+02   9.1933742492e+00    0.4697852    0.2437748  36.62  0.001515551    1.649    0.394
