#   1 NUMBER                 Running object number                                     
#   2 MAG_AUTO               Kron-like elliptical aperture magnitude                    [mag]
#   3 X_IMAGE                Object position along x                                    [pixel]
#   4 Y_IMAGE                Object position along y                                    [pixel]
#   5 X_WORLD                Barycenter position along world x axis                     [deg]
#   6 Y_WORLD                Barycenter position along world y axis                     [deg]
#   7 A_WORLD                Profile RMS along major axis (world units)                 [deg]
#   8 B_WORLD                Profile RMS along minor axis (world units)                 [deg]
#   9 THETA_WORLD            Position angle (CCW/world-x)                               [deg]
#  10 FWHM_WORLD             FWHM assuming a gaussian core                              [deg]
#  11 ELONGATION             A_IMAGE/B_IMAGE                                           
#  12 ELLIPTICITY            1 - B_IMAGE/A_IMAGE                                       
         1 -13.2796    230.5561     26.5450   9.5445597972e+00   2.4783837980e+01    0.8858573    0.4252603  63.43  0.004468953    2.045    0.511
         2 -13.4440    229.6559     20.4176   8.2917653959e+00   2.5700758878e+01    0.8826917    0.4319794  64.13  0.004560397    1.987    0.497
         3 -11.0909     60.1639     22.1839   4.0922598470e+01   6.3377450154e+01    0.3009433     0.198861   7.13  0.001445364    1.558    0.358
         4 -12.4949    236.5655      4.1656   4.3207554269e+00   2.5999542661e+01    0.4691369    0.2288898 -59.63  0.002526004    1.865    0.464
         5 -12.8361    247.7431     15.3010   5.7574988616e+00   2.2459380618e+01    0.5912674    0.2983995 -63.47  0.003186812    1.860    0.462
         6 -11.7042     39.5890      2.2260   3.9670292032e+01   6.8856977789e+01    0.3960968   0.07237515  42.38  0.001417346    4.715    0.788
         7 -10.9105     46.1079    238.5654   9.0072570223e+01   1.9473576974e+01    0.1492257     0.117669  83.85 0.0002673712    1.134    0.118
         8  -9.4523    164.3902    249.7588   6.8517335319e+01   2.0975605233e-01     0.148392    0.1134989 -25.47 0.0003831417    1.554    0.356
         9 -18.8926     12.0512    185.7446   9.2660110801e+01   3.4146162371e+01     14.24187     4.230258 -77.55   0.05918877    3.036    0.671
        10  -9.7943     69.6248    195.1458   8.0993763524e+01   2.5448442140e+01    0.3533774    0.1546905 -71.43  0.001214474    2.474    0.596
        11 -16.1432     65.6875    140.8195   7.3847418049e+01   3.8748916939e+01     6.232079     3.829952  85.87   0.02701038    2.337    0.572
        12  -9.1752     61.5373    188.5232   8.2010531776e+01   2.8030471957e+01    0.1333406    0.1117467  78.66 6.648876e-05    1.060    0.057
        13  -8.7799     72.2868    186.3085   7.9247826995e+01   2.7064843791e+01    0.1253256    0.1026936 -35.35 0.0003971552    1.572    0.364
        14 -10.7929     69.3782    230.1133   8.4888544320e+01   1.8130550687e+01    0.2476161    0.1331341 -68.80  0.001035779    1.918    0.479
        15 -11.9393    127.7862    181.5916   6.5454682484e+01   1.9088438128e+01    0.4008301    0.2461296  30.59  0.001550603    1.790    0.441
        16 -11.2706    116.0089    182.0155   6.8289345205e+01   2.1091426215e+01    0.2233335    0.2144199  60.51 0.0008297461    1.027    0.027
        17 -12.3484     97.1080    178.4466   7.2193920060e+01   2.5086900612e+01    0.6108634     0.351593 -72.09  0.002689517    2.062    0.515
        18  -9.3090     63.5524    181.5650   8.0663592043e+01   2.9352805546e+01    0.1340878     0.114658  80.54 8.248855e-05    1.051    0.049
        19 -11.4067    132.3756    208.4150   6.8928176832e+01   1.2712592361e+01    0.2508143    0.2241293  67.51 0.0005741762    1.153    0.133
        20 -10.1952    145.9240    178.6478   6.0722669829e+01   1.6355765069e+01    0.2055789    0.1834175  44.57 0.0005975743    1.088    0.081
        21 -10.7550    173.0445    176.9456   5.4376534060e+01   1.1515007341e+01    0.3362888    0.2865036 -74.71  0.001721924    1.490    0.329
        22 -10.8072     69.6763    174.2761   7.8200184853e+01   3.0208056259e+01    0.2963273    0.2020651  86.83 0.0009943463    1.606    0.377
        23 -10.5509    140.0048    172.2883   6.0853637499e+01   1.8830452591e+01    0.2087975    0.1858032  43.33  0.000386901    1.095    0.086
        24 -11.1172    179.5069    168.3323   5.1222236302e+01   1.1949513463e+01    0.5030376    0.3883834 -81.32  0.002385841    1.950    0.487
        25 -12.4969     85.5610    168.0354   7.3319419542e+01   2.9333691686e+01    0.9232481    0.3366893  30.05  0.003103095    3.628    0.724
        26 -10.8395    110.5018    166.9787   6.6929060081e+01   2.5444650465e+01    0.2958991    0.2289046 -88.13 0.0009615081    1.518    0.341
        27 -10.4844    101.6729    166.9583   6.9113972654e+01   2.6973314831e+01    0.2066423    0.1797256 -68.44  0.000372634    1.131    0.116
        28 -11.8213     86.3972    161.7680   7.2049946146e+01   3.0680929374e+01    0.3596322    0.3127317  52.47 0.0006155827    1.155    0.134
        29  -9.5409    167.4825    156.0670   5.1190140049e+01   1.6821285028e+01    0.2231132     0.146704 -42.95 0.0004379921    1.518    0.341
        30  -9.1526    159.9817    156.2423   5.2909296892e+01   1.8312513519e+01    0.1884961    0.1262502  43.01 0.0002231159    1.487    0.328
        31 -10.0120     47.2360    229.0630   8.9103943991e+01   2.1193611596e+01     0.173892    0.1172428  71.43 0.0009056041    1.278    0.218
        32 -11.6397    133.8820    145.9375   5.6813178823e+01   2.5835111951e+01    0.7757908    0.2353372 -50.81   0.00231099    3.485    0.713
        33  -9.4553    120.3342    146.0937   6.0253336911e+01   2.8446429202e+01    0.2177127    0.1383076 -61.19 0.0009311567    1.736    0.424
        34 -11.2131    108.8846    145.2576   6.3035643467e+01   3.0772881928e+01    0.3393025     0.300231 -35.20  0.001506398    1.196    0.164
        35  -9.4708    128.4829    138.5012   5.6480693666e+01   2.8584457906e+01    0.1512723    0.1493477 -55.88 -7.425878e-06    1.001    0.001
        36 -11.8616    105.2409    131.8267   6.1059722422e+01   3.4571526388e+01    0.5960308    0.3737634 -35.64   0.00165361    1.825    0.452
        37 -11.6254     92.2437    132.1774   6.4718537030e+01   3.6771036899e+01    0.2789547    0.2614866 -23.40 0.0004137951    1.143    0.125
        38 -10.5822    112.6520    126.3450   5.7768436439e+01   3.4451046003e+01    0.2931399    0.2152096  -7.93 0.0007864003    1.953    0.488
        39 -10.2857    135.0000    124.9657   5.1593688734e+01   3.0264607802e+01    0.2592888   0.08715676 -45.69 0.0006326044    2.932    0.659
        40  -9.5968    144.1284    123.1297   4.8875585455e+01   2.8721736911e+01    0.2070477    0.1850422  88.76 0.0003053082    1.271    0.213
        41 -10.0894    100.1706    121.4002   6.0024269273e+01   3.7909328946e+01    0.2675142    0.2168311 -20.52 0.0007303738    1.432    0.302
        42 -10.8030     89.6393    223.2195   8.0053758666e+01   1.6622684458e+01    0.3296643    0.2010232  89.17  0.000791127    2.067    0.516
        43  -9.3495     71.8726    224.2078   8.3797459632e+01   1.8966958964e+01    0.1436194    0.1299058  42.96 0.0003840507    1.269    0.212
        44  -9.9653    108.6597    116.0866   5.6337980410e+01   3.7544055824e+01    0.2118646    0.1842621 -45.55 0.0003265896    1.113    0.101
        45 -12.1658     61.9105    113.5758   6.9523173822e+01   4.5773632084e+01    0.4657013    0.3091567  68.11  0.001100753    2.182    0.542
        46 -10.0871    107.6353    110.8788   5.5289244833e+01   3.8905311586e+01    0.2163156    0.1846579 -48.68 0.0007127177    1.141    0.124
        47 -10.3889    134.1502    105.3011   4.6700738113e+01   3.4657336158e+01    0.3460748    0.1772242 -61.72  0.001096557    3.389    0.705
        48 -11.3155     54.0135    220.2763   8.7008356470e+01   2.2128991714e+01     0.182759    0.1425415  89.55 0.0004343078    1.157    0.136
        49  -9.6109     93.4543    236.3287   8.0764771839e+01   1.3516642728e+01    0.2764483    0.1908343  -7.00  0.001305455    3.270    0.694
        50 -11.4528     44.0937    102.4258   7.2721626374e+01   5.0542142595e+01    0.3157967     0.232839  49.14 0.0008494206    1.624    0.384
        51 -12.0132     49.5760     91.9562   6.8469923441e+01   5.2290721022e+01    0.3774873    0.3025541  87.54  0.002112574    1.643    0.391
        52 -10.7382     57.0284     85.7452   6.4321496529e+01   5.2721290241e+01    0.2181297    0.2012993  14.86 0.0003701351    1.172    0.147
        53 -10.6711     59.4667     88.5139   6.4235907961e+01   5.1796511205e+01     0.353177     0.158889 -55.03  0.001477074    2.143    0.533
        54 -11.6336     54.6714    227.8408   8.7563033903e+01   2.0512497695e+01    0.3841419    0.1588558 -67.65   0.00132004    2.381    0.580
        55 -11.2391     27.5013     87.3464   7.4999586374e+01   5.5596207344e+01    0.2430699    0.1962191 -39.98 0.0002448489    1.105    0.095
        56  -9.2247    128.9877     86.0595   4.2580741417e+01   3.9647863109e+01    0.1785321    0.1734263  27.99 0.0003413065    1.024    0.024
        57  -9.3393    119.1913     82.1540   4.3989177957e+01   4.2528036272e+01    0.1914499    0.1748519 -80.92 0.0002492409    1.273    0.214
        58 -10.8764     35.2363     79.8506   7.0460334897e+01   5.6512763423e+01    0.2147179    0.1821221  -0.97 0.0004865726    1.269    0.212
        59 -11.3530     29.5492     78.4689   7.2183513836e+01   5.7354085919e+01    0.2848924    0.2279834 -60.31 0.0006196701    1.222    0.181
        60 -11.1877    138.9741    214.1163   6.8400749856e+01   1.0476380905e+01    0.2157115    0.2010903 -52.66 0.0005507913    1.188    0.158
        61 -11.8309    182.2848     63.3720   2.4771624272e+01   3.0983672181e+01    0.3687677    0.3621329  70.49 0.0008301682    1.071    0.066
        62  -8.9026     96.6957     64.3113   4.4734494648e+01   5.0429005009e+01    0.1351675    0.1153846 -80.59 0.0004569972    1.613    0.380
        63 -11.2693    133.0637    213.5102   6.9567473972e+01   1.1598945042e+01    0.1949443    0.1836376 -61.35 0.0004838675    1.168    0.144
        64 -13.2568    199.0343     51.1373   1.8986438665e+01   2.8780143763e+01     1.128552    0.8107013  42.51   0.00401107    1.632    0.387
        65 -12.1810    204.8509     46.0899   1.6938425873e+01   2.8109378705e+01    0.4823506    0.4112486  61.99  0.001172807    1.212    0.175
        66  -9.6546     51.0591    201.0061   8.5736737301e+01   2.6589212998e+01    0.3290327    0.1155524 -68.00  0.001400512    2.669    0.625
        67 -10.2209     68.1287     56.0521   5.1214087900e+01   5.6972631530e+01    0.2240023    0.1959416  46.27 0.0007576087    1.385    0.278
        68  -9.4923    210.9700    198.6827   5.0964398328e+01   7.2411023739e-01    0.1838966    0.1559091  22.53 0.0004192099    1.113    0.102
        69 -10.2978     50.9213    247.7652   8.9895048360e+01   1.7149898200e+01    0.2532762    0.1287066  68.06  0.001416195    1.926    0.481
        70 -11.0987    241.6002    246.2506   5.3794734799e+01  -1.0620952151e+01    0.2158448     0.155773 -25.89 0.0007899594    1.431    0.301
        71 -11.6858     25.7669     28.9650   5.7986216887e+01   6.7094552961e+01    0.1996529    0.1532106   8.39 0.0008836152    1.241    0.194
        72 -11.1236     76.0309    244.2186   8.4948099923e+01   1.4524097364e+01    0.1675956    0.1430415  80.65 0.0003073897    1.144    0.126
        73 -12.2782     82.6431    194.5155   7.7970051785e+01   2.3718628884e+01    0.4030302    0.3307199 -71.15  0.002391626    1.202    0.168
        74 -10.4835     70.6841    241.1205   8.5676851591e+01   1.5831559901e+01    0.3157381    0.1296526 -59.29  0.001565676    2.644    0.622
        75 -10.6193    143.9384    211.6647   6.6958023906e+01   1.0090156045e+01    0.2166538    0.1820688 -34.58 0.0006397241    1.336    0.251
