#   1 NUMBER                 Running object number                                     
#   2 MAG_AUTO               Kron-like elliptical aperture magnitude                    [mag]
#   3 X_IMAGE                Object position along x                                    [pixel]
#   4 Y_IMAGE                Object position along y                                    [pixel]
#   5 X_WORLD                Barycenter position along world x axis                     [deg]
#   6 Y_WORLD                Barycenter position along world y axis                     [deg]
#   7 A_WORLD                Profile RMS along major axis (world units)                 [deg]
#   8 B_WORLD                Profile RMS along minor axis (world units)                 [deg]
#   9 THETA_WORLD            Position angle (CCW/world-x)                               [deg]
#  10 FWHM_WORLD             FWHM assuming a gaussian core                              [deg]
#  11 ELONGATION             A_IMAGE/B_IMAGE                                           
#  12 ELLIPTICITY            1 - B_IMAGE/A_IMAGE                                       
         1 -14.1371     68.6297    144.8710   9.0047389302e+01   3.7387084284e+01     4.436907      2.12012  77.54  0.002984389    3.878    0.742
         2 -13.4833    210.7429     42.6429   3.2253557540e+01   2.6574496585e+01     2.375656     1.532999  22.18  0.008884245    2.074    0.518
         3 -12.8888    226.8866     28.6378   2.6524280834e+01   2.4321285301e+01    0.9162837    0.8237312 -10.51  0.002843657    1.164    0.141
         4 -11.5856      3.2738     48.9081   9.5419001216e+01   6.6629190006e+01    0.4973319    0.2928641 -86.23  0.002787498    1.700    0.412
         5 -11.9402    248.5910      6.5308   1.9010968362e+01   2.1620209825e+01    0.8038536     0.374326 -24.82  0.003843063    1.876    0.467
         6 -10.4897      2.0000      9.5190   8.3535104952e+01   7.5334776376e+01    0.4672644   0.08286986 -57.85  0.001640931    4.022    0.751
         7  -9.6274    139.4872    216.0006   8.4313390208e+01   1.3442399530e+01     0.149381     0.116563 -52.45 0.0005417059    1.589    0.371
         8 -16.1837     16.6853    241.7253   1.0784424770e+02   2.4822117341e+01     6.428435     4.541188  48.36   0.05546761    1.285    0.222
         9 -10.3231    194.9628    198.2210   7.1774019800e+01   7.1700023197e+00    0.4394307    0.2309939 -57.30   0.00170954    5.272    0.810
        10  -8.1317     67.5797    204.7329   9.6772105601e+01   2.5429965385e+01    0.1003438   0.08688989   6.80 0.0004095153    1.786    0.440
        11  -8.8003    123.4334    201.2488   8.5504823498e+01   1.8176324492e+01    0.1478702    0.1125914 -82.10 0.0005432289    1.620    0.383
        12  -8.0420     64.2705    190.5988   9.6201707026e+01   2.8459517316e+01    0.1255056   0.07111416  69.63 0.0006979171    1.745    0.427
        13  -9.5551    116.1865    186.9150   8.5085988698e+01   2.1756501767e+01    0.1943155    0.1510024  65.71  0.001132395    1.281    0.219
        14 -14.9717      8.9739    207.4474   1.0792093309e+02   3.1276001065e+01     5.236599    0.9609643 -82.89   0.02037426    5.500    0.818
        15  -8.9391     99.6078    180.8823   8.7750478836e+01   2.5422397789e+01    0.2005117     0.157705  38.72  0.000570839    1.267    0.211
        16  -8.9862     87.4604    206.9216   9.3123583303e+01   2.2440533817e+01    0.1491499    0.1079445 -75.80  0.000464469    1.510    0.338
        17 -12.8376     61.5810    154.3495   9.3007760096e+01   3.6226385146e+01    0.4394412    0.3706124 -58.82  0.001190561    1.353    0.261
        18 -11.9508     82.2777    152.4327   8.7781865395e+01   3.3790242568e+01    0.7198533    0.4984111 -47.96   0.00167747    1.685    0.407
        19 -11.9624     74.7849    158.2934   9.0368501447e+01   3.3606197115e+01    0.6645852    0.4750778  56.84 0.0009534941    1.276    0.217
        20 -12.4006     30.2006    197.5573   1.0350174047e+02   3.1035249362e+01    0.3633224    0.3203642 -35.73  0.001389919    1.847    0.459
        21  -9.9321     37.1792    160.8038   9.9411318987e+01   3.7690331377e+01     0.340727    0.1526442  62.10  0.001353992    2.200    0.545
        22 -10.6117     33.2098    157.2361   1.0001955260e+02   3.8874828232e+01    0.2914218    0.1961939  70.89 0.0007658951    1.259    0.206
        23 -14.8558     40.4823    188.4281   1.0087879237e+02   3.1683563204e+01     4.565392     1.697582  72.51   0.01923957    3.606    0.723
        24  -9.6296    133.7949    144.4390   7.4274413588e+01   2.6756963899e+01    0.8345426    0.1759761 -53.38  0.001817787    8.504    0.882
        25 -11.2287     64.4582    167.5024   9.3854516286e+01   3.3048607684e+01    0.2763496    0.2536807 -32.08  0.001400809    1.524    0.344
        26  -9.0574     28.9107    142.5433   9.9741140315e+01   4.2551909639e+01      0.22912    0.1402817 -64.13 0.0008297465    1.570    0.363
        27 -10.1880     98.0826    138.6752   8.1677745331e+01   3.4309687329e+01     0.522678    0.3765628  -9.80  0.002419112    2.500    0.600
        28 -11.7495     84.7651    137.9386   8.4903681478e+01   3.6599541769e+01    0.2758448    0.2477518 -76.07 0.0004350106    1.086    0.079
        29 -10.7817    110.4852    215.2341   8.9594266672e+01   1.7837932572e+01    0.2297337    0.1348751  42.22  0.001126267    1.383    0.277
        30 -10.1644    107.1174    130.3016   7.7815299685e+01   3.4587898848e+01    0.4303523    0.3229841  25.48  0.001931583    1.631    0.387
        31 -10.3484    230.8687    170.9905   6.0873468769e+01   4.7315333081e+00    0.2835191     0.133973  21.99  0.001231643    2.788    0.641
        32  -8.7483     96.5396    124.8622   7.9438912780e+01   3.7629386586e+01    0.2049598    0.1329563 -55.73 0.0009955111    1.497    0.332
        33 -11.0510    239.9593    169.6051   5.9165393689e+01   3.4218709724e+00    0.2417748    0.1738569   1.45 0.0008280384    1.226    0.185
        34  -9.3337    135.8588    130.0197   7.0782049860e+01   2.9235431425e+01    0.3498911   0.09862845 -46.43  0.001085846    3.611    0.723
        35  -8.4601    162.4326    120.1774   6.2545845882e+01   2.5654792810e+01    0.2101248    0.1359109 -51.47 0.0009401852    1.725    0.420
        36  -9.2008    105.8676    118.3708   7.5609675395e+01   3.7437257143e+01    0.2188229    0.1853123 -69.51 0.0003569145    1.171    0.146
        37 -10.0016    231.2484    113.7450   4.8460034858e+01   1.2209874164e+01    0.3002866     0.247549  11.92 0.0008038054    1.181    0.153
        38  -8.8419    158.7803    114.7578   6.1987360705e+01   2.7452769169e+01    0.2668005    0.1827114 -63.35 0.0005673334    1.948    0.487
        39  -9.0936    205.5836    110.3452   5.1775118027e+01   1.8002237744e+01    0.2420641    0.2233678  35.80 0.0005930469    1.144    0.126
        40 -11.3764     59.1718    172.4434   9.5554700988e+01   3.2696237591e+01    0.3533937    0.2842985 -29.92   0.00197462    1.955    0.489
        41  -8.5749     74.5167    110.0874   8.2518626577e+01   4.4576491548e+01    0.2067181    0.1283768 -63.70 0.0005518093    1.504    0.335
        42  -9.6715    244.0000     94.0050   4.1842512272e+01   1.2341683354e+01    0.2360919   0.06838802 -28.35 0.0008086479    2.986    0.665
        43 -10.1905     53.1475     90.9022   8.5098402103e+01   5.2120085785e+01    0.2680771    0.2050052 -52.79 0.0009898974    1.228    0.186
        44  -8.3226    110.5306    167.5005   8.3518408911e+01   2.6287706726e+01     0.130322    0.1158068  62.02 6.415798e-05    1.013    0.013
        45  -8.8212    234.3076     86.6525   4.1300453620e+01   1.5314772128e+01     0.144399   0.09889019 -52.08 0.0007043533    1.703    0.413
        46  -8.8706    161.9970     84.2271   5.2903158730e+01   3.2360486778e+01    0.2008518    0.1290569  53.10 0.0004676871    1.613    0.380
        47  -9.0271     59.5146     78.5240   7.9941027433e+01   5.4232207613e+01    0.2349021    0.1222557  47.66   0.00103101    2.251    0.556
        48 -10.1309      9.1388     75.2902   9.7740318288e+01   6.0045894597e+01    0.1924665    0.1407141 -42.32  0.001209428    1.484    0.326
        49  -8.1352     45.2699     68.9634   8.2591955013e+01   5.8320647474e+01    0.1739352    0.1042105 -60.33 0.0004088338    1.434    0.302
        50 -10.4213      6.1235     65.7108   9.7363859891e+01   6.2516192128e+01    0.1851206    0.1412496  62.39   0.00119396    1.474    0.321
        51 -12.1836    201.8770     48.4184   3.5101590667e+01   2.8029437107e+01     1.011795    0.5056306  45.85  0.001999461    2.242    0.554
        52 -10.3886    119.8683    245.2718   9.0895926292e+01   1.2151940553e+01    0.2188975    0.1197574 -58.25  0.001450164    2.411    0.585
        53 -11.3259     94.6006    240.1708   9.4761574911e+01   1.6210467417e+01    0.4122568    0.2196697 -77.66  0.002587612    2.536    0.606
        54  -9.2805     33.6402     62.0360   8.5332690703e+01   6.1228610361e+01    0.2712503    0.1943089  75.46  0.001037166    1.779    0.438
        55  -9.0289     28.8378     59.5916   8.6675817990e+01   6.2269542154e+01    0.3034074    0.1496653  45.66  0.001424003    2.554    0.608
        56 -10.9625     13.0966     59.7690   9.3366077998e+01   6.3492942857e+01    0.3519175    0.2498431  66.80  0.001012379    1.661    0.398
        57  -9.2223     35.3204     55.9979   8.2934529400e+01   6.2459386184e+01    0.1908556    0.1869386 -45.72 0.0005976824    1.174    0.148
        58  -8.9429     20.9659     56.4602   8.9231336431e+01   6.3689829327e+01    0.2085522    0.1688139  56.67  0.001062138    1.483    0.326
        59  -9.6271     16.8695     54.8125   9.0616541335e+01   6.4393098423e+01    0.1840009     0.157886 -89.93 0.0004397636    1.241    0.194
        60  -8.6195    169.1389    235.8604   8.1547494623e+01   6.4344750924e+00    0.1397565    0.1068501  18.53 0.0004249556    1.289    0.224
        61  -8.0346    234.3030     45.3002   3.0362719835e+01   2.0664746549e+01    0.1359548    0.1030735  18.92 0.0007003362    1.587    0.370
        62 -11.6205    220.0999     34.7857   2.8926934872e+01   2.5243687758e+01     0.458553    0.3895262  27.10  0.001122269    1.346    0.257
        63  -9.4204    198.1598     23.3883   2.7885644124e+01   3.2017583700e+01    0.2449116       0.1909  -9.34 0.0004675394    1.365    0.267
        64  -8.7384    189.5249     15.0521   2.6183530513e+01   3.5143444475e+01    0.2184649     0.136922 -23.76 0.0005901438    1.546    0.353
        65 -10.0553    132.4896    224.5077   8.6581282664e+01   1.3251298978e+01    0.2114169   0.09204356  32.36  0.001041721    2.378    0.580
