#   1 NUMBER                 Running object number                                     
#   2 MAG_AUTO               Kron-like elliptical aperture magnitude                    [mag]
#   3 X_IMAGE                Object position along x                                    [pixel]
#   4 Y_IMAGE                Object position along y                                    [pixel]
#   5 X_WORLD                Barycenter position along world x axis                     [deg]
#   6 Y_WORLD                Barycenter position along world y axis                     [deg]
#   7 A_WORLD                Profile RMS along major axis (world units)                 [deg]
#   8 B_WORLD                Profile RMS along minor axis (world units)                 [deg]
#   9 THETA_WORLD            Position angle (CCW/world-x)                               [deg]
#  10 FWHM_WORLD             FWHM assuming a gaussian core                              [deg]
#  11 ELONGATION             A_IMAGE/B_IMAGE                                           
#  12 ELLIPTICITY            1 - B_IMAGE/A_IMAGE                                       
         1 -13.6935     44.0982     22.6315   4.1333740724e+01   6.8707715628e+01     1.272509    0.8137808 -39.04  0.006882076    1.590    0.371
         2 -11.8186     39.6344      7.9528   3.5524730091e+01   7.1597845476e+01    0.3844394    0.1980081 -21.12  0.001852672    2.207    0.547
         3 -12.5396    178.4000     23.2197   6.7853389482e+00   3.7226868385e+01    0.6634457    0.3844117 -47.42  0.003307115    1.632    0.387
         4 -12.7252    143.8772      3.8721   5.0267023181e+00   4.7880395363e+01    0.6908667    0.4393514  82.96   0.00358488    1.460    0.315
         5 -14.8566    170.0080      6.0308   2.7819994779e+00   4.1092301378e+01     2.435969    0.8890529  72.69   0.01003437    2.444    0.591
         6 -12.1420    226.6020     15.6373   5.5320120918e-01   2.7031597254e+01    0.4816261    0.3540689 -74.68  0.002637115    1.206    0.171
         7 -11.8363    221.5963     10.9020   3.5981820504e+02   2.8601355151e+01    0.4580957    0.1555048  76.06  0.001995331    2.923    0.658
         8 -11.6065     78.0580     13.7008   2.2586209413e+01   6.3240902286e+01    0.3193437    0.1852703  -0.30  0.001421783    2.402    0.584
         9 -12.8981    156.5477     11.5194   5.9111174651e+00   4.3938411404e+01    0.5132044     0.506955  60.79  0.002976971    1.171    0.146
        10 -12.8715    193.9659      6.1112   6.7921379484e-01   3.5300227053e+01    0.8482592    0.3391658 -65.46  0.003446989    2.875    0.652
        11 -13.3113    206.0180      4.3549   3.5934349481e+02   3.2699481074e+01    0.9280321    0.3473926  80.20  0.004091201    2.611    0.617
        12 -11.8969    231.6877      8.6233   3.5866166586e+02   2.6714305099e+01     0.477475    0.2542249 -58.48  0.002709328    1.592    0.372
        13 -11.6847    223.8521      5.1560   3.5836752418e+02   2.8710244123e+01    0.4586366     0.177238 -55.94  0.002164194    2.286    0.563
        14 -11.6978     10.8161      6.8091   5.3764360270e+01   7.5682532639e+01    0.1925045    0.1539896 -63.85  0.001228938    1.852    0.460
        15 -11.1318     70.7594      5.6281   2.0895421974e+01   6.5725412621e+01    0.3486657    0.1429474  54.87  0.001512631    2.117    0.528
        16 -11.5503    129.9663      4.0000   6.9616598978e+00   5.1428914150e+01    0.3388659    0.2061869  67.01  0.001657931    1.430    0.301
        17 -10.9093    133.6716      2.6774   5.9635690666e+00   5.0593490809e+01    0.2569266    0.1692484  58.70  0.001360707    1.376    0.273
        18 -11.6107      2.1259      3.0799   5.8707880940e+01   7.7086227584e+01      0.35675    0.2050335 -40.66  0.002169899    1.469    0.319
        19 -11.7522     84.4767      3.5957   1.5804089409e+01   6.2780918084e+01    0.6723558    0.2212428  62.05  0.002572694    2.681    0.627
        20 -11.0824     60.4514      2.5522   2.2863070196e+01   6.8250321725e+01    0.2344294    0.1539503  42.53  0.001306166    1.321    0.243
        21 -11.3847     17.8519      2.0729   4.5494129878e+01   7.5643595575e+01    0.2192506     0.145793 -27.36  0.001355323    1.370    0.270
        22 -11.3311    217.5361      1.9343   3.5801990042e+02   3.0386379559e+01    0.2436358    0.1622714  89.39   0.00148876    1.381    0.276
        23 -10.7075     37.3615    185.1169   8.0599482394e+01   3.1268250459e+01    0.2137225    0.1775291  22.32  0.001321252    1.380    0.275
        24 -13.7695    183.0922    217.2203   5.0940931259e+01   4.1027265209e+00     0.698727    0.4562681   3.50   0.00394706    1.656    0.396
        25 -10.6514     14.6314    160.1900   8.4651867719e+01   3.9345999913e+01    0.1875675    0.1005579 -68.37 0.0009540996    1.728    0.421
        26 -12.1591    218.5100    155.6943   3.3172536577e+01   8.2761395004e+00    0.5433537    0.3480122  38.79  0.002975073    1.659    0.397
        27 -10.8704    104.5918    155.5130   5.8549641851e+01   2.8883977556e+01    0.4134113    0.2599913  89.40   0.00161337    2.659    0.624
        28 -10.4560     20.8103    155.1886   8.2535727893e+01   4.0043003523e+01    0.1770289    0.1470706 -53.02   0.00107755    1.348    0.258
        29 -10.7899    162.2247    152.1342   4.3479432699e+01   1.8964680656e+01    0.2769071    0.2121272 -63.69  0.001369884    1.663    0.399
        30 -10.6878     53.7782    143.3734   7.1376528197e+01   3.9530197232e+01    0.2826751    0.2215497 -52.98  0.001184464    1.322    0.244
        31 -10.4274    108.3869    141.2144   5.4720093290e+01   3.1560055518e+01    0.2111952    0.1459788 -66.95 0.0009438519    1.658    0.397
        32 -12.6049     11.1233    139.5991   8.4077778760e+01   4.4694554781e+01    0.4897412    0.2569019  64.83  0.002379711    1.921    0.479
        33 -10.9480    220.2820    137.2834   2.9069615045e+01   1.0917567514e+01    0.2380868    0.1907987  -6.13  0.001117482    1.259    0.206
        34 -13.9430    239.9615    124.6073   2.3403471431e+01   9.5407119222e+00     1.208285    0.8566909  61.34  0.007015823    1.910    0.477
        35 -10.5812     18.4899    127.4848   8.0614921924e+01   4.7200541552e+01     0.133763    0.1169125 -89.78 0.0004181164    1.014    0.014
        36 -10.4219      4.4150    124.1999   8.4900435502e+01   4.9010012636e+01    0.1900275    0.1053095  85.51 0.0009467639    1.691    0.409
        37 -14.3544    240.3173    103.1585   1.8799194740e+01   1.2686984962e+01     1.681668     1.385668 -39.81   0.01034818    1.064    0.060
        38 -11.1973    188.9116    115.8952   2.9748674430e+01   2.0515380194e+01    0.3278043    0.2116599 -17.39  0.001454364    1.985    0.496
        39 -11.7613    212.6938    112.7036   2.4893389121e+01   1.6311898754e+01    0.5473931    0.3066402 -34.09  0.002616827    1.631    0.387
        40 -11.0098    108.4773    108.5069   4.7107901870e+01   3.9203420330e+01    0.3353622    0.1523968  41.69  0.001217641    2.189    0.543
        41 -11.3131    112.8190    100.1692   4.3591861892e+01   4.0193975724e+01    0.3891591    0.2714192 -52.77  0.001747636    1.481    0.325
        42 -10.7521    148.4381    110.7845   3.7021316989e+01   3.0181469388e+01    0.2991424    0.1461075 -47.13  0.001132068    2.089    0.521
        43 -10.9216     94.6911    111.5777   5.2121264455e+01   4.1159431842e+01    0.3560554    0.2335168  86.58  0.001341376    2.608    0.617
        44 -10.3203    178.8851     92.1465   2.5703909192e+01   2.6913209063e+01    0.2340727    0.1984985 -67.36 0.0009298658    1.271    0.213
        45 -11.1372      2.6178     88.2087   8.1863979475e+01   5.8177800411e+01    0.3236849    0.2271872  79.91  0.001849414    1.459    0.315
        46 -11.4454      3.0418     82.6857   8.0966109038e+01   5.9532955158e+01    0.3614381    0.1595006 -69.53  0.001692797    1.854    0.461
        47 -12.4364    222.7891    106.8660   2.2026979624e+01   1.5324078424e+01    0.5340735    0.3904266  30.72  0.002421561    1.651    0.394
        48 -10.8993    100.8933     83.8461   4.2489454962e+01   4.6287289936e+01    0.3317153    0.2054621 -41.94  0.001422331    1.637    0.389
        49 -11.3410    226.5107     82.5029   1.5973993217e+01   1.8344089910e+01    0.2533477     0.216956   2.71  0.001527559    1.422    0.297
        50 -12.1963     41.1516     82.7173   6.4599459759e+01   5.6477557976e+01    0.7936854    0.3184105  41.59   0.00304341    2.790    0.642
        51 -12.2318     46.0052     80.3553   6.1952479749e+01   5.6471994651e+01    0.9100635    0.2668287 -46.96  0.002986023    3.265    0.694
        52 -10.1246    144.8663     80.8430   2.9601992744e+01   3.6890914622e+01    0.2192405    0.1840328 -78.48  0.001081546    1.351    0.260
        53 -10.6810    215.6892     79.5933   1.6707778796e+01   2.0968603603e+01    0.4291143    0.2011359 -47.59  0.001877985    2.048    0.512
        54 -12.4041    214.7475     66.5296   1.3695054130e+01   2.3105329153e+01    0.4430352    0.2378123 -30.37  0.002092684    1.829    0.453
        55 -12.6309    220.2239     77.0694   1.5514083896e+01   2.0414315308e+01    0.5169778     0.341668 -76.44  0.001979659    1.987    0.497
        56 -11.3498    218.7011     71.1571   1.4309471812e+01   2.1600127481e+01    0.2979346    0.2399443  88.06  0.001009862    1.371    0.271
        57 -12.1825      4.7498     75.6064   7.9185313937e+01   6.1199741618e+01     0.473131    0.3082644  65.69  0.002356714    1.818    0.450
        58 -13.0385     15.2821     73.2915   7.3974637105e+01   6.1156082591e+01    0.7098666    0.4917377  34.29  0.003977789    1.618    0.382
        59  -9.8457    169.2263     75.5868   2.3041145592e+01   3.2013304458e+01    0.2126893    0.1342556  46.23 0.0009522692    1.689    0.408
        60 -12.3535    226.5758     71.9842   1.3543393759e+01   1.9869591322e+01     0.421894    0.3169602 -45.02  0.002324148    1.148    0.129
        61 -11.4760    248.3785     69.3055   1.0564758061e+01   1.6050326496e+01    0.3016775    0.2133991 -51.18  0.001421794    1.236    0.191
        62 -10.3598    237.8311     70.1648   1.1852779823e+01   1.7913370146e+01     0.189376     0.151914   2.67 0.0006497846    1.673    0.402
        63 -10.5722    240.7103     66.9740   1.0840191722e+01   1.7802466731e+01    0.1859339    0.1645171 -80.35  0.000877269    1.207    0.171
        64 -10.8726     74.6949     69.2100   4.6923519138e+01   5.4610626675e+01    0.3264303    0.2008045  37.96  0.001171158    1.639    0.390
        65 -12.1959    233.3811     63.6762   1.0875588430e+01   1.9679879377e+01    0.3435543    0.2943885  89.51  0.001629533    1.258    0.205
        66 -12.8955    227.9554     57.8580   1.0123514815e+01   2.1567479214e+01    0.4737316    0.3686883 -54.96  0.002910239    1.133    0.118
        67  -9.8136    132.5064     63.4982   2.7153093306e+01   4.3001878936e+01    0.1504744    0.1460289  77.21 0.0008106414    1.010    0.010
        68 -11.4488    218.8997     61.6551   1.2023680927e+01   2.2922144953e+01    0.2263372     0.176349 -26.62  0.001054753    1.336    0.252
        69 -11.3881    210.1146     60.3685   1.2767809714e+01   2.4989250649e+01    0.3348823    0.1602696 -34.99  0.001512265    1.894    0.472
        70 -12.2456    215.2070     56.2811   1.1161346537e+01   2.4458952976e+01    0.3938094    0.2678919  58.12  0.002167722    1.613    0.380
        71 -10.2151    195.5415     56.5076   1.3669165011e+01   2.8810513106e+01     0.138086    0.1252232 -60.25 0.0001856146    1.008    0.008
        72 -10.6169    164.2809     53.6647   1.7628424145e+01   3.6718119239e+01    0.2498798     0.212597 -36.62  0.001206956    1.198    0.165
        73 -10.6839    199.2870     51.5395   1.1893868367e+01   2.8652460671e+01    0.3023979    0.1317571 -44.46  0.001282696    2.079    0.519
        74  -9.9292     35.4842     52.4871   5.8538335076e+01   6.4179266928e+01    0.1364148    0.1199531 -27.65 0.0003286263    1.024    0.024
        75 -10.9519    215.2503     50.8462   9.8406275097e+00   2.5191439727e+01    0.3010696    0.1557686  54.21    0.0014422    2.162    0.537
        76 -11.7162     85.4862     47.5704   3.5013074232e+01   5.6704140305e+01    0.5480031    0.3607803  43.96  0.002561935    1.465    0.318
        77 -12.7340     81.5408     39.1375   3.2963376828e+01   5.8966004719e+01    0.7190921    0.3673619 -44.19  0.003056998    2.154    0.536
        78 -11.5783      2.7055     41.1678   7.3254590417e+01   6.9402969181e+01    0.2971474    0.2929797 -43.72  0.002144161    1.208    0.172
        79 -10.4214     97.1618     36.3251   2.6721709752e+01   5.5900681885e+01     0.203576     0.184359   1.16 0.0008736998    1.159    0.137
        80 -10.3951    223.7895     40.3740   6.4773857372e+00   2.4727047938e+01    0.1683573     0.111928  61.17 0.0009491781    1.663    0.399
        81 -12.5762    158.5956    225.1829   5.7051216177e+01   6.4099513874e+00    0.3241557    0.2501226  33.28  0.001343611    1.164    0.141
        82 -12.5493    162.8405    228.3258   5.6634644294e+01   5.3115623056e+00      0.42983    0.2735312 -23.52  0.002439755    1.862    0.463
        83 -10.7163    236.0410     29.6105   2.9879140823e+00   2.3500035955e+01    0.2761464    0.1380186  78.28  0.001241064    2.160    0.537
        84 -10.8118    229.4979     29.3870   3.4506187427e+00   2.4868562277e+01    0.2590887    0.1688348 -52.46  0.001339752    1.285    0.222
        85 -11.3194    145.3698     27.6015   1.2678079842e+01   4.5032107552e+01    0.5042755    0.2628388 -70.30  0.001905032    2.877    0.652
        86 -10.2749     90.1653     28.1357   2.5402048265e+01   5.8685610390e+01     0.229472    0.1841931  27.80   0.00117127    1.263    0.208
        87 -12.4960    241.2852    229.1168   4.2426054463e+01  -4.9989415813e+00    0.4236376    0.2454881  31.67  0.002786536    1.707    0.414
        88 -11.7879    172.9853     20.4884   6.6332604601e+00   3.8868717230e+01    0.3922812    0.1443728  67.00  0.001569599    2.453    0.592
        89 -10.9346    224.3392     21.9388   2.1545308096e+00   2.6813124455e+01    0.3215147    0.1845636 -70.68   0.00174425    1.715    0.417
        90 -11.4619    187.4485     19.1505   4.6950093650e+00   3.5488881132e+01    0.2690234    0.2174195  78.36  0.001614856    1.183    0.155
        91 -11.9596    248.7292    224.3419   4.0484368601e+01  -5.2882770535e+00    0.5020082    0.2598567 -23.87  0.003153784    1.692    0.409
        92 -11.4998      4.1244    229.9234   9.0558522798e+01   2.5018963220e+01    0.2351738    0.1458624  28.81  0.001550222    1.638    0.389
        93 -10.6107    128.5194     18.2076   1.2330091000e+01   5.0423650241e+01    0.2777714    0.1867676  67.90  0.001406781    1.358    0.264
        94 -10.0141    111.3269    228.6921   6.7543104118e+01   1.2630545469e+01    0.1294199   0.08376162  55.29  0.000703792    1.655    0.396
        95 -12.0191    214.7382    220.9253   4.5628842066e+01  -7.4972403475e-01    0.6697688    0.2814915 -33.08  0.003430024    2.380    0.580
        96 -10.3688    116.9466     17.4977   1.4274083411e+01   5.3446691142e+01    0.2215306    0.1276521  65.05 0.0008589869    1.583    0.368
        97 -13.3237    207.7917    216.7063   4.6197615874e+01   7.3705537660e-01     1.002178     0.514172   7.94   0.00463635    2.760    0.638
        98 -12.0553     74.9903    220.2940   7.4733462968e+01   1.9166512635e+01    0.2355373    0.1958961  20.79  0.001382151    1.329    0.248
        99 -12.0925     50.7283    218.0312   8.0012751277e+01   2.2619212361e+01    0.3375041    0.2524184  38.89  0.001838917    1.194    0.162
       100 -11.7822     67.1976    217.0103   7.6199159123e+01   2.0821915132e+01    0.2334879    0.1631432  39.21  0.001271655    1.216    0.178
       101 -14.1700    243.3992    198.7145   3.7086017510e+01  -1.5137893109e+00     1.875766    0.6003973 -32.23  0.008468381    2.869    0.651
       102 -12.6372    246.7971    192.0729   3.5392506715e+01  -1.0804831977e+00    0.5549134    0.3847536 -10.44   0.00283266    1.199    0.166
       103 -10.5399    141.4753    206.4975   5.7957409630e+01   1.2146268491e+01    0.1335878    0.1154193  25.20 0.0001198342    1.006    0.006
       104 -11.9695     80.7802    206.3201   7.1973732382e+01   2.1222875802e+01    0.2553016    0.1792445 -55.01  0.001440901    1.635    0.388
       105 -11.2099     93.6069    199.2093   6.8062724944e+01   2.0892341074e+01    0.1795929    0.1229109 -49.28 0.0009506225    1.682    0.405
       106 -12.2526     79.9636    198.7518   7.1323784984e+01   2.2931315069e+01    0.3763793    0.1895474  51.20  0.001732542    1.933    0.483
       107 -10.0309    202.5027    196.5174   4.3775828166e+01   4.4036411570e+00    0.1266148    0.1061995   3.49 0.0008102848    1.027    0.026
       108 -10.5196    205.6505    192.3096   4.2447160091e+01   4.5756159635e+00    0.1121927    0.1032141  69.85 0.0007044537    1.713    0.416
       109  -9.6960     78.6689    189.6787   7.0574635533e+01   2.5089284455e+01    0.1322438    0.1053501 -18.55 0.0004433084    1.696    0.410
       110 -11.2106    195.8004    184.6304   4.2914655450e+01   7.2868474221e+00    0.3003356    0.2479649 -53.63  0.001791917    1.624    0.384
