#   1 NUMBER                 Running object number                                     
#   2 MAG_AUTO               Kron-like elliptical aperture magnitude                    [mag]
#   3 X_IMAGE                Object position along x                                    [pixel]
#   4 Y_IMAGE                Object position along y                                    [pixel]
#   5 X_WORLD                Barycenter position along world x axis                     [deg]
#   6 Y_WORLD                Barycenter position along world y axis                     [deg]
#   7 A_WORLD                Profile RMS along major axis (world units)                 [deg]
#   8 B_WORLD                Profile RMS along minor axis (world units)                 [deg]
#   9 THETA_WORLD            Position angle (CCW/world-x)                               [deg]
#  10 FWHM_WORLD             FWHM assuming a gaussian core                              [deg]
#  11 ELONGATION             A_IMAGE/B_IMAGE                                           
#  12 ELLIPTICITY            1 - B_IMAGE/A_IMAGE                                       
         1 -17.8236    245.0965     81.6379   4.2457020659e+01   1.5399697210e+01     7.043476     6.330318  67.46   0.02416408    1.329    0.248
         2 -17.0310    247.5649     61.8072   3.8157442580e+01   1.7942821909e+01     5.713134     2.221929 -58.86   0.01588136    3.035    0.671
         3 -10.5877    142.0936     16.9053   4.0235052468e+01   4.7051289338e+01    0.5220827     0.363664 -34.04  0.003006408    1.591    0.372
         4  -9.5295    143.4874      8.5486   3.7564147858e+01   4.7512344325e+01    0.3512452    0.1592211 -17.50  0.001580155    3.015    0.668
         5 -11.0951    126.4316     12.5329   4.1460784287e+01   5.1152246177e+01    0.5216637     0.326685   0.31  0.002694719    2.259    0.557
         6 -12.1485    119.2251      9.7234   4.1824618419e+01   5.3076645779e+01    0.7164517    0.5678418  76.89  0.002673389    1.215    0.177
         7  -7.9999    164.3815      9.5144   3.5141424429e+01   4.2525302834e+01    0.1226327    0.1058628  87.01 0.0001022407    1.032    0.031
         8  -8.8121    108.9448    184.4940   9.2609574621e+01   2.0886069141e+01    0.2584918    0.2049677 -84.81 0.0006869687    1.450    0.310
         9  -7.7815    201.2923    222.3202   7.8321877361e+01  -2.0728068394e+00    0.1340538   0.08941109  -6.76  0.000246945    1.607    0.378
        10 -10.0160    145.4843    216.9401   8.9265006314e+01   7.5918337887e+00    0.2434521    0.2313103 -20.33 0.0004266257    1.099    0.090
        11  -9.5880    234.2045    211.9068   7.0271288710e+01  -4.9513723578e+00    0.2353756    0.2267211  21.68  0.001461753    1.487    0.327
        12  -7.9822     97.3989    211.7932   9.9693108370e+01   1.6360836310e+01    0.1715777     0.129272 -50.04  0.000163232    1.441    0.306
        13  -8.0920    226.4406    209.5084   7.1236249494e+01  -3.5174513365e+00    0.1285408    0.1054457 -12.78  7.50092e-05    1.023    0.022
        14 -10.0110    168.8398    202.3388   8.1521586833e+01   6.6594639072e+00    0.2698038    0.2559462  16.70 0.0007080677    1.098    0.089
        15  -9.5581    165.5114    199.0249   8.1648938878e+01   7.8857444214e+00    0.3581853    0.2575245  70.75  0.001044813    2.303    0.566
        16 -10.7785    192.8395    194.5691   7.4951342115e+01   4.1863303275e+00     1.010387    0.5186846 -62.81  0.003055542    5.433    0.816
        17 -10.2946    239.2136    198.2860   6.6891963658e+01  -3.4467602686e+00     0.453465    0.2325195  45.96  0.002130433    2.731    0.634
        18 -11.2190    231.2840    194.7882   6.7625686156e+01  -1.7645146199e+00    0.6147022    0.3442789 -19.63  0.002986552    1.994    0.499
        19  -9.9051    225.8223    192.6142   6.8193524220e+01  -6.0376018449e-01    0.2681154    0.2336593  37.34 0.0009047494    1.413    0.292
        20  -9.2906     29.6747    197.9135   1.1429944014e+02   2.8516160557e+01    0.2036696    0.1867696 -85.55 0.0003270331    1.162    0.139
        21  -7.7585    248.6402    195.6828   6.4811150620e+01  -4.2909884251e+00    0.1319039   0.08239821  -8.60 0.0007043337    1.759    0.432
        22  -8.6026    237.4778    249.4846   7.6120030432e+01  -1.0828600668e+01    0.1170805   0.08778564  -3.09 -5.676261e-05    1.009    0.009
        23 -11.2102    179.4692    175.1993   7.3920532693e+01   1.0323775135e+01    0.4430285    0.3661759 -53.27  0.002220318    1.313    0.239
        24  -8.5032    161.2684    175.8779   7.8121427742e+01   1.3506682671e+01    0.2484884    0.1711139  87.02 0.0009508535    2.874    0.652
        25  -8.7980    110.9624    167.9876   8.9072497773e+01   2.4561002291e+01    0.2517238     0.186395  76.22 0.0008463213    1.738    0.425
        26  -8.9485    189.8230    249.1382   8.5003510052e+01  -4.7742801678e+00    0.1781345    0.1560925  26.56  0.000638468    1.274    0.215
        27  -7.9294    189.3064    182.0065   7.3217075006e+01   7.2112472227e+00    0.2362117     0.101008 -27.50 0.0007024506    4.110    0.757
        28 -12.8139     11.8316    152.7650   1.1450717004e+02   4.1381017303e+01     3.949208      1.34907 -88.26   0.01278992    4.105    0.756
        29 -12.9891     23.7325    140.8916   1.0967613575e+02   4.3452196617e+01     1.033511    0.7034475 -64.73  0.003735083    1.247    0.198
        30 -12.9514     18.3955    140.6621   1.1124139093e+02   4.3956121833e+01     1.709595     0.901036  80.47  0.007519591    2.321    0.569
        31 -10.6892    205.0767    153.7384   6.4164919704e+01   9.9814063316e+00    0.5733854     0.368369 -65.45  0.002456977    2.400    0.583
        32  -8.7616    156.7569    154.8117   7.4697318271e+01   1.9029656317e+01    0.2241174    0.2034726 -19.66 0.0003774992    1.116    0.104
        33 -10.6703    133.7948    145.5517   7.8296347182e+01   2.5730071265e+01     1.463952    0.3789541 -54.97  0.003230264    6.039    0.834
        34  -8.7336     32.1706    182.2014   1.1218685693e+02   3.2098571806e+01    0.1868464    0.1625703 -65.31 0.0003371102    1.192    0.161
        35 -10.3168    211.0214    151.0545   6.2477542278e+01   9.4245120587e+00    0.4409772    0.3133323  74.12  0.001351826    2.327    0.570
        36 -10.5851    175.3932    149.9784   6.9382989947e+01   1.6401561278e+01    0.3406656    0.2839459  44.82 0.0004447171    1.278    0.218
        37 -10.0344    163.3860    147.8759   7.1593095348e+01   1.9251500567e+01    0.4852384    0.2666564 -66.72  0.001302737    3.427    0.708
        38  -9.3266    217.9456    148.1610   6.0612580655e+01   8.7370057948e+00    0.3533213    0.2016566  49.27  0.001532206    2.074    0.518
        39  -8.7561    174.0487    180.6677   7.6213939260e+01   1.0167311522e+01    0.2034723    0.1831839  24.81 0.0006640072    1.115    0.104
        40 -10.5640    143.7984    145.0522   7.5637154588e+01   2.3844439461e+01    0.5988058    0.3158286 -61.58   0.00210185    2.587    0.614
        41 -10.1968    146.7598    142.7202   7.4362591760e+01   2.3781499491e+01    0.3669843    0.3149853 -69.53  0.001597014    1.291    0.225
        42  -8.3872    119.2100    146.6913   8.2429459049e+01   2.8294829996e+01     0.203677    0.1776413 -16.24 0.0004086374    1.280    0.219
        43 -11.7193     67.6288    143.8420   9.6801837378e+01   3.7696412039e+01     1.048542    0.6956623  54.81  0.004062966    1.721    0.419
        44 -14.0782     59.8159    131.3007   9.6825691379e+01   4.2018249989e+01     2.734099     1.581149  21.05  0.006779063    2.076    0.518
        45 -10.2463    201.0912    140.6120   6.2046102923e+01   1.3305254261e+01    0.2400371    0.1887585 -48.39 0.0004798213    1.214    0.177
        46  -8.5313    115.5883    128.2547   7.9128818750e+01   3.3473722617e+01    0.3091793    0.1523602 -54.81  0.001011872    2.126    0.530
        47 -12.0135     47.5507    134.2256   1.0127684106e+02   4.2780879105e+01     0.578106    0.5245309  13.90 0.0008407758    1.251    0.200
        48 -10.8540    152.2596    125.9587   6.8991841093e+01   2.6410728704e+01    0.5610019    0.2421557  45.88  0.001989074    2.405    0.584
        49  -9.9384     95.7963    121.4374   8.3267835979e+01   3.8867013016e+01    0.3042111      0.24387 -34.69 0.0006908072    1.281    0.219
        50 -10.1090    155.7116    178.9730   8.0034706770e+01   1.3851748670e+01     0.455976    0.3302498  86.68   0.00179986    2.321    0.569
        51  -8.9950     87.9420    112.3459   8.3436811711e+01   4.2466545445e+01    0.5250515    0.2224793 -62.53   0.00159624    3.522    0.716
        52 -10.1791     86.8936     96.5417   7.9512243901e+01   4.6339930331e+01    0.2574304    0.2238268 -39.18 0.0001677075    1.103    0.093
        53 -10.8183    192.7168    164.6395   6.8930890343e+01   1.0071677547e+01    0.7970122    0.4503678 -63.66  0.002899775    3.207    0.688
        54  -8.7876    106.4728     93.2167   7.2398805797e+01   4.3315936047e+01    0.3633936    0.1485893 -47.27  0.001271351    2.464    0.594
        55  -9.7699    126.7522     90.9112   6.6019980587e+01   3.9480073771e+01    0.2873692    0.2140481 -58.88  0.000940307    1.505    0.335
        56  -9.0333    142.5273     89.5267   6.1669822746e+01   3.6206546978e+01    0.2954445    0.1484111 -41.32 0.0006101459    1.976    0.494
        57  -8.8087    153.9426     85.0224   5.7819646305e+01   3.4435739640e+01    0.2261351    0.2144058 -68.55  0.000385314    1.035    0.034
        58 -12.3609    185.7067    163.1949   7.0073351483e+01   1.1654151079e+01    0.9260797    0.7057751 -79.40  0.004336549    1.998    0.500
        59 -11.2554    150.7301     66.2584   5.3207014513e+01   3.8477786219e+01    0.6033294    0.4173206 -84.94   0.00274349    1.937    0.484
        60 -11.4132    137.0642     59.4214   5.4098634642e+01   4.2801906911e+01    0.5010497    0.3851644 -60.41   0.00257397    1.460    0.315
        61 -10.9676    140.4026     66.8065   5.5576179852e+01   4.0819006127e+01    0.5104308    0.3243924  27.80  0.002163067    2.221    0.550
        62  -9.6603    106.0462     65.0101   6.3749630493e+01   4.8894205737e+01     0.524399    0.1985882 -36.91  0.001628008    2.775    0.640
        63  -8.7839    124.0951     61.1948   5.7684671835e+01   4.5528849776e+01    0.2885108    0.1874394 -31.61 0.0009574635    1.653    0.395
        64  -8.5021    110.7346     48.8042   5.7026108767e+01   5.0473371679e+01    0.2719646    0.1263636 -26.31   0.00106408    2.664    0.625
        65 -11.0502    196.1117    175.2957   7.0460087319e+01   7.3523181428e+00    0.6823516    0.4753336 -73.73  0.002955701    2.617    0.618
        66  -8.6868    122.0305     48.0339   5.3953960372e+01   4.8021687885e+01    0.2309759    0.1625484  25.38  0.001127102    1.725    0.420
        67 -10.2488    171.0640     42.4741   4.2993617489e+01   3.7183873674e+01    0.3152997    0.2112001  59.34   0.00139708    1.431    0.301
        68 -10.1779    120.7363     39.9586   5.1601010562e+01   4.9431356745e+01    0.3661921     0.227569  33.30   0.00173683    1.861    0.463
        69 -10.0568    170.1236     33.3780   4.0713153149e+01   3.8572730117e+01    0.4738124    0.3022295 -46.37  0.002527054    1.566    0.362
        70  -9.7443    149.4134     31.2438   4.3280116478e+01   4.3747691622e+01    0.4442443    0.2702013   1.33  0.001927185    2.964    0.663
        71  -8.4385    144.3034     32.3199   4.4466067183e+01   4.4836798567e+01    0.1353493   0.09759457  34.61 0.0003148366    1.629    0.386
        72  -9.4556    132.9362     26.6326   4.4771398134e+01   4.8191710268e+01    0.2139928    0.1840225  -0.22 0.0006867289    1.385    0.278
        73 -10.9894    125.7234     23.0078   4.4977213316e+01   5.0281669575e+01    0.6625571    0.1310003  52.35  0.002139082    3.802    0.737
        74 -10.6551    134.8877     19.8759   4.2315507501e+01   4.8453971811e+01    0.4798035    0.1609547  53.93  0.001936451    2.497    0.600
        75 -10.0205    187.9781    238.1037   8.3631592688e+01  -2.7712899747e+00    0.4277039    0.2846597  61.89  0.001948019    3.188    0.686
        76 -10.3221    208.8044    232.7692   7.8646076416e+01  -4.8194249065e+00    0.2225905    0.1795148 -11.06 0.0003773614    1.081    0.075
        77  -9.3033    176.1250    232.5376   8.5157921843e+01  -1.1064740088e-01    0.2212027     0.199659 -14.47 0.0003041121    1.141    0.124
        78  -9.0483    177.9319    228.0451   8.4046689844e+01   4.0108755658e-01    0.1984741    0.1709881   6.70 0.0003583065    1.011    0.011
        79 -11.7427    189.9345    172.0897   7.1064217303e+01   9.0762600342e+00    0.8712336     0.400468  53.63  0.002255413    3.451    0.710
        80  -8.8038    178.8249    223.1984   8.3048867101e+01   1.1234116196e+00    0.1849256    0.1701374  20.03 0.0004021515    1.157    0.135
        81  -8.3236    202.7464    186.6831   7.1418020870e+01   4.0500178456e+00    0.2125868    0.1096767 -51.56 0.0008898232    2.309    0.567
