#   1 NUMBER                 Running object number                                     
#   2 MAG_AUTO               Kron-like elliptical aperture magnitude                    [mag]
#   3 X_IMAGE                Object position along x                                    [pixel]
#   4 Y_IMAGE                Object position along y                                    [pixel]
#   5 X_WORLD                Barycenter position along world x axis                     [deg]
#   6 Y_WORLD                Barycenter position along world y axis                     [deg]
#   7 A_WORLD                Profile RMS along major axis (world units)                 [deg]
#   8 B_WORLD                Profile RMS along minor axis (world units)                 [deg]
#   9 THETA_WORLD            Position angle (CCW/world-x)                               [deg]
#  10 FWHM_WORLD             FWHM assuming a gaussian core                              [deg]
#  11 ELONGATION             A_IMAGE/B_IMAGE                                           
#  12 ELLIPTICITY            1 - B_IMAGE/A_IMAGE                                       
         1  -9.8182     18.4843     21.4476   5.3102657123e+01   7.3263296831e+01    0.2153246     0.103514  36.62 0.0005556014    2.348    0.574
         2 -12.8530    244.4761      7.8772   3.5549378241e+02   2.4252415636e+01     1.231975    0.7012944 -57.92  0.007699233    1.363    0.266
         3 -10.9564      7.1940      8.4552   5.4574842723e+01   7.6719135881e+01    0.3534873    0.1766818  13.34   0.00184978    2.082    0.520
         4  -8.8129     55.9532     10.0026   2.4887457375e+01   6.8906833430e+01     0.190592    0.1617523 -74.98 0.0005447633    1.705    0.414
         5  -9.2800     29.8002      9.8113   3.8496234371e+01   7.3693230233e+01     0.281313   0.08293995  35.07  0.001028904    3.530    0.717
         6  -8.4258     70.5133      6.0144   1.7247013825e+01   6.6142544576e+01    0.1774856    0.1003541 -48.56 0.0008087559    2.415    0.586
         7  -9.4605     33.6396      5.3556   3.3153289627e+01   7.3670716485e+01    0.2377785     0.186622 -78.37  0.001256992    2.731    0.634
         8  -9.6028      1.7377      4.6855   5.7126916633e+01   7.7843310019e+01    0.2285805    0.1114075 -39.74  0.001120591    1.721    0.419
         9  -8.6198     79.4915      4.0526   1.3563097043e+01   6.4219996105e+01    0.1863542    0.1302245 -22.79  0.001019032    1.578    0.366
        10  -9.4234     16.4023      3.2026   4.3467007401e+01   7.6547606708e+01    0.1571539    0.1081861 -43.00 0.0007452262    1.685    0.407
        11  -9.1563     19.6700      2.6627   4.0577007198e+01   7.6187675487e+01    0.2523321    0.1244464   6.90 0.0009554111    3.971    0.748
        12 -10.0139      9.0865      2.4800   4.9012863692e+01   7.7522954526e+01    0.2947059     0.107837  24.55  0.001325603    2.821    0.645
        13  -8.4872     62.7426      1.5276   1.7317936102e+01   6.8299053858e+01    0.1715459    0.1203384  70.73  0.000932735    1.600    0.375
        14 -10.5746    147.1209    244.3836   6.0109497805e+01   4.1218319644e+00    0.3052467     0.180759 -25.87  0.001664258    2.208    0.547
        15 -10.3137    242.1245    237.2846   4.1494371118e+01  -6.7436808754e+00    0.4857676    0.2159395 -12.35  0.002436149    2.845    0.649
        16 -10.4864    243.2539    245.5650   4.2570122293e+01  -7.7945725073e+00    0.5042871    0.1955879 -22.85  0.002671615    2.656    0.624
        17 -10.4012    247.0874    227.0441   3.9092319927e+01  -6.0866696697e+00    0.4949076    0.2000309 -24.91  0.002298276    2.327    0.570
        18  -9.3336    248.2561    233.9908   4.0002683850e+01  -7.0182546027e+00    0.2277887    0.1266246 -23.30  0.000994164    1.514    0.339
        19  -9.7289    248.5487    249.7113   4.2343224169e+01  -8.7816967434e+00    0.2754808    0.1495211  12.79  0.001878035    1.515    0.340
        20 -10.7572    249.0516    241.3275   4.1006776168e+01  -7.9243094875e+00    0.5280577    0.1976017 -33.70  0.002927049    2.499    0.600
        21  -9.1866    233.5083    250.4966   4.4890014916e+01  -7.3197955765e+00    0.2064873    0.1088576  21.64  0.001347264    1.554    0.357
        22 -10.5759    233.6169    244.9801   4.4056091396e+01  -6.7097525294e+00    0.5088667    0.2377918 -10.74  0.002690959    2.586    0.613
        23  -9.4861    214.1714    240.6065   4.6726916196e+01  -3.9893292571e+00    0.3604057    0.1690359   2.29  0.001573401    3.488    0.713
        24  -9.2566    212.3471    250.3007   4.8470989340e+01  -4.9594884094e+00    0.2820683     0.126146  29.67  0.001619685    1.873    0.466
        25  -9.8611    210.8303    245.8535   4.8094272584e+01  -4.2445318564e+00    0.2290414     0.156975 -37.72  0.001083108    1.815    0.449
        26  -9.7732    201.7076    248.9967   5.0181947695e+01  -3.5532714278e+00    0.4429801    0.2000415  12.44  0.002073101    2.886    0.654
        27  -8.8757    184.8008    250.2996   5.3485803766e+01  -1.6537691969e+00    0.2347874   0.07917123  37.07  0.001080365    2.638    0.621
        28  -8.8422    134.6336    250.2862   6.3385772692e+01   4.8989248214e+00    0.1224304   0.07829518  49.09 0.0006567687    1.698    0.411
        29  -9.9793    126.5574    249.3323   6.4941295741e+01   6.1332649218e+00    0.3903373     0.195142  13.43  0.001666727    3.164    0.684
        30  -8.1458      1.5650    250.4750   9.0621750407e+01   2.0653707282e+01    0.1083086   0.07942922  56.89 0.0001545571    1.050    0.047
        31  -9.4186    194.2056    243.2648   5.0735861183e+01  -1.9019069939e+00    0.3189912    0.1536899  13.02  0.001554327    2.485    0.598
        32 -10.4159      3.6172    241.4581   8.9973771656e+01   2.2147224128e+01    0.4521903    0.1346343  57.27  0.002218082    2.479    0.597
        33  -9.1924    202.0585    242.0314   4.9110753954e+01  -2.7121207242e+00      0.28578    0.1494852 -32.15  0.001598291    1.963    0.491
        34  -9.3766    178.4056    242.0416   5.3558184718e+01   2.8283917807e-01    0.3021845    0.1568784   9.46  0.001460448    2.478    0.597
        35  -9.0905    168.8404    243.0525   5.5567171918e+01   1.3984951180e+00    0.1708006    0.1472678  29.12 0.0007517757    1.275    0.216
        36  -9.1510    182.9945    239.8232   5.2358002269e+01  -5.8372071507e-03    0.2674511    0.2169141  68.75  0.001219272    2.448    0.591
        37  -9.4539    159.9442    239.7528   5.6893147190e+01   3.0805384979e+00    0.2243676    0.1746773 -75.19  0.001020511    2.288    0.563
        38  -8.8423     61.9790    240.8200   7.7871654215e+01   1.6048033685e+01    0.2174589   0.09401059  50.20  0.001043139    1.958    0.489
        39  -9.5693     28.9043    241.3889   8.4878814988e+01   1.9687286125e+01    0.2997341    0.1052345  34.25  0.001483761    2.172    0.540
        40  -9.2612     52.9144    239.1154   7.9695166455e+01   1.7454215393e+01    0.2875859    0.1185788  56.51  0.001366377    2.321    0.569
        41  -8.9994    195.0849    238.0085   4.9803499932e+01  -1.3125687515e+00    0.3882951    0.2004775  -4.71  0.001824795    2.871    0.652
        42  -9.7799    119.7770    244.9382   6.5866410972e+01   7.7637127624e+00    0.2476808     0.157635  81.94   0.00123247    3.004    0.667
        43  -9.4964     71.1611    238.6903   7.5721427571e+01   1.5313375347e+01    0.2116208    0.1181902  46.52  0.001180202    1.447    0.309
        44 -10.3407     16.2756    238.2837   8.7330970273e+01   2.1563339850e+01    0.5243447   0.08474618  35.77  0.002171341    3.217    0.689
        45 -10.3383    247.3655    214.4539   3.6997552372e+01  -4.5940826952e+00    0.5204758    0.3184501 -14.98  0.003431827    1.346    0.257
        46 -10.5244    231.4790    235.6816   4.2999072035e+01  -5.3861276929e+00    0.3855672    0.2304717 -21.36  0.001943708    1.468    0.319
        47 -10.4851    236.4730    228.7037   4.1075267244e+01  -5.1077298611e+00    0.5330167    0.1872725 -25.63  0.002282568    3.159    0.683
        48 -10.0831    239.3460    220.1260   3.9221434441e+01  -4.3803323611e+00    0.4273862    0.1956095 -21.85  0.002085289    2.140    0.533
        49  -8.9509    209.5408    236.6230   4.6949710389e+01  -2.9292874070e+00     0.305248    0.1207915 -23.86  0.001338392    3.387    0.705
        50  -9.1772    123.9244    239.0000   6.4302844864e+01   8.1856965351e+00    0.2155092   0.05910895  33.22 0.0008035052    2.950    0.661
        51  -9.8134     81.9882    238.5845   7.3353321129e+01   1.3946825217e+01    0.4346123    0.1011608  31.79  0.001535513    3.549    0.718
        52  -8.5881     45.0028    236.5131   8.1221831238e+01   1.8870595119e+01    0.1923545   0.05491703  47.46 0.0008104602    2.626    0.619
        53  -9.2449    202.9830    234.2785   4.7782441509e+01  -1.8105456798e+00    0.2160352    0.1545188 -39.94 0.0008522629    1.746    0.427
        54  -8.3995    170.0000    235.0021   5.4210673338e+01   2.4217686044e+00    0.1715759   0.06853768 -44.40 0.0007930271    2.878    0.652
        55  -9.3964      6.9945    234.9904   8.9096456151e+01   2.3085034385e+01    0.2000195   0.08870056  55.44  0.001133878    1.684    0.406
        56  -8.5881    108.1932    233.4700   6.7078506933e+01   1.1344623551e+01    0.2163908    0.1023283 -75.05 0.0008531989    4.126    0.758
        57  -8.9062    194.4597    232.0525   4.9027030362e+01  -4.1809707039e-01    0.1657448    0.1086113 -31.90 0.0005055439    1.585    0.369
        58  -8.7568    132.3972    232.1975   6.1645956886e+01   8.1463535851e+00    0.1523561    0.1250726 -75.23 0.0006019663    1.681    0.405
        59  -8.9553     11.3591    231.7188   8.8086518278e+01   2.3323179480e+01    0.2185175    0.1006049  43.31  0.001205678    1.608    0.378
        60  -9.1654    186.1658    230.0575   5.0305658048e+01   9.5941165754e-01    0.2483044    0.1957689 -71.21  0.001442452    2.584    0.613
        61  -8.9904    230.0521    228.0368   4.2040680023e+01  -4.2884010300e+00    0.2315122    0.1345462 -20.95  0.001185401    1.523    0.343
        62  -9.9731    149.3896    225.7320   5.7133579667e+01   6.7904999446e+00    0.4901772    0.3247056 -89.03  0.002064119    4.149    0.759
        63  -8.4253    102.9914    229.4881   6.7786836970e+01   1.2801175092e+01    0.1948541   0.07974706  48.79 0.0008102151    2.525    0.604
        64  -9.4266     20.5278    228.3324   8.6018022712e+01   2.3113169524e+01     0.228567    0.1280364  30.90   0.00133299    1.660    0.398
        65 -10.1121      5.7597    226.6151   8.9064959580e+01   2.4863526512e+01    0.2823266    0.1441376  59.50  0.001673107    1.519    0.342
        66  -8.4096    161.6944    227.3478   5.4790161802e+01   4.7579077223e+00    0.1179113   0.09505764  56.20 0.0007042084    1.699    0.411
        67  -8.4648    127.5445    226.7554   6.2000443223e+01   9.7910778362e+00    0.1524051      0.12751 -83.19 0.0009328215    1.607    0.378
        68  -9.5852    226.2709    219.7411   4.1344966702e+01  -2.7789621181e+00    0.4447239    0.1874425 -20.94  0.002026022    2.949    0.661
        69  -9.4062     11.5574    225.8299   8.7817662530e+01   2.4489034148e+01    0.2572155    0.0955371  45.51  0.001323986    1.928    0.481
        70  -8.4461     72.3448    225.3197   7.4300653240e+01   1.7758069243e+01    0.1205858   0.09724125 -10.70 0.0007049487    1.727    0.421
        71  -9.0976    216.4181    222.8227   4.3562222203e+01  -1.9676865898e+00     0.236596    0.1274477 -35.86 0.0009180825    1.874    0.466
        72  -8.8445    180.4501    223.9375   5.0486218748e+01   2.6443941631e+00    0.1646286    0.1174994 -36.44 0.0004298802    1.536    0.349
        73  -8.4449    233.4885    222.9940   4.0654937297e+01  -4.0585935104e+00    0.1628363   0.07748446 -14.65  0.000809279    2.462    0.594
        74  -8.5002    172.9709    222.9344   5.1827190828e+01   3.8500189695e+00    0.1753075    0.1500985  55.56 0.0007136745    1.652    0.395
        75 -10.6892    214.6967    232.8880   4.5458203078e+01  -3.0755339255e+00    0.4019828    0.3310187 -79.66  0.002275796    3.554    0.719
        76  -8.0150     93.4983    223.5086   6.9275774842e+01   1.5267801911e+01    0.1349304    0.1060202  48.74 -6.432497e-05    1.130    0.115
        77  -9.2425    192.0964    220.9813   4.7752775767e+01   1.4788108432e+00    0.2113659    0.1672433 -36.98 0.0005575428    1.486    0.327
        78  -8.9113     19.9514    221.4757   8.5819998122e+01   2.4577087638e+01    0.1889186   0.05151029  47.46 0.0008096002    2.571    0.611
        79  -9.2112      2.1653    219.8472   8.9591090405e+01   2.6567566990e+01    0.2496684    0.1229948  73.31  0.001412184    1.735    0.424
        80  -8.3302    202.7505    219.9937   4.5583247203e+01   1.8599446813e-01    0.1454611   0.09389005 -30.89 0.0004940956    1.530    0.346
        81  -8.4057    158.7879    220.5674   5.4392528086e+01   6.2784769528e+00    0.1820695     0.105154  40.56 0.0009409515    1.658    0.397
        82  -8.5378     44.0139    220.5111   8.0382838462e+01   2.2213214246e+01    0.1961954   0.06191126  48.10 0.0008103697    2.545    0.607
        83  -8.7339    210.1307    218.6927   4.4017693595e+01  -6.0162965774e-01    0.1894628    0.1454494 -30.09 0.0005754274    1.398    0.285
        84  -8.2912    119.4223    218.2295   6.2703601858e+01   1.2544831622e+01    0.1630647    0.1285272 -83.71 0.0006859104    1.685    0.406
        85  -9.8147     56.0162    216.8135   7.7332277910e+01   2.1570825090e+01    0.2084149    0.1631529 -86.14 0.0006392145    1.335    0.251
        86  -8.4325    169.4343    215.9370   5.1462236579e+01   5.4770681446e+00    0.1570354    0.1178295 -75.92 0.0008069348    2.578    0.612
        87  -8.2250    139.6937    229.7273   5.9754250475e+01   7.5205727967e+00    0.1243434   0.08906742   5.07 0.0002289206    1.542    0.352
        88  -9.4983    232.1118    213.9733   3.9400570200e+01  -2.7363954957e+00    0.3015116    0.1459027 -29.14  0.001455956    1.858    0.462
        89  -8.6038    132.1630    214.9920   5.9374438938e+01   1.1238047068e+01    0.1977035    0.1491439  81.71 0.0007024609    2.020    0.505
        90  -8.9358     11.5062    215.7085   8.7413402615e+01   2.6596858109e+01    0.2071628   0.09305954  29.43  0.001072363    2.069    0.517
        91  -8.4174    185.4768    213.9753   4.7910015787e+01   3.4625636601e+00    0.1479855    0.1156266 -69.98 0.0008082631    2.404    0.584
        92  -9.2279     32.5483    214.3710   8.2601951714e+01   2.4785181704e+01    0.2665688   0.04157967  40.39 0.0009554609    3.431    0.709
        93  -9.4479    213.7006    211.6777   4.2209158212e+01  -8.6417236434e-02    0.2507583     0.225551 -31.81 0.0008949144    1.505    0.335
        94  -8.1379     92.5115    213.5135   6.8379490047e+01   1.7406996766e+01    0.1379895    0.1115432  50.07 0.0001343109    1.115    0.103
        95  -9.7391    175.5612    233.0479   5.2823399740e+01   1.9546754579e+00    0.3835226     0.239019 -57.72  0.002037568    2.726    0.633
        96  -8.2832    161.4867    212.0299   5.2507184737e+01   7.3121105759e+00    0.1587902    0.1202995 -81.55 0.0006680522    2.458    0.593
        97  -9.0198      3.3072    211.7278   8.9060828572e+01   2.8177191138e+01    0.2326355    0.1031357  41.74  0.001261524    1.754    0.430
        98  -8.8834    204.1781    210.6407   4.3773332063e+01   1.3448168042e+00     0.197771    0.1502247 -35.17 0.0007122352    1.449    0.310
        99  -9.1101    174.9158    209.4034   4.9283347409e+01   5.7354402221e+00    0.2084261    0.1854199 -60.63 0.0007597126    1.587    0.370
       100  -8.2577    147.5040    210.0043   5.5214421332e+01   9.8022606662e+00     0.162608    0.1210851 -88.71 0.0006525838    2.371    0.578
       101  -8.3717    115.8157    209.9318   6.2423720419e+01   1.4690125779e+01    0.2066746    0.1474847  73.62 0.0006848608    1.922    0.480
       102  -8.2260     71.3576    210.6426   7.3127160780e+01   2.0928233986e+01    0.1492853   0.08261254  58.97  0.000702079    1.873    0.466
       103  -9.8065    236.5051    207.3450   3.7550540869e+01  -2.4008123666e+00     0.356888    0.1704933 -38.72  0.001762211    2.120    0.528
       104  -9.7411    246.6877    206.6143   3.5785453041e+01  -3.5283351934e+00    0.2984961    0.1654942 -26.08  0.001075419    1.506    0.336
       105  -9.6903    250.3080    201.2882   3.4306101722e+01  -3.2710554776e+00    0.3688897    0.1280199 -33.86  0.001798766    2.464    0.594
       106  -9.5685    124.0055    205.9989   5.9952257331e+01   1.4207220243e+01    0.1943951    0.1699016  31.81   0.00116059    1.008    0.008
       107  -8.9475     98.8635    205.7068   6.5904009563e+01   1.8100137649e+01    0.2534114    0.1634205  74.28 0.0008920666    2.129    0.530
       108  -9.9599     12.5637    204.0599   8.6649454919e+01   2.9024789002e+01    0.4379038      0.16032  55.54  0.002021116    2.273    0.560
       109  -8.5518    228.0000    202.4572   3.8128647959e+01  -6.6655681752e-01    0.2483944   0.05955363 -37.66 0.0009257319    3.862    0.741
       110  -8.5924    183.2352    203.2151   4.6556415147e+01   5.5049740218e+00    0.1563546    0.1536667  19.28 0.0004811688    1.364    0.267
       111  -9.0660    162.9595    202.4654   5.0638990252e+01   8.7445006351e+00    0.2067138    0.1907816 -67.51 0.0004496947    1.448    0.309
       112  -9.4894    243.3180    200.2703   3.5227071954e+01  -2.2988634202e+00    0.2741565    0.1261483 -31.91  0.001181257    1.871    0.466
       113  -8.8166    139.4589    199.5854   5.5387317943e+01   1.3012736339e+01    0.2459635    0.1836156  79.83 0.0006948251    2.128    0.530
       114  -9.5334    237.2579    197.6248   3.5740246197e+01  -1.1885327327e+00     0.378162    0.1376114 -33.64   0.00178621    2.431    0.589
       115  -9.0677    149.1181    198.1079   5.2951637312e+01   1.1739057060e+01    0.2966669    0.2113854  89.27    0.0010306    2.741    0.635
       116  -8.8669    133.0378    199.0236   5.6785252759e+01   1.4154003925e+01    0.1993301    0.1760714  24.16  0.001173327    1.023    0.023
       117  -8.3340    123.6215    198.7650   5.8967065148e+01   1.5713436993e+01    0.1781271    0.1351768 -72.18 0.0005091788    1.672    0.402
       118  -8.6735     88.6623    198.5631   6.7507400452e+01   2.1137447402e+01    0.2311979    0.1593139  78.95  0.001156878    1.771    0.435
       119  -8.6269    112.1887    197.5511   6.1544806594e+01   1.7775336547e+01    0.2385924    0.1604717  85.56 0.0009102215    2.271    0.560
       120  -8.2980    202.2945    197.6333   4.1874229371e+01   3.5765006377e+00    0.1116904    0.1043425 -76.18 0.0006348963    1.718    0.418
       121  -8.9276    192.3257    196.7673   4.3630216590e+01   5.1877137405e+00    0.2364012    0.1481437 -34.97 0.0007673242    1.571    0.363
       122  -8.2793     60.3191    195.9893   7.4378468169e+01   2.5622871653e+01    0.2192338    0.0953638  80.96 0.0007047725    4.271    0.766
       123  -8.8414    215.4731    194.8244   3.8958218375e+01   2.1217284697e+00    0.2238585    0.1108576 -40.95  0.001121139    2.072    0.517
       124  -8.5237    185.1361    194.6550   4.4677440659e+01   6.6316427080e+00    0.2104197    0.1672315 -42.33 0.0007827862    1.429    0.300
       125  -9.8329    245.7812    192.8992   3.3541667112e+01  -1.6192183991e+00    0.2319337    0.1654437 -32.32  0.000911381    1.383    0.277
       126  -8.7525    231.0000    193.9173   3.6114397435e+01   1.3713218670e-01    0.1878514   0.05952621 -36.76 0.0005070327    2.848    0.649
       127  -8.9734    224.3767    193.4202   3.7147068700e+01   1.0974010550e+00    0.2828384    0.1028807 -41.53  0.001227424    2.838    0.648
       128  -9.3344    195.0123    202.6751   4.4145976996e+01   3.8493809426e+00    0.3338358     0.174488 -36.16   0.00108283    1.894    0.472
       129  -9.0222     17.2854    191.2847   8.4846511498e+01   3.1490571319e+01    0.2761077    0.0864884  46.03  0.001163929    2.499    0.600
       130  -8.6462    139.0608    190.0280   5.3906044794e+01   1.4957073261e+01    0.2133503    0.1694117  71.82 0.0006544435    1.705    0.413
       131  -9.9204     91.7854    188.9875   6.5450008289e+01   2.2808692275e+01    0.7247438    0.1809897  42.95  0.002248843    3.592    0.722
       132  -8.5977    237.5171    187.8148   3.3942496442e+01   1.3763240115e-01    0.2291109   0.09883275 -31.33  0.001102278    2.031    0.508
       133  -8.0614     76.5237    193.5826   6.9971284239e+01   2.3995209104e+01    0.1402082    0.1203597  52.79  0.000126641    1.033    0.032
       134  -8.8680    216.4479    187.6835   3.7485245182e+01   3.0597567539e+00    0.2182729    0.1109985 -40.78 0.0007186828    1.975    0.494
       135  -8.7428    155.7531    187.3033   4.9600510013e+01   1.2698037167e+01    0.2359129     0.170158 -57.36 0.0007329007    1.717    0.418
       136  -8.9864      3.9816    187.7358   8.7930880472e+01   3.3471674984e+01    0.2465932   0.06772959  61.41 0.0008930479    3.547    0.718
       137  -8.5727    230.4834    187.0306   3.4953242854e+01   1.1914521580e+00    0.1864511    0.1041418 -34.32 0.0009830694    1.604    0.377
       138  -8.9379    120.5388    185.7289   5.7660465790e+01   1.8937776823e+01    0.3152223     0.147114 -66.09  0.001121767    3.331    0.700
       139  -9.5215    249.5097    185.1531   3.1576875975e+01  -1.0390798139e+00    0.2573432    0.1540761 -30.09 0.0008624552    1.387    0.279
       140  -8.2621    129.1540    188.1601   5.5951603121e+01   1.6989748284e+01    0.1890194    0.1638764  72.05 0.0005457486    1.371    0.271
       141  -8.7687    108.9992    185.3140   6.0494365264e+01   2.0925187829e+01    0.2692651    0.1726048  85.19 0.0006764582    2.533    0.605
       142  -8.2846    210.3310    184.1815   3.7932192475e+01   4.4978308928e+00    0.1717752    0.1085089 -41.07 0.0004223578    1.640    0.390
       143  -8.4054    202.5328    184.0475   3.9347797208e+01   5.6990665852e+00    0.1899964    0.1183329 -36.92 0.0006655809    1.548    0.354
       144  -8.3798     66.3205    184.6510   7.1578771170e+01   2.7483195513e+01    0.1534302   0.09330116  62.58 0.0007048697    1.740    0.425
       145  -8.6644    224.1737    183.2104   3.5311606974e+01   2.6312939461e+00    0.1636099    0.1303059 -35.60 0.0006078966    1.360    0.265
       146  -8.4241    174.2224    183.2995   4.4848980601e+01   1.0359108152e+01    0.1941302    0.1092886 -53.35 0.0005085985    2.298    0.565
       147  -8.7470    147.0667    180.0326   5.0271094451e+01   1.5605747672e+01     0.214295     0.175442  75.82 0.0006792009    1.679    0.404
       148  -9.5168    249.1093    177.1003   3.0165521958e+01   1.1854263020e-01    0.2638776    0.1443797 -38.12  0.000718408    1.689    0.408
       149  -8.7117    250.5346    172.8410   2.9161282666e+01   5.2576739653e-01    0.2709085   0.09682659 -33.38 0.0008016874    2.335    0.572
       150  -9.0083    191.1703    177.9339   4.0371967568e+01   8.5185124997e+00    0.1879372    0.1768741 -28.40 0.0004700309    1.238    0.192
       151  -8.4459    217.3961    177.1427   3.5339126107e+01   4.5470629547e+00    0.1712592    0.1098714 -42.88 0.0004707094    1.664    0.399
       152  -8.3218    205.0000    177.0375   3.7554239629e+01   6.4602116514e+00    0.2098323   0.06866269 -39.49  0.000635892    2.885    0.653
       153  -8.5890    230.8623    176.3535   3.2901999036e+01   2.7064090167e+00    0.1751319    0.1303251 -29.06 0.0007081561    1.203    0.169
       154  -8.4801    182.9932    175.9624   4.1631128090e+01   1.0216402035e+01    0.1904051    0.1713741 -83.44 0.0004747665    1.602    0.376
       155  -8.4501    101.0144    176.0332   6.1101179947e+01   2.4329989907e+01    0.2091905    0.1697987 -11.82            0    1.546    0.353
       156  -8.6401    103.4635    173.9726   6.0115429143e+01   2.4406213204e+01    0.2633728    0.1491184  66.23  0.000970913    2.810    0.644
       157  -8.4637    158.5669    174.7428   4.6640669333e+01   1.4651206779e+01    0.1849883    0.1382214 -57.78 0.0006657723    1.626    0.385
       158  -9.9490     76.0257    171.3081   6.7201892369e+01   2.9344785818e+01    0.9087036    0.3797161 -81.25  0.002600007    4.894    0.796
       159  -9.1746     56.4390    171.6580   7.2745035917e+01   3.1950984805e+01    0.5679729    0.2296781  81.52  0.001311527    7.718    0.870
       160  -8.6469    175.5219    172.1168   4.2429440205e+01   1.2191249043e+01     0.202497    0.1331054 -39.78   0.00057365    1.512    0.339
       161  -9.1132    121.1642    170.5476   5.4886271023e+01   2.2165208272e+01    0.2989455    0.2248494  86.18  0.001023394    1.826    0.452
       162  -8.3771    230.2369    169.9897   3.1788188420e+01   3.7521670705e+00    0.1644568   0.09079526 -33.88 0.0005572152    1.570    0.363
       163  -8.4235     19.6704    170.3082   8.2860805429e+01   3.6314042456e+01     0.144749   0.08005209  59.49 0.0003991264    1.662    0.398
       164  -8.1282    244.6532    169.2959   2.9379905772e+01   1.8171321221e+00    0.1076513   0.09323658 -53.07 0.0007033193    1.674    0.402
       165  -8.2413    237.4756    169.5186   3.0534672709e+01   2.7833892311e+00    0.1230853    0.1014589 -20.48 0.0008079389    1.100    0.091
       166  -7.9563    198.3304    169.7137   3.7375129276e+01   8.7587017227e+00    0.1209386    0.1103183 -89.44 0.0003897257    1.616    0.381
       167  -8.4514    218.7641    168.0398   3.3335896640e+01   5.7745788392e+00    0.1668186    0.0960324 -35.38 0.0005711435    1.556    0.357
       168  -8.6565    166.6493    168.1071   4.3541845299e+01   1.4514351276e+01    0.2078198    0.1761423 -63.99   0.00064155    1.486    0.327
       169  -8.4714    191.8259    166.3869   3.7965994389e+01   1.0427511024e+01    0.1828486    0.1595849 -30.69 0.0004610652    1.148    0.129
       170  -9.5199     94.2591    162.0928   6.0632757253e+01   2.8760047908e+01    0.6593266    0.3352839  70.11   0.00184635    4.907    0.796
       171  -7.9635    234.2700    164.6694   3.0105636431e+01   3.9682998411e+00    0.1149512   0.09223987 -49.00 0.0002436606    1.585    0.369
       172  -8.3510    159.5068    164.0173   4.4309817418e+01   1.6614863661e+01    0.1909153    0.1314801 -71.73 0.0007516668    2.382    0.580
       173  -8.5322    136.0005    163.9882   4.9889638997e+01   2.0948345769e+01    0.2322352    0.1796926  69.53 0.0007542602    1.679    0.404
       174  -8.6039    246.4348    162.8866   2.7887765502e+01   2.4968729825e+00    0.1834181   0.09867133 -33.78   0.00039734    1.536    0.349
       175  -8.3602    212.9697    163.2750   3.3399994168e+01   7.4556272046e+00    0.1808179    0.1523564 -17.45 0.0004964084    1.024    0.023
       176  -8.1345    204.7456    162.6495   3.4755113308e+01   8.9023621047e+00    0.1375444   0.09430458 -10.61 0.0003131567    1.598    0.374
       177  -8.6294      4.0484    162.5526   8.6641552592e+01   3.9520450674e+01     0.198342   0.06362085  46.31 0.0008082518    2.649    0.622
       178  -8.8265    177.3123    160.3700   3.9675122510e+01   1.4079215732e+01    0.2255598    0.1677581 -58.66  0.000555153    1.707    0.414
       179  -9.8947    250.0123    157.3839   2.6301949718e+01   2.7946701711e+00    0.3116537     0.209634 -43.60  0.001413583    1.573    0.364
       180  -8.8224    227.4968    158.6356   3.0004133130e+01   5.9129744098e+00    0.2269945    0.1047027 -45.30  0.001014962    2.336    0.572
       181  -8.3015    237.2947    158.6607   2.8453377708e+01   4.4315674849e+00    0.1172814   0.09276091 -52.25 0.0003576132    1.654    0.395
       182  -9.0523    105.3493    157.5014   5.6705663479e+01   2.7982416146e+01       0.3187    0.2074492  78.33 0.0008563664    2.382    0.580
       183  -8.1304    196.3300    157.6509   3.5303151192e+01   1.1197855182e+01    0.1327982    0.1114208 -75.14 0.0007048713    1.765    0.434
       184  -8.6697    167.4443    156.9861   4.1082130427e+01   1.6547980080e+01    0.2134635    0.1393973 -46.75 0.0008378147    1.578    0.366
       185  -8.6153    218.0212    156.2557   3.1101447834e+01   7.7896919761e+00    0.1860477    0.1279767 -48.08  0.000561157    1.644    0.392
       186  -8.8287    119.3647    154.8454   5.2364275774e+01   2.6082757823e+01    0.3095773    0.2157352 -86.14   0.00115356    2.141    0.533
       187  -8.5935     35.9771    156.0000   7.6905217054e+01   3.8344483854e+01    0.2212742    0.0779357  25.34 0.0008059636    2.967    0.663
       188  -7.7544    144.3256    154.6542   4.5938413508e+01   2.1411133991e+01    0.1527569    0.1213057  81.58 0.0007050246    1.744    0.427
       189  -8.3447     81.3318    154.6208   6.3084900469e+01   3.2704131584e+01    0.1662439    0.1091236  68.65 0.0001026988    1.859    0.462
       190  -8.1767    224.4826    173.9996   3.3517079639e+01   3.9832450975e+00    0.1609004    0.1038447 -53.80 0.0005594964    2.355    0.575
       191  -9.0907    132.3896    152.5227   4.8472727096e+01   2.4163681575e+01    0.3665488    0.2412473  64.81  0.001209215    2.151    0.535
       192  -9.6161     10.0280    153.0000   8.4338549402e+01   4.1478242958e+01    0.3243772    0.0744322  19.68  0.001040224    4.834    0.793
       193  -9.4315    249.0050    149.1505   2.4838580495e+01   4.1373352601e+00    0.2877097    0.1443296 -32.79 0.0007914332    1.624    0.384
       194  -8.8887    243.4279    149.7997   2.5772902882e+01   4.8573334484e+00    0.2453409    0.0995251 -38.97  0.001133679    2.094    0.522
       195  -8.5722    189.4553    149.9889   3.5010404151e+01   1.3804904922e+01    0.2143669    0.1303939 -42.33  0.001010359    1.587    0.370
       196  -8.8351    233.6194    147.0769   2.6697990541e+01   6.7674898353e+00    0.2835621     0.105311 -36.07  0.001207825    2.287    0.563
       197  -8.2981    198.5329    148.5529   3.2964310058e+01   1.2421463113e+01    0.1375002    0.1254683 -24.02 0.0001325348    1.072    0.067
       198  -8.1647    133.3561    148.3111   4.7330019804e+01   2.4925206510e+01    0.1598607    0.1209833  -3.37 0.0007043625    1.733    0.423
       199  -9.3040     89.0553    145.9541   5.9226783540e+01   3.3642746799e+01    0.6084364    0.3389297  83.77  0.001882226    3.890    0.743
       200  -8.6118     39.6932    147.9354   7.4841836227e+01   4.0047439489e+01    0.2701302    0.1013229  56.18 0.0008830313    3.441    0.709
       201  -9.9691    148.6486    144.8465   4.2765017156e+01   2.2679183515e+01    0.4911954    0.3358449 -79.59  0.001629635    2.541    0.607
       202  -9.4391     55.1989    144.9592   6.9550295422e+01   3.8973054036e+01    0.6573483    0.2614716  60.85  0.001828693    4.768    0.790
       203  -8.2353    223.4315    146.5785   2.8205758427e+01   8.4802144945e+00    0.1311605    0.1110242 -21.75 6.269159e-05    1.008    0.008
       204  -9.6925    106.2925    144.0693   5.3788144873e+01   3.1070894476e+01    0.5924717    0.3501707  76.49  0.001917193    3.525    0.716
       205  -8.9827    138.8158    144.5647   4.5122472175e+01   2.4691911408e+01    0.2948633    0.2026586 -67.06 0.0009374455    1.896    0.473
       206  -8.7959    247.1408    143.6954   2.4019625677e+01   5.2171350090e+00    0.2123474     0.135647 -37.52 0.0005545533    1.335    0.251
       207  -9.4154    124.8620    142.2986   4.8249150893e+01   2.7958689275e+01    0.3771124    0.2639263 -83.93  0.001173906    2.168    0.539
       208  -8.4877      1.4117    142.5206   8.6191174830e+01   4.4757839875e+01     0.130863    0.1089879 -85.90 -7.673127e-05    1.064    0.060
       209  -8.3771    165.5499    143.7754   3.8623864698e+01   1.9554009585e+01     0.199091    0.1401968 -53.76 0.0005496599    1.573    0.364
       210  -8.4273     69.3887    140.2211   6.4260330622e+01   3.8244772311e+01    0.2198321    0.1413991 -78.95 0.0009500292    1.733    0.423
       211  -8.5919     24.1159    138.7486   7.8741375277e+01   4.4025373064e+01    0.2632543    0.1060282  58.64 0.0009574006    2.966    0.663
       212  -8.4937    207.5725    137.7470   2.8988205514e+01   1.2690533566e+01     0.191425    0.1186504 -45.90 0.0009296894    1.608    0.378
       213  -8.4009    172.4062    137.9135   3.5806420859e+01   1.9366925072e+01    0.2044243    0.1253116 -62.47 0.0008020169    2.443    0.591
       214  -8.2628    197.4096    137.2154   3.0692304200e+01   1.4653711409e+01    0.1949965     0.123397 -47.23 0.0005181975    1.610    0.379
       215  -9.5164    248.5523    134.8749   2.2047055085e+01   6.3188099567e+00    0.2792348    0.1353962 -39.17 0.0008807197    1.709    0.415
       216  -8.0059    162.4660    135.9895   3.7530557238e+01   2.1756909643e+01    0.2020137    0.1313931 -66.48 0.0007073095    2.303    0.566
       217  -9.7895     83.4162    133.2260   5.8452840119e+01   3.7843820113e+01    0.4929379    0.2979149 -81.17  0.001821015    2.300    0.565
       218  -8.6835    179.4950    133.5889   3.3336156496e+01   1.8796825298e+01    0.2562272    0.1310335 -50.46  0.000797477    2.176    0.540
       219  -8.2145    237.7238    133.3854   2.3261647197e+01   8.2438374845e+00    0.1288181   0.08898362 -53.53  0.000699971    1.720    0.418
       220  -8.4762    112.5887    132.8139   4.9522023447e+01   3.2611190110e+01     0.217958    0.1510486 -67.02 0.0005965362    1.682    0.406
       221  -8.8953    142.8479    131.4602   4.1092642627e+01   2.6769348610e+01    0.3058251    0.2010906 -62.85 0.0007975792    1.911    0.477
       222  -9.2904    132.0295    131.1853   4.3793121779e+01   2.9075664377e+01    0.3462285    0.2435026 -77.90  0.001282045    2.079    0.519
       223  -8.6134    247.0821    130.0201   2.1257133659e+01   7.2722858074e+00    0.1900574    0.1332324 -53.04 0.0005816225    1.654    0.396
       224  -7.9844    204.6852    130.3145   2.7841763944e+01   1.4515259581e+01    0.1359804    0.1074937 -66.49 0.0007034949    1.642    0.391
       225  -8.1797    192.6849    130.3029   3.0005028701e+01   1.6811115331e+01    0.1388953    0.1125858 -71.89 0.0002724305    1.618    0.382
       226  -8.6656     13.3678    129.7652   8.1358761122e+01   4.7270966746e+01    0.2952752   0.08077559  48.89 0.0009492534    4.028    0.752
       227  -8.7932    168.0704    129.1025   3.4673163184e+01   2.2002652296e+01    0.2305097    0.1847076 -79.74 0.0006508859    1.671    0.401
       228  -9.0820    152.7924    128.7580   3.8035449582e+01   2.5268552523e+01     0.313543    0.2026188 -54.62 0.0008359883    1.703    0.413
       229  -9.6200     99.1507    127.6972   5.2332527425e+01   3.6445461480e+01    0.4653459    0.2995216  87.44  0.001636214    2.630    0.620
       230  -8.4675     72.8760    129.0416   6.1021996280e+01   4.0643734851e+01    0.2589008    0.1711021  81.86 0.0008212843    2.021    0.505
       231  -8.7208     50.3286    128.6547   6.8576762073e+01   4.3927807959e+01    0.3099793    0.1701634  67.95  0.001190756    2.466    0.594
       232  -9.8032     44.3994    123.4125   6.9770554631e+01   4.6049219869e+01    0.6154995    0.2950602  66.47  0.002086683    3.322    0.699
       233  -7.8845    211.3311    128.6687   2.6341349615e+01   1.3567047854e+01    0.1368008     0.104614 -65.21 0.0004773238    1.721    0.419
       234  -9.5062     60.2285    125.1000   6.4529850072e+01   4.3563385718e+01    0.6150692    0.3129567  71.91  0.001904489    3.862    0.741
       235  -9.7358    249.6240    124.7568   1.9838896125e+01   7.6625031177e+00    0.3213839    0.1618612 -54.38  0.001428721    2.883    0.653
       236  -9.4063    117.4170    124.7731   4.6239402832e+01   3.3570160814e+01     0.372268    0.2682547  80.62  0.001148269    1.997    0.499
       237  -7.9771    228.6635    125.3201   2.2878280671e+01   1.1029933123e+01    0.1303778   0.09684979 -61.08 0.0007049784    1.707    0.414
       238  -8.6669    179.0645    124.3462   3.1245422921e+01   2.0662297958e+01    0.1969703    0.1900818  70.57 0.0005944803    1.148    0.129
       239  -9.1883     28.7523    122.5614   7.5202061317e+01   4.7918170010e+01    0.5034748    0.1981557  69.19   0.00139048    5.239    0.809
       240  -8.3542    172.0274    121.3411   3.1956088110e+01   2.2716137651e+01    0.2000944    0.1971299 -38.93 0.0005246307    1.052    0.049
       241  -8.7918    158.2579    121.1861   3.4910886058e+01   2.5688871206e+01    0.2123595     0.178893 -72.03 0.0007268799    1.389    0.280
       242  -9.5683    141.4574    118.3824   3.8202555076e+01   2.9930374859e+01    0.4399997    0.2578347 -62.06  0.001103224    2.316    0.568
       243  -9.0109    130.4865    117.8309   4.0893469611e+01   3.2431974341e+01    0.3113275    0.2217093 -72.02 0.0009797456    1.858    0.462
       244  -8.0910    231.6606    117.3056   2.0706020707e+01   1.1786270670e+01    0.1298329   0.09483153 -61.07 0.0007041146    1.679    0.404
       245  -8.3080    185.6500    115.8607   2.7911893839e+01   2.0899841867e+01    0.2176889    0.1241015 -47.68 0.0004687494    1.746    0.427
       246  -8.2744    193.2062    114.9780   2.6307730335e+01   1.9499335925e+01    0.1977389     0.107014 -38.71 0.0005231578    1.688    0.408
       247  -9.5269    109.2083    113.9222   4.5903863492e+01   3.7836828256e+01    0.3829541    0.2669991 -74.30  0.001382846    1.896    0.472
       248  -9.7817     10.9918    113.0522   8.0448175330e+01   5.1858165321e+01     0.431356    0.1558665 -84.04  0.001577167    2.841    0.648
       249  -8.1326    167.2823    114.2999   3.1199342751e+01   2.5124747424e+01    0.1487053    0.1191907  -0.51 0.0004106197    1.547    0.354
       250  -9.5539     92.6552    112.6763   5.0766538171e+01   4.1417202415e+01    0.4067435    0.2860604 -79.94  0.001258839    1.873    0.466
       251  -8.9762    121.8757    112.3538   4.1815082779e+01   3.5535371807e+01    0.2699088    0.2177797 -63.46 0.0005423657    1.339    0.253
       252  -9.3308     79.0290    112.4181   5.5276321447e+01   4.3949181039e+01    0.3653595    0.2478963 -87.14  0.001480737    2.037    0.509
       253  -8.6885    174.5230    111.5073   2.8999217626e+01   2.4093240028e+01    0.2737398    0.1296823 -49.56 0.0009589827    2.262    0.558
       254  -8.4924    159.4261    111.8856   3.2284330975e+01   2.7336828762e+01    0.2197443    0.1276844 -61.92 0.0008036306    2.459    0.593
       255  -9.4321    133.1888    109.0797   3.7871824442e+01   3.3790511459e+01    0.3683691    0.2285478 -47.22 0.0009749521    1.604    0.377
       256  -8.3891     66.5136    110.5087   5.9252916076e+01   4.6487049713e+01    0.1549409    0.1438304  83.78 -8.671052e-06    1.100    0.091
       257 -11.7113    249.1155    106.5105   1.6107610032e+01   1.0461797324e+01     0.788087    0.2134471 -41.59  0.003023112    2.960    0.662
       258  -9.6451    150.5641    102.8579   3.1895077532e+01   3.1173831181e+01    0.4778898    0.2804103 -61.48  0.001532586    2.318    0.569
       259  -9.0633    139.9222    104.4505   3.4889354461e+01   3.3274642619e+01    0.2959402     0.216666 -63.52 0.0006441409    1.588    0.370
       260  -9.7451     45.7767    102.0607   6.5233275417e+01   5.1577623005e+01    0.6862803    0.3287858  64.45  0.002101436    4.224    0.763
       261 -10.3350     22.6192    102.8755   7.4619858698e+01   5.3713004411e+01    0.5358377    0.3022987  59.36  0.001845777    2.114    0.527
       262  -9.0530    128.3329    101.8291   3.7160785751e+01   3.6470101406e+01     0.297397     0.232675 -72.71 0.0007797785    1.537    0.349
       263  -8.4678    159.6526    100.8418   2.9313905586e+01   2.9493336204e+01    0.2276268    0.1341297 -49.69 0.0005315035    1.735    0.424
       264  -9.8129    108.6489     98.5140   4.1853090516e+01   4.1569617702e+01    0.4762255    0.3255841  71.36  0.001072271    2.056    0.514
       265  -8.4867     82.3451    100.1308   5.0967117817e+01   4.6455455245e+01    0.2275889    0.1448909 -65.71 0.0007386908    1.808    0.447
       266  -8.4645     95.0203     96.9867   4.5747225880e+01   4.4773053718e+01    0.2441866    0.1927199  88.32 0.0005502936    1.622    0.383
       267  -9.3101     63.7547     95.7991   5.6683432072e+01   5.0702171868e+01    0.4174791    0.2538392  78.71  0.001299576    3.073    0.675
       268  -8.6602    166.8230    104.1041   2.8664010700e+01   2.7226332363e+01    0.2363666    0.1991104 -65.42 0.0006437374    1.283    0.221
       269  -8.4971    164.9901     94.0041   2.6336203499e+01   2.9581486042e+01     0.245275    0.1797413 -70.10 0.0005724278    1.672    0.402
       270  -8.5311    176.4205     93.1612   2.3877697290e+01   2.7108055112e+01     0.219339    0.1281375 -49.71 0.0005896475    1.722    0.419
       271  -9.1219    139.1171     92.3365   3.1663889682e+01   3.5985226919e+01    0.3339716    0.2337453 -76.19  0.001024544    2.019    0.505
       272  -8.2436    189.2307    107.9330   2.5306995065e+01   2.1603070828e+01    0.1933879    0.1127687 -39.88 0.0004658962    1.573    0.364
       273  -9.8196    125.0158     90.7991   3.4854605002e+01   3.9604403827e+01    0.4645744    0.3090541  67.53  0.001899992    1.900    0.474
       274  -8.8384     35.0176     90.2314   6.7108783084e+01   5.5892185404e+01    0.3037115    0.1714601  83.03  0.001171631    2.743    0.635
       275  -9.3627     86.2771     86.3215   4.5562344642e+01   4.9023075378e+01    0.3602757     0.256739  87.24  0.001046139    2.184    0.542
       276  -9.0506     48.4833     84.2935   5.9862869583e+01   5.5814317453e+01    0.3292543    0.1954026  62.14  0.001304607    2.562    0.610
       277  -9.3622    104.6597     83.0706   3.8399825913e+01   4.5891148892e+01    0.3459383    0.2551219 -72.24 0.0009389026    1.758    0.431
       278  -8.4871    157.8684     83.6193   2.4895273049e+01   3.3207834074e+01    0.2103792    0.1455682  70.34 0.0005365533    1.659    0.397
       279  -8.9951    140.8370     82.5878   2.8361908869e+01   3.7513138237e+01    0.3189501    0.1936074 -56.14 0.0007708063    1.896    0.473
       280  -8.9886     24.9842     81.0390   6.9560699043e+01   5.9218889533e+01    0.3091569    0.1773262  80.70  0.001282934    2.551    0.608
       281 -10.3293    249.2717     80.5057   1.0567742919e+01   1.4222101040e+01    0.2095311    0.1633374 -43.40  0.001298351    1.020    0.020
       282  -8.3024    119.4084     80.2105   3.3125323228e+01   4.3115264757e+01    0.2252023    0.1452376 -53.93 0.0006649824    1.695    0.410
       283  -9.3209      4.7648     77.2801   7.8270358418e+01   6.1531875808e+01    0.2264913   0.06964818 -61.38  0.000890148    2.375    0.579
       284  -9.3162    127.5030     75.2410   2.9364912374e+01   4.2165283851e+01    0.3478616    0.2875353  61.14  0.001192489    1.223    0.182
       285  -8.3761    140.4162     75.1730   2.6193306888e+01   3.9022165832e+01    0.2231427    0.1395377 -50.48 0.0007531394    1.666    0.400
       286  -9.4268     63.1860     74.0665   5.0554497717e+01   5.6091134037e+01    0.3433084    0.2489048 -72.76 0.0008674921    1.757    0.431
       287  -8.4806    150.4014     80.2561   2.5498238120e+01   3.5635658681e+01    0.2259297    0.1370078 -49.58 0.0007437742    1.686    0.407
       288  -8.4043    163.5018     73.0101   2.0718876042e+01   3.3739857882e+01    0.2356385     0.141445 -40.50  0.001025604    1.594    0.373
       289  -8.1013    151.4780     73.4661   2.3240437794e+01   3.6608461012e+01    0.1543195    0.1441543 -73.89 0.0001012678    1.046    0.044
       290  -9.1472     82.3120     72.4052   4.2454862303e+01   5.2943136819e+01    0.3195371    0.2224395 -81.58 0.0009998825    2.375    0.579
       291  -7.9716    115.5416     72.5630   3.1714443703e+01   4.5559356575e+01    0.1551304    0.1501178  83.95 0.0001330019    1.042    0.041
       292  -8.6855     95.0765     71.0205   3.7485912549e+01   5.0556421624e+01    0.2430058     0.190539 -80.07 0.0009401709    1.687    0.407
       293  -8.6708     51.5466     69.6010   5.4165433716e+01   5.8954610750e+01     0.258494     0.141656 -66.90  0.001017185    2.392    0.582
       294  -8.8635    147.0948     68.0329   2.2500389433e+01   3.8652262623e+01     0.250178    0.1772745 -68.74 0.0006838715    1.685    0.406
       295  -8.5866    138.5587     66.0171   2.3727148124e+01   4.1136651743e+01    0.2326028    0.1468238 -41.22 0.0005206554    1.575    0.365
       296  -8.5201    121.5990     65.7562   2.7769656990e+01   4.5389588144e+01    0.2196399    0.1406741 -50.30 0.0006638137    1.666    0.400
       297  -8.4790    110.2326     63.4639   3.0103360667e+01   4.8564090200e+01    0.2075121    0.1478105  66.97  0.000740712    1.591    0.372
       298  -7.9589    158.3047     61.6769   1.8335974899e+01   3.6919174012e+01    0.1573392    0.1097843 -68.14 0.0002926463    1.639    0.390
       299  -8.4492     97.7230     60.5392   3.2854003685e+01   5.2038803674e+01    0.2128552    0.1467164  61.21 0.0009426122    1.616    0.381
       300  -9.3049     73.4083     59.7200   4.1270146909e+01   5.7377939647e+01    0.2942828    0.2386566 -78.82 0.0009816759    1.662    0.398
       301  -9.3663     23.8325     56.5753   6.3827717448e+01   6.5323752576e+01    0.4273961    0.2500784  78.38  0.001656229    3.544    0.718
       302  -8.1664    130.5582     57.5167   2.2752963792e+01   4.4603733806e+01    0.1529569    0.1435144 -82.96 0.0008068149    1.061    0.057
       303  -9.1614      7.8393     57.5879   7.2912119976e+01   6.6256086467e+01    0.1718572    0.1147681  30.54 0.0009419198    1.713    0.416
       304  -8.3344    140.0028     55.9997   2.0155702258e+01   4.2459657698e+01    0.1828683     0.169535 -50.10 0.0003985196    1.087    0.080
       305  -8.6681    119.2151     55.9564   2.4985097647e+01   4.7708878393e+01    0.2498368    0.1623969 -61.49 0.0009709756    1.952    0.488
       306  -8.4197     63.0034     54.7415   4.3668596080e+01   6.0343202861e+01    0.1999393    0.1587871 -67.59 0.0005551236    1.615    0.381
       307  -8.2276     44.3306     55.6871   5.2774179262e+01   6.3141082770e+01    0.1366158    0.1121879  71.14 0.0007044058    1.675    0.403
       308  -8.3176     54.4641     53.9770   4.7222309680e+01   6.1967543872e+01    0.1940727    0.1293697 -73.40 0.0008091116    2.524    0.604
       309  -9.4473      2.9096     52.9956   7.4633153949e+01   6.7600404638e+01    0.4187708    0.1127148 -38.73  0.001501969    3.504    0.715
       310  -9.1520     92.6975     50.8285   3.0768065257e+01   5.4956140523e+01    0.2758134    0.1959618 -54.38  0.001108999    1.642    0.391
       311  -8.7821    172.1115     50.1060   1.2602423208e+01   3.5255875225e+01    0.1928909    0.1867524  76.86  0.001126763    1.128    0.114
       312  -8.6681     82.1943     46.2063   3.2497287754e+01   5.8110915610e+01    0.1954976    0.1744974 -75.76 0.0005399539    1.356    0.262
       313  -8.4453     17.2690     44.6598   6.3755202058e+01   6.8617367886e+01    0.1207798    0.1011552  75.72 0.0003602731    1.603    0.376
       314  -8.3076     58.5235     42.9988   4.0748592912e+01   6.3434531924e+01    0.1914185    0.1254915 -65.42 0.0008093896    2.531    0.605
       315  -9.4001      5.8302     42.7972   7.0251952735e+01   6.9826706952e+01    0.1628739    0.1483908  61.31 0.0006064264    1.375    0.273
       316  -8.8180     69.6635     41.6249   3.5322295515e+01   6.1543182355e+01     0.268526    0.2085428 -82.46  0.001089488    2.029    0.507
       317  -9.2848     12.3225     42.3279   6.6022030701e+01   6.9520146751e+01    0.1422467   0.07891554 -33.33 0.0004728316    1.691    0.409
       318  -7.9766    140.6417     41.3212   1.5140397313e+01   4.4509776120e+01    0.1594318    0.1067781 -70.50 0.0007044429    1.766    0.434
       319  -8.3307    105.9888     41.4655   2.3062754554e+01   5.3313380828e+01    0.1946182    0.1290675  88.69 0.0004169249    2.216    0.549
       320  -8.1997     95.6804     38.3069   2.4728465428e+01   5.6292432489e+01    0.1457879    0.1147325 -77.10 0.0003341301    1.636    0.389
       321  -9.2111     26.2466     35.5802   5.4711948972e+01   6.9671586572e+01    0.2492816     0.212246  73.67 0.0009871195    1.744    0.427
       322  -8.4074    112.2098     34.7690   1.8828899150e+01   5.2720340198e+01    0.2383701    0.1412395 -68.04 0.0007245641    2.605    0.616
       323  -8.2636    205.4756     33.5592   4.0992587093e+00   2.9535850242e+01    0.1314733    0.1125584 -64.32 9.112836e-05    1.027    0.026
       324  -8.6786     48.6120     33.3260   4.1021341297e+01   6.6913369112e+01    0.1857119    0.1654413 -88.91 0.0006248499    1.626    0.385
       325  -8.2755     60.8371     32.5796   3.4860218154e+01   6.4810362058e+01    0.1836211    0.1299237  54.22 0.0004704186    1.606    0.377
       326  -8.2640     72.3880     31.2085   2.9450414287e+01   6.2656734479e+01     0.188465    0.1287359 -44.04 0.0005087952    1.646    0.392
       327  -8.7028     13.4476     30.9219   6.1057420381e+01   7.1886047908e+01    0.1595143    0.1116497 -89.66  0.000806451    2.437    0.590
       328  -7.9236    101.6944     29.3318   1.9279155844e+01   5.6079758420e+01    0.1459587    0.1094884 -69.65 0.0005547297    1.661    0.398
       329  -8.8280     81.8580     27.7002   2.4419873627e+01   6.1049246166e+01    0.2714854    0.1734035 -56.91  0.001194086    2.204    0.546
       330  -9.7115      3.9879     27.9720   6.6585534338e+01   7.3177719032e+01    0.1783952     0.147129  58.79 0.0005973612    1.687    0.407
       331  -8.6844     91.9002     26.5541   2.0780698847e+01   5.8834194752e+01    0.2791597     0.168699 -47.37 0.0008099318    1.951    0.487
       332  -8.4879     48.5915     21.7559   3.5019271428e+01   6.8794462295e+01    0.1717013    0.1225827 -42.64 0.0004799552    1.598    0.374
       333  -8.8894     63.8588     21.1078   2.7766065821e+01   6.5893912569e+01    0.1965846    0.1852668 -59.62 0.0006944829    1.315    0.239
       334 -10.1646     64.7282    249.0619   7.7890761583e+01   1.4197341613e+01    0.3524393    0.1102831  38.75  0.001622419    2.228    0.551
       335  -9.2349     50.7301    249.5498   8.0828094942e+01   1.5760053759e+01    0.2913114   0.08405885  33.64  0.001290863    2.556    0.609
       336  -8.7653     74.1500     19.2727   2.2958450772e+01   6.3888122859e+01     0.248742     0.165749 -54.60 0.0008096556    2.055    0.513
       337  -8.0345     87.7165     17.3403   1.7773339933e+01   6.0943627131e+01    0.1362515     0.105025 -65.32 0.0003051356    1.632    0.387
       338 -10.0787      2.7764     17.3822   6.3071018445e+01   7.5407857264e+01    0.3085174    0.1361378   0.94  0.001434538    2.660    0.624
       339  -8.6739     17.6136     14.3079   4.9772027133e+01   7.4631472151e+01    0.1138858   0.09769531  56.26 0.0007017881    1.807    0.447
       340  -9.7846     21.2200    248.3079   8.6739102674e+01   1.9173901430e+01    0.2993634    0.1327828  47.97  0.001416753    1.604    0.377
       341  -9.6956    218.8020    246.1977   4.6748064738e+01  -5.2077714538e+00    0.3409386    0.1647816 -23.78  0.001980792    2.075    0.518
       342 -10.6050    223.7978    243.3626   4.5467716374e+01  -5.4367786393e+00    0.4361956    0.2173891 -39.27  0.002583661    2.346    0.574
       343  -9.0841    175.3414    247.2882   5.4877056977e+01  -4.8305824487e-02    0.2019884    0.1779791  71.88  0.001098081    1.977    0.494
       344  -9.6791    156.1992    247.1125   5.8620672956e+01   2.4897246862e+00     0.279472    0.1709502 -22.82  0.001287623    2.028    0.507
       345  -9.4769     27.2347    250.4331   8.5634781703e+01   1.8167783759e+01    0.2760978   0.07779614  33.33  0.001283665    2.581    0.612
       346  -9.7198    103.7727    247.0575   6.9476474362e+01   9.5643047985e+00    0.3021973    0.1734873 -83.63  0.001520651    2.967    0.663
       347  -9.7201     76.0276    247.6744   7.5410480135e+01   1.3054093318e+01    0.3355185   0.09507599  38.13  0.001445607    2.456    0.593
       348  -9.6965     34.7005    247.9041   8.4015164106e+01   1.7845963301e+01    0.2415308    0.1242828  42.47  0.001043207    1.432    0.302
       349  -9.4911     89.1110    246.7854   7.2561652569e+01   1.1540777365e+01    0.2669233   0.08930622  45.76  0.001147821    2.563    0.610
