#   1 NUMBER                 Running object number                                     
#   2 MAG_AUTO               Kron-like elliptical aperture magnitude                    [mag]
#   3 X_IMAGE                Object position along x                                    [pixel]
#   4 Y_IMAGE                Object position along y                                    [pixel]
#   5 X_WORLD                Barycenter position along world x axis                     [deg]
#   6 Y_WORLD                Barycenter position along world y axis                     [deg]
#   7 A_WORLD                Profile RMS along major axis (world units)                 [deg]
#   8 B_WORLD                Profile RMS along minor axis (world units)                 [deg]
#   9 THETA_WORLD            Position angle (CCW/world-x)                               [deg]
#  10 FWHM_WORLD             FWHM assuming a gaussian core                              [deg]
#  11 ELONGATION             A_IMAGE/B_IMAGE                                           
#  12 ELLIPTICITY            1 - B_IMAGE/A_IMAGE                                       
         1 -11.3991     45.5354     27.7032   8.0923973910e+01   6.5906795880e+01    0.4648105    0.3317217   7.25  0.002827204    1.326    0.246
         2 -11.3768      2.1029     22.2009   1.0037785882e+02   7.0991055337e+01    0.3560909    0.1511486 -50.53  0.001571498    1.832    0.454
         3 -11.3630     40.8716     22.3960   8.0651595300e+01   6.7334427602e+01    0.5040494    0.2692862 -42.20  0.001690951    1.948    0.487
         4 -10.9365     14.0701     16.0374   9.1265256447e+01   7.1200328258e+01    0.3064047    0.2661608 -61.05  0.001073691    1.823    0.452
         5 -10.0569     15.6929      8.4706   8.6769235236e+01   7.2223555379e+01    0.3682736    0.1651524 -12.23  0.001609161    3.428    0.708
         6 -11.3879    234.7527     15.0051   3.6108362587e+01   2.5569043998e+01    0.2274628    0.1887555 -69.80 0.0002351203    1.008    0.008
         7 -10.5347     89.5184     13.5071   5.8409222771e+01   6.0056316407e+01    0.4808685    0.2132524 -39.98  0.002078932    2.813    0.645
         8 -11.5155     66.8503     13.6063   6.5783856879e+01   6.4452425233e+01    0.4607403    0.2910284  55.66  0.001692234    1.987    0.497
         9 -11.0473     43.3897     13.8580   7.5441084647e+01   6.8197119438e+01    0.2673095    0.2074186 -35.44    0.0017372    1.523    0.344
        10 -11.3316     34.6881     12.6077   7.8900688134e+01   6.9532710875e+01    0.3074153    0.2411361 -15.82 0.0009155918    1.130    0.115
        11 -10.6085     37.2942      7.6309   7.5112105479e+01   6.9842203562e+01    0.4463202    0.3151989   9.69  0.002932006    1.206    0.171
        12 -11.6190     30.6212      7.1871   7.8143872917e+01   7.0767798692e+01    0.5458952    0.3014036  24.99  0.003228602    1.720    0.419
        13 -10.4939    134.9933     11.5716   4.7274776153e+01   4.9858676966e+01    0.2247181    0.1774575  20.35 0.0003409658    1.390    0.281
        14  -9.9680     99.1728     11.5652   5.4972451654e+01   5.8186043720e+01     0.333189    0.2183221  75.53  0.001673715    2.046    0.511
        15 -10.5166    126.0078     11.0349   4.8763871152e+01   5.2072258657e+01    0.1993011    0.1712571  46.11 -0.003769674    1.044    0.042
        16 -10.0823      3.8865     10.7396   9.4651115658e+01   7.2833870636e+01    0.1411453    0.1086626 -16.02 0.0003020834    1.119    0.106
        17 -10.8544     57.4948      8.4888   6.6832124983e+01   6.6654267463e+01     0.348375    0.2076439 -20.96    0.0019879    1.613    0.380
        18 -11.6395     57.4314      3.0207   6.4113946106e+01   6.7238067798e+01    0.4692249    0.2913933  10.73 0.0008157564    1.581    0.367
        19 -10.6400     22.6112      9.7499   8.3623720064e+01   7.1343107517e+01    0.3043624    0.1749777  12.05  0.001823611    1.727    0.421
        20 -10.0619     86.1979     12.1846   5.8803263931e+01   6.0877748240e+01    0.2393323    0.1693823  49.90 0.0006732013    1.341    0.254
        21  -9.4256    211.5178      6.4855   3.6118212531e+01   3.1725458469e+01    0.2143104    0.1267664  -9.01  0.001039644    2.619    0.618
        22 -10.7246     71.0213      6.4846   6.0971426039e+01   6.4438369346e+01    0.3555595    0.2709938  18.85   0.00224194    1.124    0.110
        23 -10.0494     74.5091      4.5209   5.8911534191e+01   6.3955949828e+01    0.1962983     0.156423  23.57 0.0007227869    1.040    0.039
        24  -9.8954    151.1392      5.9086   4.2800511146e+01   4.6414897022e+01     0.190663    0.1635916 -76.04 0.0002664236    1.215    0.177
        25  -8.9044    120.7030      4.2826   4.7334188735e+01   5.3919238223e+01    0.1231595   0.09803589 -72.38 0.0002682239    1.543    0.352
        26 -10.9650    102.5038      2.5453   5.0478783695e+01   5.8244943209e+01    0.3709446    0.2840615  73.64  0.001848961    1.458    0.314
        27  -9.5767    129.9807      3.0745   4.5210598696e+01   5.1808865678e+01    0.1556163     0.140299  52.32 0.0004757206    1.039    0.038
        28  -9.9458     93.0116     10.0212   5.5949190057e+01   5.9665064403e+01    0.2676363      0.13821  27.60 0.0009779241    2.155    0.536
        29  -9.2095    176.4554      2.5133   3.8570486122e+01   4.0486621196e+01    0.1295046    0.1132828  74.81 5.452869e-05    1.057    0.054
        30 -11.1342     80.3375      1.6974   5.5834491691e+01   6.3047923551e+01    0.3049608    0.1494556  51.38 0.0008571038    1.769    0.435
        31 -10.5813     19.8616      1.9314   8.1011353414e+01   7.2709357335e+01    0.2341923    0.1510958  33.26  0.001531877    1.812    0.448
        32 -10.3589     11.6483      1.8093   8.5642386066e+01   7.3555387791e+01    0.1751597    0.1365914  12.69 0.0005160521    1.367    0.268
        33  -9.5793      1.3896      2.2473   9.2107317542e+01   7.4334192260e+01    0.1408914   0.08883195 -45.31 0.0009433664    1.616    0.381
        34  -9.1415     67.4085      1.4520   5.9761872338e+01   6.5590772252e+01    0.1225356    0.1007368  19.63 0.0001022286    1.033    0.032
        35  -9.0524     28.2595      1.3528   7.6207394311e+01   7.1795961423e+01     0.119243   0.07077966  -4.32 0.0001664162    1.611    0.379
        36 -10.3130      6.3433    191.8893   1.2525859235e+02   3.2844125099e+01    0.1662627    0.1167595 -87.85  0.001131542    1.138    0.121
        37 -10.8334     28.1374    250.4668   1.2458306774e+02   1.9036343521e+01    0.3123543   0.05119852  40.47  0.001347528    3.590    0.721
        38 -11.6871     14.2739    238.8227   1.2634831446e+02   2.2616090726e+01    0.2486921     0.142037  69.07  0.000661521    1.348    0.258
        39 -12.7282      5.3617    240.2315   1.2791672318e+02   2.3220537114e+01    0.5774586    0.3024484  45.27  0.003940262    1.614    0.380
        40 -11.3816      3.0508    248.9715   1.2865332736e+02   2.1850941627e+01    0.4318251    0.2402553  53.25  0.003132759    1.362    0.266
        41 -12.1367     17.8478    249.1838   1.2624538609e+02   2.0352314095e+01    0.2970683    0.2429096  25.20    0.0022823    1.826    0.452
        42  -9.6311      1.2774    191.1360   1.2622873022e+02   3.3427310235e+01     0.165832   0.07756817  89.30 0.0006499173    1.779    0.438
        43  -9.4952     22.5016    179.9614   1.2099481057e+02   3.4042707810e+01    0.1775459     0.100465 -77.94 0.0004070437    1.488    0.328
        44 -10.5156      5.1274    167.1906   1.2386412870e+02   3.8433222102e+01    0.2398102     0.150196  71.16  0.001217602    1.420    0.296
        45  -9.6554    226.4919    163.9651   7.1740059262e+01   4.0162030177e+00    0.2102028    0.1255366 -34.13 0.0007197115    1.544    0.352
        46  -9.2418    247.4718    155.4528   6.6287878311e+01   1.7821924929e+00    0.1352115    0.1140456 -17.62 0.0002794174    1.003    0.003
        47 -10.7607      2.7232    153.5475   1.2337741906e+02   4.1748163765e+01    0.2565546    0.1076282  28.32   0.00132005    2.705    0.630
        48 -10.2857     15.9129    150.5929   1.1990593484e+02   4.1457822488e+01    0.2060654    0.1426476 -67.55 0.0006386213    1.245    0.197
        49  -9.4516    237.5817    149.5218   6.6674646074e+01   4.4774671148e+00    0.1387288    0.1191428 -21.46 0.0001417528    1.018    0.017
        50  -8.9441     37.3046    146.2460   1.1389351487e+02   4.0580474576e+01    0.1211612   0.09261069 -42.38 0.0001946806    1.497    0.332
        51  -9.2180    236.6693    138.6605   6.4441064022e+01   6.4805456712e+00    0.1454101    0.1026071  -1.11 0.0007051755    1.741    0.426
        52 -10.1313    212.6233    133.8925   6.7603408483e+01   1.2005277979e+01    0.2595631    0.2185908  57.68 0.0007194165    1.379    0.275
        53 -10.7495      2.5448    133.0145   1.2163058122e+02   4.6576443555e+01    0.2987319    0.1966064  74.50  0.001246922    1.481    0.325
        54  -9.2285     96.0375    133.7604   9.5364893446e+01   3.5787691127e+01      0.18646     0.126752  38.83 0.0004607082    1.534    0.348
        55 -10.7644     11.8501    129.7817   1.1879140951e+02   4.6737210970e+01    0.2156906    0.1831863  79.22 0.0008047899    1.178    0.151
        56 -10.3212    248.5056    129.4747   6.0501677159e+01   5.8472330341e+00    0.1376375    0.1176496 -26.92 6.891158e-06    1.008    0.008
        57 -10.4154      1.9783    123.2072   1.2080288489e+02   4.8932241439e+01     0.219288    0.1386849 -75.88 0.0005480401    1.231    0.188
        58 -11.6252      7.8121    121.0693   1.1892729211e+02   4.9090482680e+01    0.2887099     0.230206  82.58 0.0005482882    1.220    0.180
        59 -11.5988     23.8905    121.4060   1.1430297528e+02   4.7863105103e+01    0.3829694    0.2346727  67.24  0.001436641    1.943    0.485
        60  -9.3008     17.6104    122.1303   1.1623884190e+02   4.8169668878e+01    0.1791219   0.08960254 -59.78 0.0003059993    1.607    0.378
        61 -12.2891      3.1912    109.6749   1.1892341959e+02   5.2070714234e+01    0.5221561    0.2671275 -52.13  0.002870355    1.682    0.405
        62 -10.4642     57.6758    107.8698   1.0136429088e+02   4.7766909559e+01    0.2276219    0.1917573   0.77 0.0006805485    1.390    0.281
        63 -11.2315     14.0435    107.4766   1.1530290970e+02   5.1943974972e+01    0.2662219    0.1303232 -55.30  0.001137709    1.643    0.391
        64 -10.2754     25.6857    106.3223   1.1143078638e+02   5.1376487905e+01    0.1834943    0.1334556  28.32 0.0004826024    1.633    0.388
        65  -9.2157     28.6678    105.7596   1.1037324096e+02   5.1269099996e+01    0.1996613    0.1080707 -60.44 0.0001234553    1.486    0.327
        66  -9.3386     89.3238    104.6929   9.0506734246e+01   4.3897168437e+01     0.148651    0.1184373  82.00 0.0007035082    1.646    0.393
        67 -10.6792     65.8943    110.8345   9.9380676204e+01   4.5986830026e+01    0.3253243    0.2535021  75.68  0.001171196    1.586    0.369
        68 -10.1547    186.9180    103.0259   6.4923623206e+01   2.3412285431e+01    0.2311862    0.2210366 -44.61 0.0005727612    1.022    0.022
        69  -9.8270    246.4980    101.5216   5.4527394607e+01   1.0817516815e+01    0.1375467    0.1198555 -33.91 -4.165951e-06    1.044    0.042
        70 -10.9843     19.6090    100.0783   1.1236344782e+02   5.3330607244e+01    0.2445969    0.1556314 -22.30  0.001337695    1.941    0.485
        71  -9.3031     55.7549     97.4222   9.9639401073e+01   5.0508528310e+01    0.1752243    0.1336321   2.23 0.0009289899    1.579    0.367
        72 -11.9398      3.4610     95.4059   1.1695007499e+02   5.5413955171e+01    0.4568999    0.3903147 -10.87  0.003217861    1.437    0.304
        73 -12.2014     10.2446     91.7849   1.1412832112e+02   5.5892062490e+01    0.5686319    0.2610008 -80.92  0.002129901    2.381    0.580
        74 -11.6328     11.5382     86.6161   1.1280167173e+02   5.7019547603e+01    0.4534352    0.2877174  65.46  0.002285529    2.142    0.533
        75 -10.9600     24.4038     88.2715   1.0855620018e+02   5.5765582687e+01     0.451506    0.2563743 -55.43 0.0007012588    1.396    0.284
        76 -12.2803     20.7990     92.7541   1.1067851198e+02   5.4980946960e+01    0.3792657     0.235634 -41.97 0.0004180235    1.498    0.333
        77 -10.8136     19.2761     87.1746   1.1016410126e+02   5.6394418686e+01    0.3735466    0.2018481 -62.45  0.001120982    1.483    0.326
        78 -11.9680    125.1702     93.3102   7.6746219782e+01   3.9502558683e+01    0.2727159     0.267831  30.47 0.0002339601    1.046    0.044
        79  -9.6690     78.9033     94.0311   9.1011839004e+01   4.8069610633e+01    0.2158176    0.1630795 -19.07 0.0003156319    1.518    0.341
        80  -9.9776     94.0143     93.2965   8.5938719214e+01   4.5690040716e+01    0.2080875    0.1953845  18.96 0.0004589023    1.105    0.095
        81 -11.2833     57.6681     91.6806   9.7584509547e+01   5.1620869035e+01    0.3319961    0.2462631   4.72 0.0009587811    1.619    0.382
        82 -10.0711     29.3362     92.1476   1.0759839308e+02   5.4462548535e+01     0.218439    0.1851799  32.95 0.0008173128    1.405    0.288
        83 -10.2757     43.6892     89.9028   1.0205525821e+02   5.3643840038e+01    0.4005481    0.2700273 -86.06  0.001276923    2.013    0.503
        84 -12.2258     55.5058     85.7856   9.6829102120e+01   5.3249776435e+01    0.2586483    0.2418945  -7.34 0.0002735808    1.136    0.120
        85  -9.6163    124.4519     86.4678   7.4907486956e+01   4.1074677178e+01    0.1537462     0.148344 -13.92 9.694715e-05    1.006    0.006
        86 -11.1882      3.2211     81.4626   1.1486807354e+02   5.8648343682e+01    0.3725146    0.2103482 -75.46  0.002089141    1.591    0.372
        87 -10.3741    124.5154     80.2930   7.2995163618e+01   4.2296283752e+01    0.4781683    0.1488718 -40.81   0.00146828    3.164    0.684
        88  -9.1339     76.5715     82.5893   8.8552000928e+01   5.1002782351e+01    0.1429018    0.1303511 -29.87 0.0001924003    1.007    0.007
        89  -9.3377    250.3291     81.2876   4.9432823151e+01   1.3265913420e+01    0.1252345    0.1030927   8.58 0.0005643959    1.616    0.381
        90 -10.2089     64.3876     80.4919   9.2198979087e+01   5.3273858688e+01    0.3018481    0.2091561 -29.72 0.0008893792    1.465    0.317
        91 -10.6731     20.9224     72.9658   1.0656121619e+02   5.9525377644e+01    0.3499327    0.1618542 -59.46 0.0009171132    1.740    0.425
        92 -12.0137     14.9130     75.4808   1.0942295710e+02   5.9364027518e+01    0.4419327    0.2732776  -1.58  0.002522388    1.986    0.497
        93  -9.2541     80.9654     79.0238   8.5979733001e+01   5.1062671750e+01    0.1700799    0.1516832 -31.97 0.0003692154    1.031    0.030
        94 -10.3760     26.4242     78.1000   1.0563486215e+02   5.7952047855e+01    0.4601049     0.218784 -14.13  0.001735564    3.487    0.713
        95  -9.8471    176.6788     76.9528   5.9839340291e+01   3.0598568082e+01    0.2180737    0.1992252 -45.40  0.000943977    1.073    0.068
        96 -10.0385     55.6951     75.9684   9.4056145770e+01   5.5424426026e+01    0.2446726    0.1783316 -15.05 0.0006869663    1.519    0.342
        97 -10.2313     42.4435     75.6769   9.8952476551e+01   5.7022400450e+01    0.2863894    0.2108675  45.89  0.001604746    1.713    0.416
        98 -11.3940     37.0964     74.8843   1.0078371528e+02   5.7737665174e+01    0.6930555    0.3107099 -63.39  0.002722569    2.317    0.568
        99 -10.5191     33.1613     73.3576   1.0190592672e+02   5.8445791689e+01    0.3496237    0.2049329  42.93  0.001789319    2.209    0.547
       100  -9.6251     89.5429     81.0788   8.3755211962e+01   4.9151232987e+01    0.2243268    0.1387987 -46.97 0.0005992805    1.556    0.357
       101  -9.3329     81.4084     73.5575   8.4114007978e+01   5.2136046181e+01    0.1440228     0.129843 -23.71 8.730692e-05    1.011    0.011
       102  -9.3795    217.0077     72.0692   5.1717026169e+01   2.1848530862e+01     0.174446    0.1500078 -44.84 0.0004336867    1.077    0.071
       103 -11.4357    106.2036     71.2666   7.5366024079e+01   4.7950504922e+01    0.3620006    0.2961415  71.59   0.00150611    1.595    0.373
       104 -10.0251     77.0428     67.9255   8.3794715385e+01   5.4011049187e+01    0.4629285    0.1697947 -34.62  0.001507044    3.432    0.709
       105 -11.3001      4.3897     68.0077   1.1195188785e+02   6.1617455082e+01     0.408666     0.226956  46.86  0.002201706    2.573    0.611
       106 -11.7024     10.3470     69.0911   1.0983446967e+02   6.1065936003e+01    0.3906325    0.1932402 -62.08   0.00143024    1.608    0.378
       107 -11.0676      6.1666     63.2310   1.1023635801e+02   6.2577427204e+01    0.3154022    0.2392915  58.91  0.002024706    1.822    0.451
       108  -9.7873      1.2949     59.7035   1.1146875494e+02   6.3572284328e+01    0.1900114   0.09947543 -65.16 0.0004964972    1.572    0.364
       109 -11.0532      4.2457     57.6043   1.0976739462e+02   6.3886291800e+01    0.2086768     0.136452 -53.24  0.001070296    1.156    0.135
       110 -10.1407     47.5577     68.8248   9.5053213677e+01   5.7956254107e+01     0.602591    0.2858805   4.94  0.002049022    4.539    0.780
       111 -10.1838     16.3431     67.6655   1.0713500600e+02   6.1015789987e+01    0.2364921     0.186205  72.54  0.001191425    1.734    0.423
       112 -10.1898     14.0410     63.6732   1.0712147829e+02   6.2036122782e+01    0.3344477    0.2023311   5.00  0.001338846    1.960    0.490
       113  -9.1034     96.9595     64.2180   7.5856617788e+01   5.1136640807e+01    0.1794607    0.1173976  42.53 0.0008361924    1.558    0.358
       114  -8.9734     72.7343     63.6795   8.3907616497e+01   5.5554363073e+01     0.142112     0.100336 -16.03 0.0004354513    1.557    0.358
       115 -10.3731     62.9012     62.3405   8.7094665341e+01   5.7312650920e+01    0.2871169    0.1747862 -37.26  0.001424803    1.497    0.332
       116 -10.2910     38.9606     61.7452   9.6350480178e+01   6.0394932371e+01    0.3048551    0.2108232 -43.68  0.001460052    1.210    0.174
       117  -9.6987     41.4886     58.5554   9.4322171406e+01   6.0786858069e+01    0.2081223    0.1361075 -25.33  4.65544e-05    1.502    0.334
       118 -13.1394     20.4675     58.2082   1.0303772542e+02   6.2772190594e+01    0.3908518    0.2598885 -64.33  0.001192493    1.515    0.340
       119  -9.5202    194.2243     58.8377   5.1715513207e+01   2.9273810451e+01    0.1977445    0.1644455  42.14 0.0007676713    1.333    0.250
       120 -10.7719     84.2308     57.0025   7.7515427491e+01   5.4862341106e+01    0.3774215    0.2405354 -53.40  0.001749391    1.961    0.490
       121 -11.0174     88.3834     52.8617   7.4607046435e+01   5.4829048590e+01    0.3454511    0.2720108 -10.66  0.001043317    1.282    0.220
       122  -9.5497     48.2692     58.6132   9.1576761767e+01   5.9997222192e+01    0.1837486    0.1583838  87.78 0.0008898167    1.726    0.421
       123 -10.5745      9.5212     59.4947   1.0799234422e+02   6.3205963500e+01    0.3317104     0.182979 -73.90  0.001748182    2.029    0.507
       124  -9.4916     11.6982     57.2994   1.0653070389e+02   6.3548523175e+01    0.1790111    0.1106426  10.61 0.0005442997    1.882    0.469
       125  -9.9343     71.5715     56.6174   8.1869340633e+01   5.7099267258e+01     0.258928    0.1263211 -43.02 0.0007021331    1.942    0.485
       126 -10.4048     33.3492     55.6217   9.6797784910e+01   6.2220324440e+01    0.4886626    0.1770439 -38.77  0.002019376    2.589    0.614
       127 -10.0648     26.7470     56.9574   1.0001185024e+02   6.2539532797e+01    0.2614585    0.1582418 -10.19  0.001406301    1.919    0.479
       128  -9.2685    104.2533     56.3571   7.0851662363e+01   5.1070030246e+01    0.2254129    0.1756538 -28.35 0.0006259966    1.268    0.211
       129 -11.0582    105.5984     52.6882   6.9139767582e+01   5.1404665690e+01    0.2537903     0.235564  12.67 0.0003017143    1.012    0.012
       130 -11.2489    114.8577     53.8776   6.6914577629e+01   4.9204642329e+01    0.3441349    0.3086928 -88.42  0.001247649    1.384    0.277
       131  -9.5084    165.1238     54.2875   5.5447491880e+01   3.7135859308e+01    0.2016269    0.1305061  68.61 0.0002686941    1.645    0.392
       132 -11.7804     65.4665     52.5765   8.2692320596e+01   5.8810160516e+01    0.4475989     0.222663  36.98  0.001456964    2.106    0.525
       133  -9.4574    149.6734     51.9921   5.7828965939e+01   4.1303423254e+01    0.1999507     0.195215 -70.28 0.0008231868    1.059    0.055
       134  -9.7157    121.8751     51.6802   6.4259759741e+01   4.7977674475e+01    0.1984597    0.1770639  46.70 0.0003382699    1.107    0.096
       135 -11.7795     77.7616     46.7893   7.5977878055e+01   5.7805709512e+01    0.4998187    0.3352331  -1.83  0.001327503    1.803    0.445
       136  -9.4410     82.4886     47.4155   7.4562929402e+01   5.6851529955e+01    0.1892877    0.1675147  -9.44 0.0001105444    1.036    0.034
       137 -10.4904      4.0587     50.6910   1.0818056569e+02   6.5353418873e+01    0.1934609    0.1324602 -21.22 0.0005326544    1.441    0.306
       138 -11.5885      9.1320     46.8282   1.0486297128e+02   6.5876433908e+01    0.4164066    0.2252751 -48.61  0.001846484    1.386    0.279
       139 -11.2289     16.0685     43.4149   1.0063495622e+02   6.6113049602e+01    0.4636022    0.3971069  78.93  0.003106994    1.787    0.440
       140  -9.3002    161.4562     49.9574   5.4829797643e+01   3.8691178862e+01    0.2097594    0.1437338 -33.04 0.0003440716    1.500    0.333
       141 -10.5734     38.6279     48.4381   9.2152139257e+01   6.3108910723e+01    0.2069262    0.1722016 -20.93 0.0001632751    1.044    0.043
       142 -10.1833    102.4487     47.7063   6.8258519148e+01   5.2873345125e+01    0.3911073    0.2062788  23.88 0.0006601184    2.909    0.656
       143  -9.6493     58.1469     48.3978   8.4000888763e+01   6.0660031090e+01    0.2617709    0.1860687 -58.92  0.001366316    1.929    0.482
       144 -10.1052     54.3266     47.0015   8.5018153880e+01   6.1449451607e+01    0.4252836    0.2153171 -18.40  0.001667597    3.100    0.677
       145  -9.6569    152.2201     44.6467   5.4967880023e+01   4.1744811148e+01    0.2090998    0.1870289 -70.54 0.0001549075    1.201    0.167
       146 -10.1302     30.9791     45.6953   9.4567106868e+01   6.4421447706e+01    0.2714008    0.1949528 -71.17  0.001133024    2.084    0.520
       147 -10.7107     26.1331     45.1092   9.6553950677e+01   6.4981386044e+01    0.3658399     0.164749 -56.68  0.001735235    2.242    0.554
       148  -9.5065    135.7529     46.5547   5.9106560984e+01   4.5495419913e+01    0.1952485    0.1399305  70.40 0.0009266951    1.580    0.367
       149  -9.6662     67.3306     46.8598   7.9840620784e+01   5.9545031399e+01    0.3674988   0.08805428  35.91  0.001098915    4.791    0.791
       150 -10.0528     14.2782     48.6653   1.0305244064e+02   6.5183280709e+01    0.1813506    0.1489183 -47.25 0.0004228791    1.134    0.118
       151 -12.3873    141.2427     41.5615   5.6221591384e+01   4.4873002514e+01    0.3147275    0.2720841 -79.35   0.00101717    1.321    0.243
       152  -9.4967    184.3480     41.7682   4.8527467727e+01   3.4143677886e+01    0.3479912    0.2028653 -83.32  0.001433591    2.401    0.584
       153 -10.4133     69.1710     42.0413   7.7265230153e+01   6.0064779212e+01    0.2046537    0.1858386  14.08  0.001268807    1.152    0.132
       154  -9.3347    154.5350     47.4746   5.5403646447e+01   4.0769577067e+01    0.2173304    0.2150581 -51.91 0.0005411473    1.046    0.044
       155 -10.5121     35.7785     41.1690   9.0785080679e+01   6.4787334170e+01    0.2723141    0.2055112 -28.35  0.001711683    1.084    0.078
       156 -10.8106      3.5169     42.1621   1.0615027789e+02   6.7122596675e+01    0.2210345    0.1570178 -18.14   0.00149763    1.366    0.268
       157 -10.3117     43.1801     40.0432   8.7069021810e+01   6.4144125435e+01    0.2651544    0.1729605 -32.43   0.00151354    1.319    0.242
       158  -9.3302    152.6074     39.1846   5.3152633418e+01   4.2394612405e+01    0.1822136    0.1400518 -13.03 0.0003681976    1.497    0.332
       159  -9.9884    128.1645     38.8440   5.8213364297e+01   4.8392148893e+01    0.2008018    0.1896574 -71.99 0.0003409177    1.192    0.161
       160 -11.5426    121.3768     37.3538   5.9311291708e+01   5.0186616108e+01    0.3835523      0.35417  37.06  0.001153509    1.020    0.020
       161 -10.1602     22.4446     38.0473   9.5817750845e+01   6.6649977924e+01    0.1877258    0.1602566  24.54 0.0005297647    1.456    0.313
       162 -11.1785      2.7137     35.1856   1.0447583575e+02   6.8537885231e+01    0.3682442    0.2369936 -65.20  0.002272442    1.661    0.398
       163 -10.7250      7.6130     34.0875   1.0168574531e+02   6.8474987111e+01    0.3998834    0.1957106  43.06  0.001929324    3.647    0.726
       164  -9.2529    223.7805     36.0638   4.1997733461e+01   2.5479718683e+01    0.1715672   0.09918799 -36.66  0.000377908    1.629    0.386
       165  -9.9375     89.9895     35.9661   6.7592540274e+01   5.7194070214e+01    0.2109377    0.1812885  14.18 0.0004521006    1.053    0.051
       166  -9.5962     35.1625     28.8748   8.6173381652e+01   6.7008622658e+01    0.1714326    0.1134155 -22.08 0.0003735346    1.314    0.239
       167 -10.7910     35.1595     22.1244   8.3208061054e+01   6.8088440677e+01    0.2325744    0.1887188  11.50  0.001053872    1.222    0.182
       168  -9.4821     36.4850     18.5821   8.0933467393e+01   6.8459047120e+01    0.1873771     0.150688  -7.23  0.000517323    1.054    0.051
       169 -11.8828     39.4795     32.8711   8.5848763129e+01   6.5834983447e+01    0.4745886    0.2977571 -31.49  0.001431807    1.367    0.269
       170 -12.0407     10.3638    246.3532   1.2735461543e+02   2.1616123944e+01    0.4911105    0.2197224  64.41  0.003063921    1.749    0.428
       171  -9.1481    185.4542     35.4436   4.6595344302e+01   3.4698977705e+01    0.1404069    0.1258831 -79.76 -6.956027e-06    1.059    0.056
       172 -10.3734     16.9702     32.7851   9.6568561406e+01   6.8072275071e+01    0.3844224    0.1532242  28.52  0.001918154    2.798    0.643
       173  -9.7966     20.3436     31.3371   9.4351884798e+01   6.8060554314e+01    0.2339087    0.1471824 -28.95  0.001056553    1.308    0.235
       174 -11.1112    127.9822     30.5916   5.5345597630e+01   4.9500973688e+01    0.3846491    0.3042914 -59.38  0.001513102    1.531    0.347
       175 -11.8668     10.0053     29.5056   9.8885156313e+01   6.9178996097e+01    0.4417008    0.2845775  50.61  0.001810765    2.947    0.661
       176 -10.5015     73.9636     33.8943   7.2182490762e+01   6.0520061753e+01    0.3909422    0.2605089 -51.72   0.00150709    2.136    0.532
       177  -9.0427    166.2918     31.2844   4.8296089345e+01   3.9986144662e+01    0.1386999    0.1024276  35.32 0.0002615399    1.536    0.349
       178  -9.2800    162.4757     31.5768   4.9010166574e+01   4.0903899509e+01    0.1417236    0.1269505  50.43 0.0001585899    1.109    0.098
       179  -9.3950    119.6119     29.7829   5.6985609999e+01   5.1571635388e+01    0.1838668    0.1268747 -38.36 0.0003920686    1.579    0.367
       180 -10.9166     68.8648     26.4819   7.0883478900e+01   6.2475494728e+01    0.3149691    0.2624565 -33.55  0.001038958    1.361    0.265
       181 -10.3654    113.6917     25.8842   5.6968454953e+01   5.3405179763e+01    0.2503784    0.2236489 -41.83 0.0007618919    1.275    0.216
       182 -10.6513    100.5419     26.2451   6.0553335995e+01   5.6287549682e+01    0.2969221    0.1910518  34.34 0.0008643582    1.492    0.330
       183 -10.1462     77.1789     26.8302   6.8060540278e+01   6.0928765223e+01    0.2926001    0.1820864  -8.56  0.001466986    1.810    0.448
       184 -10.4352     84.2815     21.4631   6.3405894389e+01   6.0238696738e+01    0.2998196     0.114471  47.43  0.001095283    2.368    0.578
       185  -9.4402    213.4727     26.4844   4.0779152972e+01   2.9052242154e+01     0.131385    0.1166302 -75.99 0.0004499636    1.023    0.022
       186  99.0000     18.5141     26.0037   9.3169315371e+01   6.9157105068e+01    0.2589315     0.110692 -30.40   0.00106617    2.224    0.550
       187 -10.7390     14.9090     21.5791   9.3222410661e+01   7.0214853356e+01    0.4005098    0.1955377  27.84   0.00191701    2.281    0.562
       188  -9.8381    229.6618    247.9753   8.6724610217e+01  -8.8484698124e+00    0.1559928    0.1232938  -1.70 0.0005262127    1.144    0.126
       189  -9.1209    154.3429     25.7384   4.8563878070e+01   4.3622610167e+01    0.1398706    0.1025849 -76.56 0.0006971055    1.595    0.373
       190 -10.1884    225.0728    247.3933   8.7449059923e+01  -8.1538687151e+00    0.2064484    0.1569597 -22.96  0.001430478    1.400    0.286
       191 -10.2286     59.4623     23.4634   7.3154400509e+01   6.4469005525e+01    0.2211564    0.1621053 -12.36 0.0006066921    1.236    0.191
       192 -10.2941     58.7780     19.7612   7.1731831415e+01   6.5078684629e+01    0.2896087    0.2015941  55.82  0.001588741    2.119    0.528
       193  -8.9934    124.0000     22.9456   5.3484343881e+01   5.1340213355e+01    0.2114199   0.07874803 -25.69 0.0007961165    2.899    0.655
       194 -10.6420     90.6924     22.4205   6.1837322456e+01   5.8826456845e+01    0.3122482    0.2229259  42.71  0.001247754    1.280    0.219
       195 -10.5925     75.0516     21.9813   6.6687861150e+01   6.1951929171e+01    0.2950317     0.206414   6.01 0.0005664128    1.449    0.310
       196 -10.8935     76.1262     17.8561   6.4490214009e+01   6.2249768272e+01      0.35335    0.1863191  37.60  0.000942315    1.739    0.425
       197 -10.9332     30.4877     21.2994   8.5102477389e+01   6.8756431127e+01    0.2305419    0.1837632   8.61 0.0009079867    1.217    0.178
       198  -9.8373      6.9752     20.9404   9.7232639198e+01   7.0912552625e+01    0.1388667    0.1367431  58.71 0.0004651977    1.608    0.378
       199 -10.7166     27.0719     34.8434   9.2425999925e+01   6.6822791469e+01    0.3031589    0.1653901 -25.61  0.001015279    1.760    0.432
       200  -9.7979     20.7300     17.5681   8.8379798059e+01   7.0355737465e+01    0.2388012    0.2153731   4.64  0.001778889    1.404    0.288
       201  -9.5577     58.0114    248.0369   1.1918752458e+02   1.6003694944e+01    0.1391138    0.1055227  61.60   0.00043164    1.011    0.011
       202  -9.1940     74.0512    243.7471   1.1588068723e+02   1.4723914004e+01    0.1471607   0.08300188  43.30 0.0004699466    1.475    0.322
       203 -10.1574    209.0332     18.4701   3.9266699294e+01   3.1024641502e+01    0.1936416    0.1182547  75.24 0.0005261992    1.540    0.351
       204  -9.7097     70.8420     18.2032   6.6473390491e+01   6.3191601944e+01    0.1799005    0.1305578  12.38 0.0007015018    1.290    0.225
       205 -10.1922    114.9154     17.2847   5.3418517314e+01   5.4071689979e+01    0.1937954    0.1501826  50.14 0.0003399214    1.154    0.133
       206 -10.2700     82.8609     16.1228   6.1538237565e+01   6.1135561077e+01    0.2196517    0.1729244   4.52 0.0004525555    1.199    0.166
       207  -9.5301    202.4430    240.4613   9.0506433229e+01  -4.0138943475e+00    0.1229408   0.09834587  17.27 0.0001332153    1.004    0.004
       208  -9.3731    170.9666    246.9886   9.7471347104e+01  -1.7971527006e-01    0.1919313    0.1323242   9.00  0.001068997    1.683    0.406
       209  -9.1352     27.2706     16.7063   8.4588729788e+01   6.9817873615e+01   0.09791446   0.09042871 -29.65 0.0001828673    1.516    0.340
       210  -9.6037    154.4825     14.9888   4.5153217869e+01   4.4737888665e+01    0.1826193    0.1356483 -24.28 -6.305407e-05    1.496    0.332
       211 -10.1398     35.8308    240.6112   1.2267822736e+02   1.9998044373e+01    0.1614753   0.07545019  48.95 0.0009449311    1.680    0.405
       212  -9.7924    117.6216    239.2068   1.0694753400e+02   9.3144096194e+00    0.1516906    0.1155724 -46.60 0.0006000649    1.618    0.382
       213  -9.8362     90.9898    237.1006   1.1199487967e+02   1.3619182958e+01    0.1630218    0.1456545 -16.96 0.0008034977    1.609    0.378
       214 -11.8990     25.6376    235.8643   1.2421088174e+02   2.2006784977e+01     0.282519    0.1915045  37.88  0.001030937    1.579    0.366
       215  -9.9440    249.2636    233.9585   8.1005758799e+01  -9.7512279591e+00     0.190797     0.135239  16.90 0.0004563298    1.165    0.141
       216 -10.3355    208.1578     13.0804   3.8026191594e+01   3.1821279319e+01    0.1934299    0.1647518 -71.50 0.0004804817    1.043    0.041
       217 -12.0727      4.0312    232.6565   1.2781055490e+02   2.4764649066e+01    0.2655242    0.1674123  65.80  0.001932868    1.169    0.144
       218 -13.0126      9.7350    227.4539   1.2657748012e+02   2.5227062641e+01     0.611527    0.3366601  67.70  0.001867898    1.422    0.297
       219  -9.5604    209.5112    229.5177   8.7412523933e+01  -3.5428604495e+00    0.1265604    0.1018249  12.93 -2.650859e-06    1.013    0.013
       220 -10.4966    140.5268    228.5647   1.0095145488e+02   7.6022666280e+00     0.242571    0.1292884 -51.78 0.0009842202    2.180    0.541
       221  -9.3833    104.4588     10.4346   5.3200948220e+01   5.7123003873e+01    0.1312284    0.1148883  39.10 9.278196e-05    1.027    0.026
       222 -10.0640    223.3050    226.6100   8.4357993567e+01  -5.1938834330e+00    0.2087934    0.1298592  -9.94 0.0005852951    1.721    0.419
       223 -10.9158      1.4684    224.9459   1.2790814471e+02   2.6480344916e+01    0.3103325    0.1048967 -86.98  0.000996732    2.645    0.622
       224 -11.1599      2.4874    220.4625   1.2752260140e+02   2.7267525122e+01    0.3247221     0.139037  85.20   0.00183256    2.015    0.504
       225  -9.1634    123.3245    222.2947   1.0366822183e+02   1.1507256522e+01     0.124038     0.100123   4.37 0.0003310183    1.621    0.383
       226  -9.0780     41.3329    222.3148   1.2041708418e+02   2.2933312414e+01    0.1030492   0.08913316 -44.33 0.0007046235    1.685    0.406
       227  -8.9817    126.6565    220.7358   1.0275704939e+02   1.1266380560e+01    0.1257328   0.09891898  10.38 0.0003928238    1.601    0.375
       228 -11.0822      8.9880    218.0259   1.2623088697e+02   2.7158620454e+01    0.2099946     0.202905 -39.51  0.001711245    1.614    0.381
       229 -10.0479    205.6503    212.4403   8.5215728476e+01  -3.9823598123e-01    0.2297606    0.1547977 -27.89 0.0008192976    1.509    0.337
       230  -8.9910    243.3394    230.3015   8.1406854923e+01  -8.5089596192e+00    0.1252624   0.07501348   4.81 0.0007037347    1.669    0.401
       231  -9.0143    249.3585    211.3185   7.7006343624e+01  -6.8556632696e+00     0.131653   0.07917067   2.40 0.0007044261    1.759    0.432
       232  -9.2092    209.6552    211.2958   8.4238925034e+01  -8.6517928200e-01    0.1179923    0.1039177  62.14 0.0007032615    1.668    0.401
       233  -8.7534     56.3023    210.7039   1.1645269662e+02   2.3540301471e+01    0.1290202   0.07711969  66.11 0.0002955286    1.578    0.366
       234 -10.0751     20.2057    209.8631   1.2364677682e+02   2.7749586493e+01    0.1844939    0.1167715  67.24 0.0008074303    1.290    0.225
       235  -9.3942     47.8521    229.8715   1.1973022555e+02   2.0668137117e+01    0.1627972    0.1046681  65.67 0.0004321332    1.300    0.231
       236  -9.7647     10.4772    203.4945   1.2514040984e+02   3.0006046668e+01    0.1172272   0.08489342  75.77 7.171279e-05    1.055    0.052
       237  -9.1785    193.4626    201.5727   8.5661350808e+01   3.3959211094e+00    0.1359492    0.1185028  13.33 9.107269e-05    1.008    0.008
       238 -10.0448     23.5418    196.8163   1.2208514911e+02   3.0195306272e+01     0.210886    0.1745713 -52.96  0.001454507    1.556    0.357
       239 -10.8313     13.8142    192.5646   1.2378455007e+02   3.2041840866e+01    0.2277206    0.1386432  71.04 0.0005074558    1.394    0.283
