#   1 NUMBER                 Running object number                                     
#   2 MAG_AUTO               Kron-like elliptical aperture magnitude                    [mag]
#   3 X_IMAGE                Object position along x                                    [pixel]
#   4 Y_IMAGE                Object position along y                                    [pixel]
#   5 X_WORLD                Barycenter position along world x axis                     [deg]
#   6 Y_WORLD                Barycenter position along world y axis                     [deg]
#   7 A_WORLD                Profile RMS along major axis (world units)                 [deg]
#   8 B_WORLD                Profile RMS along minor axis (world units)                 [deg]
#   9 THETA_WORLD            Position angle (CCW/world-x)                               [deg]
#  10 FWHM_WORLD             FWHM assuming a gaussian core                              [deg]
#  11 ELONGATION             A_IMAGE/B_IMAGE                                           
#  12 ELLIPTICITY            1 - B_IMAGE/A_IMAGE                                       
         1 -16.4672    146.3104    146.1417   1.0094465790e+02   2.3554358972e+01     2.656172     1.572977 -82.08  0.006439549    6.930    0.856
         2 -14.7344    176.7776     22.9800   6.3561495519e+01   3.7400181827e+01    0.7663367    0.6311261  84.75  0.004946903    1.115    0.103
         3 -12.2195     99.3524    180.7548   1.1967621078e+02   2.4325266507e+01    0.2414621    0.2249317 -39.60  0.000574517    1.128    0.114
         4 -15.0516     36.2971    111.0146   1.2363319665e+02   4.9077501072e+01     2.991476     1.531748  31.20   0.01489974    2.201    0.546
         5 -18.9973     68.5623     88.7439   1.0793443900e+02   4.9899941898e+01      19.8828     1.450341 -48.51    0.0316546   15.426    0.935
         6  99.0000     49.8845    152.9864   1.2750264665e+02   3.7902402167e+01     18.30653      10.9639  64.15   0.07761703    2.299    0.565
         7 -13.6981    151.0722    180.0616   1.0716788355e+02   1.5212248887e+01    0.4339954    0.3109698 -64.48  0.001056565    1.713    0.416
         8 -14.1845    150.2959    173.5805   1.0601854473e+02   1.6762187708e+01     0.740007    0.2802838  50.16  0.002343262    3.355    0.702
         9 -13.6610    143.6111    175.8069   1.0804261206e+02   1.7556022564e+01    0.4927949    0.3198911 -63.24  0.002137466    1.911    0.477
        10 -12.1959    154.0990    213.7430   1.1284299707e+02   7.6781403406e+00    0.2350898    0.1976062 -35.45 0.0002472731    1.249    0.199
        11 -10.7883    144.5220    213.5615   1.1490818750e+02   9.3934519214e+00    0.1393322    0.1300206  38.31 0.0001176602    1.033    0.032
        12 -11.5045    102.3406    235.9929   1.2736748896e+02   1.1843011869e+01    0.1865042     0.153244  44.47  0.001136135    1.123    0.110
        13 -12.2851    107.9201    203.6371   1.2148647229e+02   1.7742664088e+01     0.298156    0.2211545 -46.94  0.001256873    1.425    0.298
        14 -13.0339    101.5751    199.4140   1.2227234830e+02   1.9711227894e+01    0.4613587    0.2970583  68.15    0.0020925    2.022    0.505
        15 -12.8918    139.7642    168.2792   1.0740063901e+02   1.9953931919e+01    0.2605257    0.2362516  79.34 0.0005606931    1.252    0.201
        16 -12.4298     98.7358    167.3605   1.1738134893e+02   2.7552929393e+01    0.3856944    0.3506796 -41.19  0.001425486    1.115    0.103
        17 -12.0780    123.6573    201.9130   1.1759763140e+02   1.5465279277e+01    0.4783984    0.2470469 -70.92   0.00129825    3.380    0.704
        18 -11.4899    110.2303    167.2919   1.1446552062e+02   2.5614738311e+01    0.2997796    0.1946084  48.43  0.001361236    1.629    0.386
        19 -12.6440    120.1480    163.6636   1.1124581057e+02   2.4679891844e+01    0.3504311     0.256422  64.83  0.001618802    1.705    0.413
        20 -15.1238    133.8979    145.4086   1.0381528401e+02   2.6204118019e+01     1.826295      0.46295 -53.43  0.004032786    6.467    0.845
        21 -12.8086    113.0356    227.5544   1.2396660022e+02   1.1854649059e+01    0.2933286    0.2180336 -43.48  0.001231886    1.533    0.348
        22 -15.2897    127.2892    124.7972   1.0056078217e+02   3.2048575631e+01     0.898326    0.5448273 -28.39  0.002243575    2.012    0.503
        23 -14.8491    117.3020    132.9400   1.0515279857e+02   3.2209833196e+01    0.7595173    0.4673479 -50.11  0.002141053    1.614    0.381
        24 -15.2369    121.1437    126.1705   1.0249938030e+02   3.2965335732e+01    0.7606059    0.4847017 -32.16  0.002960109    1.727    0.421
        25 -11.9205    102.6830    160.9493   1.1512533295e+02   2.8394746129e+01    0.3626823    0.2101305 -34.84 0.0009436171    2.115    0.527
        26 -11.8331    104.3315    157.3542   1.1397357473e+02   2.8953868684e+01    0.2890771    0.2223096 -25.66  0.001409311    1.516    0.340
        27 -11.0849     99.5499    192.6707   1.2165480022e+02   2.1557289430e+01    0.4919798    0.2058769  51.16 0.0007070119    2.894    0.654
        28 -13.1581    148.6038    189.4965   1.0960277310e+02   1.3655687147e+01    0.5388944    0.2896835 -44.32  0.001510726    1.897    0.473
        29 -13.1765    188.3390    153.3209   9.3159843693e+01   1.3448140244e+01    0.3188155    0.2695994  82.35  0.001618203    1.535    0.348
        30 -15.1024      8.2735    142.8905   1.3685211419e+02   4.4172513010e+01     1.368212    0.7667184 -86.17  0.006384461    1.900    0.474
        31 -12.4266    107.9994    151.1529   1.1172227637e+02   2.9758483710e+01    0.2990641     0.226664 -48.10  0.000352374    1.274    0.215
        32 -13.9011    110.2589    147.2514   1.1028584962e+02   3.0258409566e+01     0.681459    0.3974597 -42.98  0.001926385    1.704    0.413
        33 -12.2358    110.2603    222.2048   1.2379377805e+02   1.3396013408e+01    0.3361324    0.1690026 -56.52  0.001531902    2.102    0.524
        34 -13.2749    161.8084    149.4889   9.8081054707e+01   1.9662653437e+01    0.2959457    0.2452658 -77.61   0.00078906    1.518    0.341
        35 -12.9634    174.5673    149.2037   9.5164629857e+01   1.7096087757e+01    0.2837935     0.220136  43.42 0.0008209208    1.323    0.244
        36 -13.3298     91.3820    186.1182   1.2252191889e+02   2.4356010071e+01    0.6052237    0.4000494 -71.79  0.002927326    1.658    0.397
        37 -13.4201     97.8494    144.1403   1.1290382542e+02   3.3144544895e+01    0.3357821    0.2855735 -26.11 0.0009087899    1.244    0.196
        38 -14.2649    106.3127    131.0660   1.0765017263e+02   3.4665227641e+01    0.5846685    0.4543314  77.87  0.002517023    1.781    0.438
        39 -13.3588    160.3208    127.5821   9.3236050941e+01   2.4568724186e+01     0.416869    0.2614233 -52.59  0.001637318    1.729    0.422
        40 -13.8392    110.2535    121.4222   1.0423352009e+02   3.6081923960e+01    0.3713261    0.3173337 -13.38 0.0005869201    1.245    0.197
        41 -14.2319    114.7234    116.8840   1.0187624320e+02   3.6214741492e+01     0.427659    0.2908174 -37.92   0.00119329    1.457    0.314
        42 -12.7344      3.1255    119.8691   1.3504532271e+02   4.9722881524e+01    0.5062217    0.3308591 -53.81  0.003070958    1.216    0.177
        43 -13.5290     99.2201    112.0024   1.0491414351e+02   4.0129525638e+01    0.4246464    0.3275874 -62.23  0.001604486    1.514    0.339
        44 -11.2247    231.1306    113.8352   7.6517048541e+01   1.2256086329e+01    0.2076549    0.1767841 -62.95 0.0008016663    1.189    0.159
        45 -12.0013    168.6645    113.6973   8.7959690484e+01   2.5532339556e+01    0.3240308     0.250575 -79.33  0.001109359    1.718    0.418
        46 -15.6878    135.4349    124.2852   9.8364331348e+01   3.0504419901e+01     2.868467    0.4206684 -46.88  0.005729586    7.674    0.870
        47 -14.2838    114.0425    110.3554   1.0036911313e+02   3.7723112884e+01    0.4502779     0.324192 -56.13  0.001201717    1.558    0.358
        48 -11.5616    152.3028    217.9733   1.1396609051e+02   7.1615651400e+00    0.1853508    0.1714682 -36.45 0.0003204934    1.146    0.127
        49 -12.4619      2.1105    103.8426   1.3279538001e+02   5.3305100640e+01    0.6474422    0.1976795 -67.70   0.00262038    3.061    0.673
        50 -15.3172     13.9153     84.5233   1.2520177872e+02   5.6628855563e+01     1.355795     1.189308  15.77  0.007247487    1.366    0.268
        51 -14.0327     31.7621     81.9946   1.1844305378e+02   5.5663958687e+01    0.7290593    0.5085274  45.74  0.004203987    1.992    0.498
        52 -13.7614    151.0136     65.2585   7.8956426146e+01   3.7950257857e+01    0.3981366    0.3480043  54.82  0.000859888    1.090    0.083
        53 -14.7086    162.4317     51.7845   7.3118067678e+01   3.7253069549e+01    0.9126776    0.7695919  -7.78  0.003507714    1.409    0.290
        54 -13.2731    167.4307     42.9820   6.9958288887e+01   3.7242917673e+01    0.3836341     0.328324  64.19 0.0008459143    1.063    0.059
