#   1 NUMBER                 Running object number                                     
#   2 MAG_AUTO               Kron-like elliptical aperture magnitude                    [mag]
#   3 X_IMAGE                Object position along x                                    [pixel]
#   4 Y_IMAGE                Object position along y                                    [pixel]
#   5 X_WORLD                Barycenter position along world x axis                     [deg]
#   6 Y_WORLD                Barycenter position along world y axis                     [deg]
#   7 A_WORLD                Profile RMS along major axis (world units)                 [deg]
#   8 B_WORLD                Profile RMS along minor axis (world units)                 [deg]
#   9 THETA_WORLD            Position angle (CCW/world-x)                               [deg]
#  10 FWHM_WORLD             FWHM assuming a gaussian core                              [deg]
#  11 ELONGATION             A_IMAGE/B_IMAGE                                           
#  12 ELLIPTICITY            1 - B_IMAGE/A_IMAGE                                       
         1 -13.2981    228.2208     91.3284   4.6928382476e+01   1.7051381649e+01     6.290683     1.645801 -52.22   0.01257868   10.566    0.905
         2 -15.0935    244.4795     63.9648   3.9147116507e+01   1.8099614834e+01     5.609096     3.059621 -31.19   0.01984979    2.005    0.501
         3 -13.3501    219.3309     33.8334   3.5382262869e+01   2.7280426641e+01     2.768029      1.40766 -32.40    0.0141422    2.103    0.524
         4 -13.0608    237.4869     34.4152   3.3816633608e+01   2.3464574192e+01     1.120914    0.9791567 -25.19  0.003989145    1.509    0.337
         5 -13.6034    235.9626     55.6789   3.8329748875e+01   2.0944366849e+01     1.323593    0.7930847 -47.30  0.004110633    1.425    0.298
         6  -9.1303    201.2451     18.2676   3.3714651839e+01   3.3046314317e+01    0.3801337    0.2510217 -84.54  0.002237803    1.401    0.286
         7  -8.0718    200.0321     13.8923   3.2839515530e+01   3.3786415500e+01    0.2368257    0.1652975  11.56  0.001238786    2.591    0.614
         8 -13.1013    246.6921     19.2331   3.0124878715e+01   2.3484050330e+01     2.183295    0.6913534 -60.47  0.008842411    3.688    0.729
         9 -10.3504    141.8472     15.6106   4.0472543609e+01   4.7180267361e+01    0.5178934     0.251539 -14.54  0.001865805    2.957    0.662
        10  -9.6043    143.0000      9.5171   3.8481253116e+01   4.7472414863e+01    0.3436005    0.1974844 -12.20  0.001740391    2.363    0.577
        11 -11.4649    118.6302      9.4440   4.2565209125e+01   5.3216629313e+01    0.6767714    0.5807012  75.11  0.004358455    1.152    0.132
        12 -10.2077    248.5968      2.6975   2.6940573195e+01   2.4935825240e+01    0.4265035    0.2642311  77.50  0.002303598    1.534    0.348
        13  -7.4102    164.9899      7.6854   3.5040581675e+01   4.2438218702e+01    0.1631763    0.1318945  80.27 0.0003090433    1.044    0.042
        14  -8.5999    180.9777      5.9516   3.2845002582e+01   3.8887032974e+01     0.188953    0.1550562  84.90 0.0004690263    1.034    0.032
        15  -7.5181    210.3242      1.2818   2.9211397286e+01   3.2816386463e+01     0.108007   0.08128935  55.18  0.000699841    1.594    0.373
        16  -8.8349    171.0442    201.0176   8.1375789263e+01   7.0189515320e+00    0.2053061    0.1864495   1.35            0    1.022    0.022
        17  -9.2627     32.3503    197.2202   1.1437052691e+02   2.8631975585e+01    0.2077886    0.1976722 -63.32  0.000817288    1.241    0.194
        18  -8.8508    248.3176    195.4370   6.5156653563e+01  -3.8745719696e+00     0.219875    0.1130222  27.87  0.001128792    2.133    0.531
        19 -10.1971    249.0466    186.4616   6.3346307860e+01  -2.5596538125e+00    0.4158853    0.2790915 -23.28  0.002018512    1.267    0.211
        20  -9.6980    246.3380    182.6754   6.3076227837e+01  -1.5750059332e+00    0.1999777    0.1835706  24.49  0.001347974    1.361    0.265
        21  -8.6037    235.4000    188.2014   6.6019808583e+01  -9.1199092659e-01     0.178383    0.1103503 -43.20 0.0009241177    1.632    0.387
        22  -7.6643     98.3170    187.2592   9.6572883754e+01   2.2328598517e+01     0.140291    0.1138039 -10.98 0.0003063202    1.540    0.351
        23  -7.2744    103.7330    183.3178   9.4520463848e+01   2.2396000191e+01    0.1467491    0.1126058  73.60 0.0004916933    1.554    0.357
        24  -8.7149     34.8335    181.7302   1.1227054430e+02   3.2093335365e+01    0.2009713    0.1591586 -67.18 0.0003822017    1.204    0.169
        25  -7.6330    156.5018    180.0338   8.0694099439e+01   1.3870470930e+01    0.1981239    0.1362009 -75.45  0.000807995    2.416    0.586
        26  -9.6569    222.0713    177.5416   6.6341357785e+01   2.9397364205e+00     0.355022    0.2745026  69.52  0.001394681    2.243    0.554
        27  -9.9767    249.7433    176.5276   6.1330950095e+01  -1.0610452960e+00    0.3572333     0.221988 -18.08   0.00193644    1.630    0.386
        28  -9.8319    226.1472    172.4995   6.4586063328e+01   3.1772462034e+00    0.4227294    0.1878213  39.63  0.001854308    2.467    0.595
        29  -9.6697    230.4128    167.2741   6.2773280378e+01   3.4117080418e+00    0.2346508    0.2281436 -44.58  0.000979212    1.294    0.227
        30 -10.5809    241.5228    163.8484   6.0192053014e+01   2.2583265841e+00    0.5366739    0.2754977 -18.96  0.002211293    2.827    0.646
        31 -11.5668      6.1677    156.0386   1.1721013031e+02   4.0913214491e+01    0.9168368    0.4873217 -80.88  0.004448494    1.618    0.382
        32 -10.8851     11.7518    155.1272   1.1562504799e+02   4.0737982840e+01    0.7461523    0.3091735 -82.08  0.003206091    2.316    0.568
        33 -13.0698    173.9817     85.1687   5.4328060185e+01   2.9823346997e+01     4.161748    0.9383656  48.97    0.0115921    4.448    0.775
        34 -11.2337     54.5711    140.5454   1.0114260268e+02   4.0316352443e+01    0.7678615    0.5262076 -66.71  0.002016066    1.373    0.272
        35 -11.8550     46.5322    141.9711   1.0385219011e+02   4.0884731372e+01     1.066414    0.8556629 -38.72  0.004412112    1.306    0.234
        36  -8.2891    183.7096    144.9825   6.7012400182e+01   1.6056780447e+01    0.2487455    0.2036649  20.96 0.0005723175    1.322    0.244
        37  -8.6995    121.6853    145.0158   8.2161526618e+01   2.8458113660e+01    0.2437973    0.2165403  31.28 0.0005065366    1.136    0.120
        38 -10.2534     38.8625    145.0111   1.0664007429e+02   4.0922555092e+01     0.362114    0.2897854  -4.13 0.0009008381    1.530    0.346
        39  -8.5608    204.5658    153.0582   6.4568150910e+01   1.0463519049e+01    0.3807178     0.239525 -76.75  0.001232333    4.668    0.786
        40  -9.9908    178.1686    148.0543   6.8901701159e+01   1.6524241395e+01    0.2790415    0.2446238 -35.67 0.0002403887    1.090    0.082
        41  -7.8853    230.1871    135.1935   5.6145280444e+01   9.1244835672e+00    0.1795097    0.1554845 -65.05  0.001055084    1.339    0.253
        42  -8.0090    207.5055    135.5312   6.0155804754e+01   1.3255157648e+01    0.1439684    0.1309817 -35.79  0.000190765    1.027    0.026
        43  -7.4097     84.5917    135.5260   9.0871971997e+01   3.7370794934e+01    0.1523117    0.1424623 -42.86 0.0002118191    1.039    0.037
        44  -9.2679    197.5395    133.5994   6.1605965098e+01   1.5575208230e+01    0.3672451    0.3128252  89.68  0.001934209    1.497    0.332
        45  -8.2161    197.1352    129.1580   6.0664985740e+01   1.6518130882e+01    0.2032287    0.1746507 -70.06  0.001075145    1.345    0.257
        46  -8.2423    160.9397    128.9455   6.8313189283e+01   2.4105099748e+01    0.3251778    0.2204938 -60.73  0.001389315    1.788    0.441
        47  -9.0339    184.9855    124.7527   6.2040229121e+01   1.9880850281e+01    0.3797043    0.1932836 -55.25  0.001407675    2.477    0.596
        48  -7.9806    135.3760    121.5534   7.2822666093e+01   3.1154399710e+01     0.316383    0.1402434 -57.81 0.0009526886    3.356    0.702
        49  -8.6105    227.1968    119.5829   5.3264708198e+01   1.2429364231e+01    0.2610092    0.1870255 -58.13 0.0007168704    1.502    0.334
        50 -10.7629     67.6098    143.1673   9.7606564883e+01   3.7955062033e+01    0.9240025       0.6768 -88.40  0.004441568    1.606    0.377
        51  -7.9385    127.3627    119.2456   7.4387626104e+01   3.3348748355e+01    0.2215756    0.1473717 -55.39 0.0004383798    1.629    0.386
        52  -9.0272    231.9071    117.0095   5.1980508371e+01   1.2003546072e+01     0.452117     0.153371 -45.58  0.001689396    2.700    0.630
        53  -8.0817     70.4365    113.6543   9.0511587343e+01   4.4983929353e+01    0.2006758    0.1316075 -44.83 0.0009205639    1.439    0.305
        54  -8.9988    210.1136    108.5594   5.3569873644e+01   1.7731632977e+01    0.3912816    0.2035847 -56.04  0.001591893    2.326    0.570
        55  -8.3660    206.0220    110.0467   5.4609098550e+01   1.8301014247e+01    0.2260805    0.1681857 -72.61 0.0005708388    1.675    0.403
        56  -9.6073    114.2384    108.6177   7.5301665578e+01   3.8434926893e+01    0.3018924    0.2843032  -7.45  0.001580522    1.064    0.060
        57 -10.6447    114.6396    103.7307   7.3849743863e+01   3.9436112695e+01    0.7972411     0.335361  29.34  0.002296841    3.923    0.745
        58 -10.7317    124.1508    103.8516   7.1174511662e+01   3.7423130281e+01    0.4926381    0.3799155  65.61  0.001765729    1.578    0.366
        59  -8.7822    147.9595    106.3153   6.5644184758e+01   3.1702068539e+01    0.2952607     0.228926 -30.89 0.0009045155    1.351    0.260
        60 -10.2919    184.8754    100.6043   5.6174467408e+01   2.4560684226e+01    0.8523655    0.4809574 -38.56  0.002042187    1.716    0.417
        61  -9.7378    181.7870     93.8603   5.5069770743e+01   2.6487929972e+01    0.3414904    0.2802969  80.88 0.0003972904    1.365    0.267
        62 -10.7388    134.2136    101.9558   6.7935914940e+01   3.5649020276e+01    0.6525093    0.3853382 -53.46  0.002091145    1.908    0.476
        63  -8.6207    104.6750    102.9323   7.6609932888e+01   4.1608653265e+01    0.3906026    0.2090013  21.59  0.001325477    2.960    0.662
        64  -9.1660    157.8827    102.5173   6.2298980213e+01   3.0245857581e+01    0.5005991    0.1453055  46.54  0.001484323    3.482    0.713
        65 -10.6116    173.0121     96.7668   5.7536821736e+01   2.7931600862e+01    0.8244108    0.3668355  47.58  0.003134294    2.310    0.567
        66 -10.3484    141.9160     96.7613   6.4535394472e+01   3.4997426622e+01    0.3763771    0.3253396  64.96  0.001006041    1.245    0.197
        67  -7.6803    231.3355    248.7372   7.7505731352e+01  -9.5064487560e+00    0.1007716   0.08661561  27.68 0.0002249495    1.582    0.368
        68 -10.1074     88.6517     95.3149   7.9583719130e+01   4.6308649702e+01    0.2592893    0.2466837  -9.52 0.0002613521    1.016    0.016
        69  -7.3389     99.9946     94.9985   7.5824156405e+01   4.4262472295e+01    0.1783794    0.1686074 -20.04            0    1.026    0.025
        70 -10.6231    156.5700     94.3187   6.0403653848e+01   3.2144362511e+01    0.3619018    0.3180838 -35.73  0.000593856    1.147    0.128
        71  -7.2174    192.5206     66.4830   4.6340348420e+01   2.8664688912e+01    0.2153165    0.1193399 -46.68 0.0009141814    1.733    0.423
        72  -8.6750    193.4500     73.5072   4.7932556611e+01   2.7345054445e+01    0.3969713    0.2600346 -21.62  0.001610869    1.984    0.496
        73  -7.5735    193.3416     69.7056   4.7010568963e+01   2.7975140616e+01    0.1880446    0.1361237  87.23 0.0005308624    1.549    0.355
        74  -9.1433    136.5717     73.2977   5.9097745763e+01   4.0631756180e+01    0.4201814    0.1758958 -45.15  0.001221534    2.572    0.611
        75  -8.6424     18.0373    240.9755   1.2054687127e+02   2.0522016570e+01    0.1699744     0.128302  67.00  0.001192437    1.030    0.029
        76  -9.1591    191.2910    236.4767   8.3220170313e+01  -2.4264545876e+00    0.2694979    0.2424598  74.62 0.0008041301    1.819    0.450
        77 -10.0994    206.3006     64.9164   4.3955350992e+01   2.5824083985e+01    0.2904696    0.2418687  78.19  0.001354376    1.194    0.163
        78 -10.2355    211.3886    230.7439   7.8269853143e+01  -4.3508922645e+00    0.2314659    0.1942587 -13.15 0.0004282867    1.156    0.135
        79  -9.4039    172.7851     65.0896   4.9238780831e+01   3.3454302175e+01    0.2814231    0.1915095 -60.17  0.001162449    1.623    0.384
        80  -8.4814    158.0178     62.6588   5.1320321230e+01   3.7333583085e+01    0.2039693    0.1845565  66.41 0.0005981248    1.058    0.055
        81  -9.1776    135.4058     62.3054   5.6056621652e+01   4.2746092796e+01    0.2676672    0.1452646 -29.86 0.0007622202    2.080    0.519
        82 -10.1458    198.2703     57.8295   4.3379097484e+01   2.8664507995e+01    0.6141447    0.3994999 -87.69  0.002448939    1.795    0.443
        83  -9.9096    199.1227     50.7392   4.1556946834e+01   2.9484357586e+01    0.5845749    0.2630143 -27.99  0.002228912    2.777    0.640
        84  -8.2441    187.1246     59.6205   4.5452952948e+01   3.0943421185e+01     0.198295    0.1175015  50.95 0.0009379773    1.766    0.434
        85  -8.2676    181.8624     56.9300   4.5583748432e+01   3.2562660952e+01    0.1979147    0.1847007  37.12 0.0004699821    1.241    0.194
        86 -10.8977    159.7599     49.1670   4.7190809693e+01   3.8913144381e+01    0.5590295    0.3650434 -72.12  0.001865963    1.970    0.492
        87 -10.3154    152.2051     46.1683   4.7709533867e+01   4.1138147099e+01    0.3248483    0.2769837  73.86 0.0007988937    1.119    0.106
        88 -10.4261    140.5366     39.7730   4.8040712237e+01   4.4780994608e+01    0.3849328     0.236027 -25.67  0.001867704    1.882    0.469
        89  -9.8016    189.3262     37.7193   3.9669610299e+01   3.3454038179e+01    0.4623688    0.3225905  29.60  0.002365151    2.146    0.534
        90 -10.0193    121.0991     38.3528   5.1759630278e+01   4.9551502677e+01    0.4164644    0.2132768 -29.44            0    2.162    0.537
        91 -11.1017    133.9923     37.9364   4.8792954898e+01   4.6574341840e+01    0.4583727    0.3820928  51.63  0.001620724    1.098    0.089
        92  -9.2055    179.2308    230.6113   8.4749776016e+01   3.1109483024e-01    0.2846977    0.2130677  36.16  0.001240024    1.330    0.248
        93  -9.1110    180.6436    226.1252   8.3710100811e+01   8.6592556366e-01    0.2336365    0.1991355  16.10  0.000452705    1.060    0.057
        94 -10.9100      5.9454    226.2016   1.2210120519e+02   2.4725351338e+01    0.4394472    0.2032318 -88.89  0.002385663    1.958    0.489
        95  -9.0029    198.3822     26.7678   3.5967946493e+01   3.2724152518e+01    0.2652801    0.2554992 -72.76  0.001061729    1.218    0.179
        96  -8.5248    199.4217     22.7616   3.4927574994e+01   3.2952177756e+01    0.2379001    0.1833514 -40.89  0.000561076    1.360    0.265
        97  -7.0516    101.3365    223.6794   1.0107444966e+02   1.3678804182e+01     0.143243   0.09483044  61.67 0.0005664488    1.708    0.414
        98  -8.4398    133.7417     25.9956   4.5081482417e+01   4.8041612254e+01    0.1588486    0.1178999 -27.03  0.000475747    1.527    0.345
        99  -8.4763    115.1250     24.1639   4.8317349431e+01   5.2605922636e+01    0.1686681    0.1514468 -80.04 0.0003232268    1.292    0.226
       100  -8.1034    187.8874     20.8633   3.5723052854e+01   3.5779922271e+01    0.1780019    0.1582782  72.87 0.0003463315    1.160    0.138
       101  -8.8428    233.9867     20.0293   3.1224666815e+01   2.5895753164e+01    0.1756002    0.1384581 -73.12            0    1.018    0.017
       102  -9.5888    134.6843     19.9985   4.3027178476e+01   4.8450560941e+01    0.2481366    0.1770253 -89.16  0.001345143    1.582    0.368
       103  -7.1230    191.3296    222.6841   8.0900241980e+01  -1.6083016179e-01    0.1209262    0.1059399  60.32 0.0007045775    1.680    0.405
       104  -8.6643    181.1983    221.5673   8.2822164788e+01   1.5742384205e+00    0.2359704    0.1775913 -25.30 0.0007566611    1.324    0.245
       105 -10.6252     68.3044    132.1666   9.5262959108e+01   4.0665181363e+01    0.8655049    0.4161343 -56.43  0.003500234    1.912    0.477
       106  -7.4891    208.6643    219.2662   7.6810061323e+01  -2.1475663997e+00    0.1141352    0.1022059  48.29 0.0004963875    1.589    0.370
       107 -11.5323    250.0604     86.0882   4.3045381608e+01   1.3743465623e+01    0.5664878    0.1992895 -43.02  0.001013342    2.297    0.565
       108 -10.2401    148.1852    215.2412   8.9013584815e+01   8.0200353906e+00    0.2432554    0.2270854 -27.72 0.0003755206    1.144    0.126
       109  -8.2442    100.1028    210.3443   9.9576421506e+01   1.6741480449e+01    0.2010874    0.1817375 -48.23 0.0002929087    1.211    0.174
       110  -9.5068    123.9993    205.9963   9.3173296274e+01   1.3901882938e+01    0.2007416    0.1864783  34.44  -0.03019764    1.011    0.011
