#   1 NUMBER                 Running object number                                     
#   2 MAG_AUTO               Kron-like elliptical aperture magnitude                    [mag]
#   3 X_IMAGE                Object position along x                                    [pixel]
#   4 Y_IMAGE                Object position along y                                    [pixel]
#   5 X_WORLD                Barycenter position along world x axis                     [deg]
#   6 Y_WORLD                Barycenter position along world y axis                     [deg]
#   7 A_WORLD                Profile RMS along major axis (world units)                 [deg]
#   8 B_WORLD                Profile RMS along minor axis (world units)                 [deg]
#   9 THETA_WORLD            Position angle (CCW/world-x)                               [deg]
#  10 FWHM_WORLD             FWHM assuming a gaussian core                              [deg]
#  11 ELONGATION             A_IMAGE/B_IMAGE                                           
#  12 ELLIPTICITY            1 - B_IMAGE/A_IMAGE                                       
         1 -15.8238     69.1787    144.3651   9.9399489074e+01   3.7321395413e+01     5.821539      2.68776  62.02   0.01678173    4.773    0.790
         2 -13.9236    197.6795     43.0633   4.1147341939e+01   3.0577227022e+01       0.9491    0.8682517 -60.17  0.003018433    1.101    0.092
         3 -14.1719    206.4200     34.5854   3.8038907375e+01   2.9662943314e+01    0.7345181    0.7056223  19.91  0.001313924    1.351    0.260
         4 -14.0133    231.2964      8.0669   2.9955361663e+01   2.7301328409e+01    0.8393965      0.67182 -72.77  0.004159775    1.034    0.033
         5 -13.4208     57.3920      3.7834   5.7855249310e+01   6.6932133179e+01    0.7862988    0.2263577  43.96   0.00330497    2.738    0.635
         6 -10.8789     88.9326    210.3686   1.0430176855e+02   1.8314408078e+01    0.2470337     0.196798 -73.52 0.0004919172    1.307    0.235
         7 -16.5360     57.7458    184.0669   1.0857154656e+02   2.8812040370e+01     11.22082     4.663165  58.55   0.04013376    3.313    0.698
         8 -11.4277     60.2375    197.7450   1.0958241076e+02   2.5214380331e+01    0.2507064    0.2149103  51.54 0.0002885332    1.128    0.113
         9 -15.3196     44.3200    194.8322   1.1306519114e+02   2.7850214204e+01     6.201494     1.225399  49.43   0.01644543    6.407    0.844
        10 -11.6654    149.4869    191.2647   8.6787049267e+01   1.2420447271e+01    0.5462535    0.3622546 -85.14  0.002098847    3.075    0.675
        11 -11.1522    146.4927    186.0210   8.6510747667e+01   1.4086071758e+01     0.288773    0.2154243  42.76 0.0006114073    1.323    0.244
        12 -10.3935    127.6894    192.3149   9.2214831194e+01   1.6063961858e+01    0.1485643    0.1133152  69.65 0.0002454603    1.634    0.388
        13 -14.4214     28.5018    216.1541   1.1844238540e+02   2.4741737314e+01      1.55567    0.6159328  81.80  0.006312765    3.272    0.694
        14 -11.9572    109.0463    189.5769   9.6366299673e+01   1.9874723721e+01    0.4104063    0.2532047   4.51  0.001531931    3.039    0.671
        15 -11.1136    142.6020    208.7785   9.1485351824e+01   9.9860655939e+00    0.1907422    0.1391148 -63.95 0.0009557728    1.695    0.410
        16 -10.6429     79.2880    183.4354   1.0298523883e+02   2.6021290627e+01    0.3329024    0.2650188 -10.55  0.001709647    1.705    0.414
        17 -11.5043     99.3420    180.8583   9.7396333474e+01   2.3537349860e+01    0.2865117    0.2729679  31.70 0.0006234314    1.090    0.083
        18  -9.9425     89.4978    180.0527   9.9824199016e+01   2.5302574322e+01    0.2150139    0.1415596 -63.60 0.0004662365    1.528    0.346
        19 -13.0836     83.5466    158.2851   9.7761224171e+01   3.1644594786e+01    0.9869627    0.6756408 -68.30 0.0005712466    1.488    0.328
        20 -13.8469     72.2887    152.7727   9.9994274495e+01   3.4724356758e+01    0.8264507    0.5540912 -62.01  0.001481559    1.406    0.289
        21 -12.2034     83.4439    245.5139   1.0948031000e+02   1.1816098207e+01    0.3809687    0.3079776  39.97  0.001937933    1.154    0.133
        22 -18.3568     11.3269    242.8125   1.2342029016e+02   2.0963687776e+01     8.919853     6.727776  83.43   0.03258704    1.154    0.134
        23 -11.3627    186.5510    174.4635   7.5021706751e+01   9.0740145922e+00     0.381753    0.3668809 -74.10  0.001202446    1.285    0.222
        24 -11.2209    244.2510    173.9958   6.3833558772e+01  -6.4016864186e-01    0.1819909   0.09685177 -35.95 0.0008965429    1.610    0.379
        25 -12.5035     71.4723    170.7677   1.0315852499e+02   3.0274015402e+01     0.489282    0.3293621 -33.46  0.002277116    1.932    0.482
        26  -9.9206    193.0036    169.9655   7.2700201517e+01   8.7680017983e+00    0.1786163    0.1628279  -3.51 0.0005243821    1.025    0.024
        27 -10.9367    240.4840    169.4929   6.3564821972e+01   6.9133311572e-01    0.1349823    0.1120272 -20.86 -2.863001e-05    1.013    0.013
        28 -12.4933    122.4142    199.0044   9.4628029911e+01   1.5491469130e+01    0.4169416    0.3179428 -71.41  0.001095613    1.537    0.349
        29 -11.0410     32.6873    165.1564   1.1279580085e+02   3.6348051170e+01    0.2526481    0.1926539  33.06 0.0007454681    1.456    0.313
        30  -9.1598    120.4717    165.4932   8.9041053213e+01   2.3568068790e+01    0.1534572    0.1481679  70.43 0.0002566485    1.064    0.060
        31  -9.2405    130.5042    159.4901   8.5174192506e+01   2.3112496563e+01    0.1545106     0.151658  69.01 -9.630137e-05    1.059    0.056
        32 -12.3845     75.7250    166.0854   1.0126830415e+02   3.0844033347e+01    0.3779478    0.3617031  35.38  0.001621856    1.126    0.112
        33 -12.4618     90.5583    151.2275   9.4442129001e+01   3.2316986221e+01    0.7425108    0.4818974 -27.87  0.003097237    2.090    0.522
        34 -12.6944     55.0544    147.5606   1.0413892061e+02   3.8353116097e+01    0.7931088    0.5189458 -58.66  0.003920512    1.384    0.278
        35 -10.9062    133.0000    140.0220   8.0149498896e+01   2.7215206115e+01    0.4550711    0.2175034 -56.35  0.001569811    2.464    0.594
        36 -10.1960    174.8967    149.1270   7.2021844670e+01   1.6543724631e+01    0.2335386    0.2160549 -80.25  0.000697113    1.277    0.217
        37  -9.6533    110.7056    148.9729   8.8267789428e+01   2.9379011972e+01     0.281917    0.1600865  67.12 0.0008970153    3.401    0.706
        38 -11.2145     40.2929    146.8900   1.0835483637e+02   4.0202072548e+01    0.2372589      0.21309   4.20 0.0008210636    1.335    0.251
        39 -11.5136    134.2835    147.5266   8.1552929089e+01   2.5192538895e+01    0.8276932    0.2564192 -53.33  0.002284558    3.825    0.739
        40  -9.9543    143.6579    145.3351   7.8624342571e+01   2.3804688631e+01    0.1634147    0.1283032  84.49   0.00070506    1.760    0.432
        41 -11.1347    103.7231    137.7883   8.7794566491e+01   3.3419006962e+01    0.6155998    0.3563451 -23.82  0.002113159    2.955    0.662
        42 -11.1756    105.9134    130.8445   8.5545174337e+01   3.4728245010e+01    0.3778208    0.3407761 -71.69  0.001206551    1.178    0.151
        43 -12.4521     91.3495    137.1752   9.1310507220e+01   3.5736755861e+01    0.3001479    0.2680171 -33.56 0.0004877908    1.149    0.130
        44 -12.8854     44.1969    130.4906   1.0459979406e+02   4.3993822943e+01    0.6606063    0.3557624 -84.64  0.002688779    2.425    0.588
        45 -11.2221     33.3597    131.2565   1.0811693948e+02   4.4889650529e+01    0.2505935    0.1929972 -44.60  0.001406148    1.289    0.224
        46 -10.9632    135.6111    128.8098   7.6724892054e+01   2.9285423676e+01    0.4108864    0.1530157 -48.93   0.00129762    2.735    0.634
        47 -10.7530    112.4856    128.7736   8.3130826136e+01   3.3983477701e+01    0.3223031     0.260443  -1.97 0.0006503306    1.498    0.333
        48 -11.1333     99.7144    124.7164   8.5920638749e+01   3.7371424541e+01    0.3117059    0.2567265   2.33 0.0008949012    1.419    0.295
        49  -9.8395     92.7695    125.1902   8.8155835069e+01   3.8489857555e+01    0.2276846    0.2061223  83.49 0.0007018073    1.238    0.192
        50 -11.1948    118.0959    123.6141   8.0234338206e+01   3.4109914279e+01    0.3173891    0.2059405  24.19  0.001030573    1.883    0.469
        51 -16.8201      6.0291    210.5005   1.2272022816e+02   2.8166948130e+01     2.864758    0.8013785 -67.87    0.0126203    3.002    0.667
        52 -10.1922    135.0000    119.9970   7.4633552144e+01   3.1427305616e+01    0.2679081    0.0901704 -45.41 0.0008000337    2.926    0.658
        53 -10.0233    108.4586    118.0609   8.1622088578e+01   3.7331908947e+01    0.2246594    0.2089108  31.16 0.0003130449    1.098    0.089
        54 -10.6218    231.3700    113.7875   5.3106810368e+01   1.1990765205e+01    0.2481156    0.2319756 -39.80 0.0007538914    1.074    0.069
        55 -12.9965     43.3802    109.2306   1.0085894470e+02   4.9461314873e+01    0.4916362    0.4367365 -40.98  0.001984608    1.068    0.063
        56 -12.6272     20.4723    111.2239   1.0911854609e+02   5.1020060625e+01    0.4625017     0.246263  38.57  0.001545516    2.181    0.541
        57 -11.6572    115.7014    108.9118   7.7047453701e+01   3.8011734580e+01    0.4000898    0.2513139 -25.63  0.001569064    2.053    0.513
        58 -12.2766     52.4396    109.4960   9.7764888833e+01   4.8369335935e+01    0.4025787    0.3257632 -68.23  0.001438466    1.241    0.194
        59  -9.1152    139.5374    106.5001   6.9817459548e+01   3.3406681320e+01    0.1571633    0.1547605 -33.66 0.0001893733    1.019    0.019
        60 -10.1200    205.5544    110.2201   5.6538553190e+01   1.7867769803e+01    0.2514364    0.2081537  54.03 0.0005989944    1.315    0.239
        61 -11.4316     34.0903    100.5561   1.0235827222e+02   5.2523861829e+01    0.2577333    0.2446611 -51.02 0.0006733038    1.110    0.099
        62  -9.4041     66.2406    100.3369   9.0728128456e+01   4.8784251940e+01    0.1954252    0.1324167  39.92 0.0003787361    1.619    0.382
        63 -10.1762    128.3460     95.7855   6.9757454789e+01   3.8171350351e+01    0.2686144    0.2101837  56.14 0.0007706131    1.375    0.273
        64 -11.5336     52.5107     93.8671   9.4025800925e+01   5.2152581082e+01    0.4081603    0.3063522  67.61  0.002034193    1.896    0.473
        65 -10.4269    155.7346     87.7121   6.0610440527e+01   3.3458005406e+01    0.4016602    0.2522887 -68.34  0.001518829    2.466    0.594
        66 -11.1969     42.5258     89.2350   9.6615664102e+01   5.4394650135e+01    0.3816061    0.1451814  40.76  0.001424699    3.292    0.696
        67 -10.6074     31.5969    203.1570   1.1675721026e+02   2.7323459344e+01    0.2837781    0.1937925  78.57  0.001481904    1.308    0.235
        68 -10.1153     75.4562     85.0485   8.3165668612e+01   5.0877861795e+01    0.2095886    0.1896863  15.20 0.0003294068    1.115    0.103
        69  -9.5295    158.2889     83.3052   5.8793649952e+01   3.3671566642e+01    0.1506316    0.1208298  12.37 0.0002471242    1.570    0.363
        70  -9.2789    184.3735     77.3035   5.2002206192e+01   2.8522571029e+01    0.1500373    0.1143104  23.11 0.0007030533    1.759    0.432
        71 -12.0384     12.9989     59.6160   1.0124779278e+02   6.3555049183e+01     0.316476    0.2660513  62.94  0.000944908    1.713    0.416
        72 -13.4461    185.9748     52.2020   4.5115495231e+01   3.2075131077e+01    0.7004181    0.5510702  39.75 0.0008674928    1.500    0.333
        73 -12.2240    193.5150    195.7975   7.7841876039e+01   3.7667971416e+00     1.102004    0.6197157 -64.27   0.00358698    4.916    0.797
        74 -10.2882    168.1254    232.5623   8.9718803599e+01   1.3558914122e+00    0.1973407    0.1855231 -44.24 0.0006569204    1.318    0.241
        75 -10.9080     27.7357     35.4604   8.6058363321e+01   6.7031956489e+01    0.2132962    0.1092093  29.51  0.001069803    2.039    0.509
        76 -11.9980     20.1561     34.1019   8.9386972535e+01   6.8009556655e+01    0.3224191    0.1593897  26.11  0.001220502    2.104    0.525
        77 -12.2294    204.0588    199.8736   7.6461708854e+01   1.2917297163e+00    0.4949943    0.1996644  31.04  0.001946895    2.654    0.623
        78 -11.4889    184.6880    212.4960   8.2816070247e+01   2.2144450492e+00    0.2555966    0.2241183 -82.61  0.001452475    1.750    0.428
        79  -9.6448    189.6279     14.8282   3.5090746119e+01   3.5836621653e+01     0.174026    0.1046136 -45.47 0.0009031593    1.626    0.385
