#   1 NUMBER                 Running object number                                     
#   2 MAG_AUTO               Kron-like elliptical aperture magnitude                    [mag]
#   3 X_IMAGE                Object position along x                                    [pixel]
#   4 Y_IMAGE                Object position along y                                    [pixel]
#   5 X_WORLD                Barycenter position along world x axis                     [deg]
#   6 Y_WORLD                Barycenter position along world y axis                     [deg]
#   7 A_WORLD                Profile RMS along major axis (world units)                 [deg]
#   8 B_WORLD                Profile RMS along minor axis (world units)                 [deg]
#   9 THETA_WORLD            Position angle (CCW/world-x)                               [deg]
#  10 FWHM_WORLD             FWHM assuming a gaussian core                              [deg]
#  11 ELONGATION             A_IMAGE/B_IMAGE                                           
#  12 ELLIPTICITY            1 - B_IMAGE/A_IMAGE                                       
         1 -13.9017     11.0765     58.8484   9.7892737754e+01   6.3926577715e+01     1.353444     0.952775  17.77  0.008096492    1.547    0.354
         2 -13.2860    233.5458     34.7453   3.3663212498e+01   2.4413357883e+01     1.032022    0.8233906  14.52  0.006327425    2.304    0.566
         3 -12.9766    211.6300     23.5316   3.3310614644e+01   3.0305031239e+01    0.6024108     0.373457 -59.78  0.003575858    1.432    0.302
         4 -13.0496    149.3592     13.3989   3.7915961399e+01   4.5498207384e+01    0.9203505    0.4213317 -28.05  0.004421172    2.496    0.599
         5 -12.3890      4.0945      4.9191   8.1427654098e+01   7.3807463931e+01    0.6479318    0.3034564 -27.13  0.003765234    1.927    0.481
         6 -11.6849    158.1381      2.9003   3.3946569458e+01   4.4418991531e+01    0.3254428    0.1647591  76.66  0.001683203    1.728    0.421
         7 -11.6494     49.9749    244.8777   1.1295081601e+02   1.5925203595e+01     0.413258    0.1779858  50.75   0.00191373    2.012    0.503
         8 -10.2752    184.7520    250.4272   8.5168022942e+01  -3.9871796887e+00    0.2366269    0.1027505  36.01  0.001129045    2.077    0.518
         9 -12.3417    171.5546    249.8666   8.7749898902e+01  -2.0625964456e+00    0.9989087    0.3956817  20.25  0.003425885    4.216    0.763
        10 -11.8793    178.1305    249.7330   8.6393408843e+01  -2.9636558738e+00    0.4474888     0.264291  21.95  0.002322028    1.560    0.359
        11 -11.3585     60.6696    248.9762   1.1107865135e+02   1.3770702711e+01    0.3418201    0.2245349  27.45   0.00163107    1.640    0.390
        12 -10.8007     59.0000    244.9778   1.1108364426e+02   1.4787558896e+01    0.2912905    0.1167826 -60.41 0.0009958756    2.644    0.622
        13 -12.7100     27.3920    244.6842   1.1750430300e+02   1.8563593285e+01    0.7751069    0.2985841  64.41  0.003479358    2.793    0.642
        14 -13.5888     22.7257    193.7505   1.1475654689e+02   3.0401947188e+01    0.9602284    0.5740791  42.76  0.003584121    1.611    0.379
        15 -14.1731     12.3134    201.1510   1.1775086966e+02   2.9637758820e+01     1.021351    0.6679994  86.96  0.003131544    1.321    0.243
        16 -10.2425     43.0005    236.9912   1.1377821527e+02   1.8395734566e+01    0.2859074     0.160794 -64.12  0.001578103    1.861    0.463
        17 -12.5666     72.6105    222.8860   1.0593947054e+02   1.7691550638e+01    0.7991858    0.4598204  42.75  0.002476042    1.548    0.354
        18 -12.2023     78.7031    231.9778   1.0555539353e+02   1.4888254461e+01    0.7016593    0.2744958  37.18  0.002253601    2.198    0.545
        19 -11.6805     78.4892    227.1910   1.0507618507e+02   1.5942435756e+01    0.3937449    0.3075315  29.92  0.001262217    1.313    0.238
        20 -12.0863    153.3704    231.4546   8.8801195285e+01   3.8118118826e+00    0.4611317    0.2305095  37.02  0.002154223    1.803    0.445
        21 -12.1387     55.4470    222.1728   1.0977298697e+02   2.0098774216e+01    0.6029444    0.3789487 -80.89  0.002168391    1.618    0.382
        22 -10.6840     49.8462    216.5062   1.1049881950e+02   2.2068084333e+01     0.424583    0.2412568  80.97  0.001813991    1.968    0.492
        23 -10.3495     21.2565    226.4016   1.1755892677e+02   2.3069877677e+01    0.1758931   0.09044778  44.95 0.0009578255    1.676    0.403
        24 -10.4443     39.2068    211.4061   1.1246029610e+02   2.4491557919e+01    0.4422847    0.1876238  55.90  0.001915187    2.424    0.587
        25 -10.3470    200.7540    208.2750   7.4923636923e+01   7.2773271517e-01    0.2169994   0.09576426 -32.93 0.0009010402    2.399    0.583
        26 -11.2649     45.3145    203.8624   1.1031485605e+02   2.5546321803e+01    0.4420818    0.2812391  73.45  0.001801863    1.600    0.375
        27 -13.0810      5.8924    205.9269   1.1949473290e+02   2.9111240751e+01    0.4269206    0.3512639 -77.39 0.0007854099    1.214    0.176
        28 -11.1869     40.2898    179.4814   1.0894694092e+02   3.2066608547e+01    0.2471712    0.2278678 -52.23 0.0005464126    1.216    0.178
        29 -10.8031      1.5390    175.7031   1.1840970332e+02   3.6590091603e+01    0.2437001   0.09756614 -72.13 0.0007831001    2.029    0.507
        30 -11.4780     48.5352    172.9087   1.0595028283e+02   3.2773448541e+01    0.2589637    0.2282289 -61.40 0.0004377125    1.141    0.124
        31 -13.3082     25.8393    144.8863   1.0871171171e+02   4.2320473839e+01     1.069197    0.8550814 -63.57  0.005030124    1.110    0.099
        32 -12.8227      3.6134    113.1751   1.1146849039e+02   5.1914534527e+01    0.6811692    0.5822591 -83.37  0.002635331    1.152    0.132
        33 -13.2022      3.0792    124.6709   1.1311486712e+02   4.9111068984e+01    0.9855974    0.4566195 -68.20  0.003674909    1.716    0.417
        34 -14.0044     19.2156    124.0163   1.0785354082e+02   4.8176813234e+01     2.139501     1.240337  71.25     0.009895    2.287    0.563
        35 -14.7925      6.3385    141.0759   1.1400100619e+02   4.4814641806e+01     2.172453    0.8957605 -79.21  0.007369061    2.226    0.551
        36 -13.9704     14.2944    134.0519   1.1079434077e+02   4.6020702962e+01     1.299564    0.7444096  89.86  0.004769709    1.857    0.461
        37 -10.3122     61.9799    162.9179   1.0079270652e+02   3.3633909967e+01    0.2125458    0.1981136 -76.13 0.0003487181    1.021    0.021
        38 -12.6859     46.6657    159.3685   1.0462682682e+02   3.6452601296e+01    0.5133339    0.3042942 -32.64   0.00138646    2.291    0.563
        39 -11.1109     70.7029    156.4607   9.7227512682e+01   3.4089753797e+01    0.4623106     0.348808 -24.07  0.001132406    1.660    0.398
        40 -12.1238    111.2773    143.8323   8.3045698498e+01   3.0571925541e+01    0.6439043    0.4972909 -45.99  0.002700701    1.278    0.217
        41 -11.6037     67.7952    143.3773   9.5735736999e+01   3.7866131848e+01    0.6810604    0.3946019  61.51  0.002719784    2.393    0.582
        42 -11.5909    247.3809    142.8853   5.3983132316e+01   4.9957483763e+00    0.2754858    0.1455175 -30.07  0.001327207    1.901    0.474
        43 -11.1428     75.4841    141.1326   9.2961571945e+01   3.7317584851e+01    0.3025362    0.2495143 -51.93 0.0004954656    1.158    0.137
        44  -9.6698     87.9354    143.3058   8.9662483152e+01   3.4801210871e+01    0.2116042    0.2065055  30.72 0.0007086358    1.066    0.062
        45 -12.4097    108.1650    135.1744   8.1972821045e+01   3.3260875266e+01    0.5570623    0.4829573 -54.10  0.002077237    1.137    0.120
        46 -12.7648    104.2762    131.1924   8.2171034064e+01   3.4950974690e+01    0.7180414    0.5623946  18.67  0.002239699    1.462    0.316
        47 -11.4589    159.8405    133.2443   6.8134666111e+01   2.3295134736e+01    0.9061493    0.4544744 -38.70  0.003480802    2.051    0.513
        48 -10.8350     93.4967    130.4957   8.5207926311e+01   3.7060121385e+01    0.3607243    0.2907158  88.77  0.001720278    1.523    0.343
        49 -10.1910     89.3864    127.8478   8.5850527088e+01   3.8422627234e+01    0.2990108    0.2391511  59.64 0.0004544261    1.424    0.298
        50 -12.1407    122.8212    128.6753   7.6331110951e+01   3.1967894586e+01    0.6832901    0.3704398  31.91  0.002605687    2.138    0.532
        51 -11.7570    113.1167    125.5358   7.8267887275e+01   3.4625479379e+01    0.3593405    0.2882241 -15.64  0.001686805    1.491    0.329
        52 -12.5023     48.3964    118.2278   9.7062178119e+01   4.6790349112e+01    0.6083914    0.5668842 -32.60  0.003414657    1.080    0.074
        53 -10.0263    102.4700    119.9109   7.9979402112e+01   3.7996322240e+01    0.2799728    0.2136534  55.69 0.0005210929    1.471    0.320
        54 -11.0401     73.8183    118.6035   8.8641922012e+01   4.3234022599e+01    0.3012203    0.2273951  67.17  0.001423346    1.695    0.410
        55 -11.4566     90.9650    116.7183   8.2698136556e+01   4.0854126551e+01    0.6772956     0.409362  33.86  0.002914625    1.729    0.422
        56 -11.1800    137.4632    108.2201   6.7271076820e+01   3.3471138356e+01    0.7109144    0.3463778  59.58  0.002396934    2.934    0.659
        57 -10.5593     92.0401    109.0220   8.0399416567e+01   4.2477290545e+01    0.3729395     0.219889  45.39  0.001576946    1.803    0.446
        58 -11.8285     47.3426    109.3492   9.5557226205e+01   4.9114290616e+01    0.4362528    0.2871357 -30.35  0.002109407    1.663    0.399
        59 -12.7115    249.3487    102.4827   4.5634645888e+01   1.1444227318e+01    0.4600416    0.2687981 -42.46  0.002522485    1.406    0.289
        60 -11.0100     52.1356     90.3971   8.9247757263e+01   5.3014664094e+01    0.3223408    0.2222123 -41.29  0.001651458    1.333    0.250
        61 -11.7823     23.2251     85.8585   9.9373784464e+01   5.7116957485e+01    0.6440749     0.385124 -54.51  0.002670184    1.416    0.294
        62 -11.6115      8.1297     82.7804   1.0477402598e+02   5.8891358748e+01    0.4200104    0.2055766 -17.18   0.00197198    2.490    0.598
        63 -11.1636      2.1115     79.8358   1.0663244340e+02   5.9890653920e+01    0.2949199    0.1404953 -59.54  0.001459079    1.644    0.392
        64 -13.7471    137.7097    235.3202   9.2800898802e+01   5.4892870341e+00    0.8781564    0.8373906 -55.52  0.004751914    1.212    0.175
        65 -12.8658     27.1642     56.7423   8.9843048965e+01   6.3010654083e+01     1.409436    0.5780779  17.11  0.006067808    2.849    0.649
        66 -13.0982     29.2469     49.9301   8.6632787519e+01   6.4103711498e+01    0.8375905    0.7983264  15.19  0.005781124    1.329    0.247
        67 -14.2693    122.8320    235.5010   9.6113925318e+01   7.7196679580e+00     1.420763     1.029485  53.16  0.004936244    1.435    0.303
        68 -14.1596     99.8036    234.7647   1.0115641459e+02   1.1303144698e+01     1.647151      1.10438  54.18  0.007078975    1.472    0.320
        69 -14.2813      4.0713    241.0604   1.2181953983e+02   2.1673186563e+01     3.218478    0.8773398 -79.72   0.01385999    3.417    0.707
        70 -11.4916    196.5558     17.5604   3.3429550634e+01   3.4253000249e+01     0.275919    0.1850671 -70.94  0.001660419    1.358    0.264
        71 -11.3812    218.6435     33.4653   3.4764160334e+01   2.7617513827e+01     0.406967    0.2163383  63.98  0.002215283    1.878    0.468
        72 -13.2655     89.1449    240.9708   1.0423169639e+02   1.1571575361e+01     0.904669     0.552027  54.71  0.004297761    1.600    0.375
