#   1 NUMBER                 Running object number                                     
#   2 MAG_AUTO               Kron-like elliptical aperture magnitude                    [mag]
#   3 X_IMAGE                Object position along x                                    [pixel]
#   4 Y_IMAGE                Object position along y                                    [pixel]
#   5 X_WORLD                Barycenter position along world x axis                     [deg]
#   6 Y_WORLD                Barycenter position along world y axis                     [deg]
#   7 A_WORLD                Profile RMS along major axis (world units)                 [deg]
#   8 B_WORLD                Profile RMS along minor axis (world units)                 [deg]
#   9 THETA_WORLD            Position angle (CCW/world-x)                               [deg]
#  10 FWHM_WORLD             FWHM assuming a gaussian core                              [deg]
#  11 ELONGATION             A_IMAGE/B_IMAGE                                           
#  12 ELLIPTICITY            1 - B_IMAGE/A_IMAGE                                       
         1 -10.3938     60.3499     21.6345   6.5637883271e+01   6.4463713337e+01    0.4785147     0.227608 -28.66  0.002053596    2.145    0.534
         2 -12.1046     26.4924     56.5484   9.4039130095e+01   6.3244263640e+01     1.133588    0.7970409  -2.52  0.005367654    1.484    0.326
         3 -11.5716     60.2162     46.7048   7.6167234295e+01   6.0804580841e+01     1.630998    0.7856805 -28.26  0.007045633    2.380    0.580
         4 -13.1845     42.5008     45.5611   8.3093079746e+01   6.3557029664e+01     0.863931     0.594604  46.01 0.0005897591    1.935    0.483
         5 -11.3109    154.5105     23.7818   4.3178190957e+01   4.3409777235e+01     1.580877    0.6616887  36.57  0.005190522    4.500    0.778
         6 -12.4090    124.9375     27.7848   4.9741352698e+01   5.0116948695e+01    0.8974776    0.4772559  55.70  0.004245129    1.654    0.396
         7 -12.2483    139.6031     24.0436   4.5706611519e+01   4.7013279988e+01     1.327407    0.9715037  43.96  0.007345506    1.380    0.275
         8 -12.0517    130.9321     14.7999   4.4250776137e+01   5.0057786750e+01     1.714332    0.5468768  69.85  0.005946568    3.425    0.708
         9 -12.1635    120.8589     57.5667   6.0723795313e+01   4.6954611819e+01     2.138092     1.352227 -81.23  0.007956438    3.216    0.689
        10 -11.3330    106.0148     20.2198   5.1243195534e+01   5.5341401824e+01    0.4640552    0.3721339 -31.11  0.001464887    1.385    0.278
        11 -12.8734    116.2386     41.9122   5.6578180370e+01   5.0367473850e+01     1.062616    0.7965173 -83.48  0.005322633    1.833    0.454
        12 -12.6378    119.5921     37.9597   5.4405642029e+01   5.0122635714e+01     0.831157    0.6049887 -79.72  0.002677791    1.891    0.471
        13 -11.3231    145.7848     47.7177   5.1947248093e+01   4.2513727795e+01    0.9680921    0.4095948 -24.26  0.003436133    3.267    0.694
        14 -11.4085    164.9958     17.9311   4.0005191106e+01   4.1489171824e+01    0.4900315    0.2775285  41.70  0.001568415    2.159    0.537
        15  99.0000     10.9563     29.8823   9.2321988506e+01   6.9600696666e+01     1.074408    0.5244697 -64.21  0.004668097    3.857    0.741
        16 -11.7973     27.2414     27.9712   8.3106480481e+01   6.8359788040e+01    0.5635642    0.4099628   9.34  0.002320325    1.270    0.212
        17 -11.9742     19.9999     21.6404   8.4033993580e+01   7.0134883361e+01    0.6332856    0.2424832 -38.81  0.002439472    2.275    0.561
        18 -12.6206     16.9962     12.6307   8.1406076916e+01   7.1783015635e+01    0.7706729    0.4775605 -16.06  0.003436717    1.424    0.298
        19 -12.0879     22.9971     11.3658   7.7520010070e+01   7.1284947780e+01    0.4813647    0.3062267  -5.23  0.002144555    1.461    0.316
        20 -11.6205     61.1869     36.6268   7.1770382198e+01   6.2259719141e+01    0.7109284     0.513765 -12.49  0.002820223    1.379    0.275
        21 -10.9058    178.7788     21.2028   3.9144868163e+01   3.7805920469e+01    0.5635462    0.2702996  48.32  0.001724675    2.402    0.584
        22  -9.1150     94.2358     12.8682   5.1288865925e+01   5.8690628675e+01    0.2236337    0.1529834 -15.44  0.001267378    1.621    0.383
        23 -11.0631     87.2220      7.6740   5.0981258954e+01   6.0672605395e+01    0.5367691    0.3309651  59.42  0.001842992    1.518    0.341
        24 -11.0836     90.7977     21.0562   5.5465082973e+01   5.8597218953e+01    0.5609635    0.3427888 -27.86  0.002389533    1.758    0.431
        25 -11.3463     86.1096     14.2030   5.3981764043e+01   6.0300904768e+01    0.4880799    0.3067728  -9.32  0.001895689    1.815    0.449
        26 -10.4948     46.9314     19.2400   6.9949939385e+01   6.6977087173e+01    0.2986839    0.2104725 -15.36  0.001215812    1.323    0.244
        27 -12.0996     48.4726     12.9190   6.6281438834e+01   6.7502129023e+01    0.5877128    0.2784428  43.20  0.001788005    1.994    0.499
        28  -9.5814     31.5453     12.5013   7.3733839893e+01   7.0059223978e+01    0.1789507     0.112312  12.20 0.0002572425    1.514    0.339
        29 -11.9772     35.7891     17.4766   7.4133369826e+01   6.8834806771e+01    0.5421359    0.3423248 -20.24  0.001695842    1.465    0.317
        30 -11.8759     68.2585     18.1546   6.1222514975e+01   6.3442684052e+01     0.470901    0.3825446  14.28  0.001757733    1.095    0.087
        31 -10.5042    125.3521     20.9808   4.7350007130e+01   5.0767284326e+01    0.7322399    0.3703434  86.81  0.002671954    3.587    0.721
        32 -12.0197    237.9820     16.0810   3.2347904867e+01   2.5058602645e+01      0.80077    0.3946447  77.61  0.004373566    1.936    0.483
        33 -11.3812    227.3655     15.3457   3.3001132881e+01   2.7375188266e+01    0.5357963     0.324017 -82.52  0.001622963    1.513    0.339
        34 -12.1091    246.2332      8.0358   3.0186260528e+01   2.4293151984e+01    0.8161261     0.516194 -17.59   0.00464915    2.570    0.611
        35 -11.0131    242.8824      3.2540   2.9467706292e+01   2.5487866451e+01    0.5002861    0.2124232  64.47   0.00266043    2.431    0.589
        36 -11.1219    218.8476      3.0856   3.1038751565e+01   3.0541849600e+01     0.321605    0.2380047 -42.42  0.001063372    1.382    0.276
        37 -10.7364    223.8065      2.0108   3.0460320136e+01   2.9583878561e+01     0.386391    0.1956808  79.67  0.001253452    1.766    0.434
        38 -10.4909    211.3451     17.9127   3.4916852941e+01   3.0593361270e+01    0.3271037    0.1972814 -35.23  0.001445314    1.706    0.414
        39  -9.3034    198.3969     17.8383   3.6134139452e+01   3.3552781166e+01    0.2863589    0.1945779  13.62  0.001091426    2.709    0.631
        40 -11.4801    192.5657      9.1030   3.4600453507e+01   3.5839193966e+01    0.8577307    0.4951694 -11.61  0.004205882    2.770    0.639
        41 -11.8003    234.0104      5.8872   3.0559874387e+01   2.7022119500e+01    0.7475935    0.3934187 -87.05  0.004226349    1.756    0.430
        42 -12.1169    104.8344     12.8175   4.8745159595e+01   5.6340943693e+01    0.4639431    0.3578137 -19.62  0.001878592    1.447    0.309
        43  -9.5760     98.9543     11.2570   4.9504901938e+01   5.7802369637e+01    0.3360184    0.1816408  14.41  0.001513441    2.656    0.623
        44  -9.7702      4.7254     12.6251   8.8484127169e+01   7.2924992862e+01     0.277416    0.1683038  23.90  0.001828326    1.748    0.428
        45  -9.2062      5.3425      9.3096   8.6519989346e+01   7.3371552991e+01    0.1639622    0.0896624 -36.01 0.0006172413    1.526    0.345
        46 -11.3680    211.9314      9.3169   3.2932701942e+01   3.1409798871e+01    0.5281991    0.3462127  -0.61  0.002713658    2.907    0.656
        47 -10.2568     65.7216     10.3465   5.8567027998e+01   6.4748888915e+01    0.2710382    0.1920361  49.22 0.0009112051    1.375    0.273
        48  -9.7019     62.6343      6.8604   5.8000906981e+01   6.5665056342e+01    0.2887417     0.169164  17.85  0.001564198    1.830    0.453
        49  -9.6719    168.7295      9.8614   3.7322497829e+01   4.1405326714e+01    0.3122196    0.1371657  56.33  0.001437472    2.101    0.524
        50  -9.1514    162.9873     10.0082   3.8056247356e+01   4.2773391692e+01    0.1984493    0.1373198  45.04 0.0006089392    1.602    0.376
        51  -9.6223      1.0000      8.2335   8.8660721796e+01   7.3881706026e+01    0.2540147   0.04271746 -45.61 0.0009592725    4.464    0.776
        52 -11.3634      2.4979      2.0596   8.4561677811e+01   7.4645305308e+01    0.3228064    0.1700536   7.16  0.001647212    1.868    0.465
        53  -8.9460     78.2224      7.4441   5.3351686324e+01   6.2568102042e+01    0.2464162    0.1881607  65.77 0.0009384857    1.487    0.327
        54 -11.1998     75.3439      3.4115   5.2412235269e+01   6.3499895430e+01     0.648725    0.2499733  49.11  0.003058399    2.068    0.516
        55 -10.7712    184.0734      4.8239   3.4369540051e+01   3.8245698019e+01    0.4172161    0.3430453 -33.74  0.002368437    1.401    0.286
        56 -11.0099    177.1100      5.8630   3.5336270367e+01   3.9788955753e+01    0.4119019    0.1915545  82.21 0.0008841862    2.081    0.519
        57  -8.8166    153.6901      7.0300   3.8393832704e+01   4.5294253393e+01    0.1722383    0.1564055  81.82 0.0006285104    1.068    0.064
        58  -8.7811    108.5831      5.8044   4.5337058504e+01   5.6102005115e+01    0.2375716    0.1269576 -22.52  0.001005467    2.121    0.529
        59  -9.6394    116.6773      2.6925   4.2677561723e+01   5.4482239017e+01     0.204738    0.1571505  47.68 0.0007081502    1.171    0.146
        60 -10.5036    111.0073      2.1011   4.3512737051e+01   5.5840148139e+01    0.6527995    0.2842365  74.36  0.002789438    2.587    0.613
        61 -10.7419    105.3265      1.7797   4.4503267502e+01   5.7162441336e+01    0.4555271    0.1921676  68.83  0.001621019    2.333    0.571
        62 -10.5669     41.7197      4.1991   6.4761823740e+01   6.9532437912e+01    0.3983637    0.2115514   7.95  0.002026575    2.356    0.576
        63  -9.7303    142.9895      3.6009   3.8817329759e+01   4.8168919315e+01    0.3622418    0.1828664  75.58  0.001753861    1.828    0.453
        64 -11.8938    134.2245      2.5933   3.9767767981e+01   5.0349494634e+01    0.3968617    0.2403433  72.76 0.0006002611    1.461    0.316
        65  -9.0268     53.2828      3.1992   5.9587871477e+01   6.7699632203e+01    0.2602458    0.0782613 -33.93  0.001080184    3.680    0.728
        66 -10.4826    207.5198      2.5022   3.1767645878e+01   3.3096453670e+01    0.2770934    0.1884901 -88.67 0.0008227627    1.246    0.197
        67 -10.2286    203.5083      1.5441   3.1870427056e+01   3.4090982014e+01    0.2767905    0.1719101  68.06 0.0009492901    1.509    0.338
        68  -9.9546    158.0309      3.7568   3.6913998517e+01   4.4540588534e+01    0.4485843    0.2742327  -5.33  0.002315391    2.379    0.580
        69 -10.0738     13.0022      1.7858   7.8001581872e+01   7.3657819115e+01    0.2728251    0.1330085  22.79  0.001234166    1.933    0.483
        70  -9.3074    151.7520      1.3384   3.6993855874e+01   4.6254463035e+01    0.2465165    0.1060443  75.28 0.0007109789    2.111    0.526
        71  -9.3726    122.5465      1.4057   4.1220572203e+01   5.3209098120e+01     0.271871    0.1049227  65.97 0.0009847098    2.167    0.539
        72 -10.1154     82.2394      1.3021   4.9602744183e+01   6.2249234398e+01    0.1980569    0.0947395  56.12 0.0003580588    1.769    0.435
        73  -9.5744    122.0523      5.0566   4.2544336282e+01   5.3035097320e+01    0.1892784    0.1630341  73.25 0.0003726554    1.094    0.086
        74 -11.1094     63.0885    150.5928   1.0237593256e+02   3.6698755442e+01    0.4919617    0.3280006   9.22  0.001903376    2.174    0.540
        75 -10.1853    142.9510    249.7950   9.7936689958e+01   2.4053405982e+00    0.1957002    0.1909318 -38.32  0.001155955    1.224    0.183
        76  -9.8854     41.3472    149.0975   1.0832255139e+02   3.9759063128e+01    0.2295402    0.2051237  27.82 0.0003110945    1.308    0.235
        77 -11.3482     46.2814    146.5067   1.0653584553e+02   3.9859675836e+01    0.7267309    0.3485129 -63.08  0.002274096    1.811    0.448
        78  -9.8155     71.8138    150.8378   9.9938332526e+01   3.5405952390e+01    0.3692758    0.2592607 -34.43  0.001744095    1.752    0.429
        79  -9.7244    234.7213    149.9594   6.1705803701e+01   4.8619429723e+00    0.2851616    0.1935806 -11.33  0.001424855    1.817    0.450
        80 -10.1366    239.7128    146.5959   6.0187442053e+01   4.5888542574e+00    0.2397046    0.1865982 -30.08 0.0005902228    1.118    0.105
        81 -10.9023    249.5196    142.6962   5.7853001872e+01   3.6028249697e+00    0.6747817    0.2322595 -39.41  0.002709841    2.423    0.587
        82  -8.8541    107.6775    146.2714   8.8974748478e+01   3.0607400143e+01    0.1554539    0.1190491  73.31 0.0003172515    1.571    0.364
        83  -8.8595    233.6994    143.3206   6.0467324152e+01   6.2078860154e+00    0.1336172    0.1024312 -63.19 0.0007025003    1.625    0.385
        84  -8.6944    104.4717    142.4927   8.9050521843e+01   3.2125398697e+01    0.1540613    0.1484005 -73.03 3.215619e-05    1.003    0.003
        85  -9.6692    132.9088    140.6396   8.0984676215e+01   2.7046271348e+01    0.3071577    0.2317259 -57.92 0.0007566268    1.367    0.269
        86 -10.8057     22.7435    127.1010   1.1066181802e+02   4.7137218411e+01    0.2241527    0.2131954  41.22 0.0002991706    1.234    0.189
        87 -11.9756     23.2378    135.4123   1.1166410524e+02   4.5009080907e+01    0.9203418    0.5183118  41.67  0.004697409    1.936    0.483
        88 -11.8979     29.9729    132.9507   1.0931285501e+02   4.5019911139e+01    0.4976326    0.3294713  86.49 0.0003458665    1.604    0.377
        89 -10.5960    217.0689    138.1844   6.2169795602e+01   1.0206284725e+01    0.4076433    0.2914756 -56.11  0.001258812    1.544    0.352
        90  -9.9230     70.0542    139.2066   9.8320885252e+01   3.8623806875e+01    0.2215779    0.1914622 -36.11 0.0005544756    1.260    0.206
        91  -8.4201     53.2897    139.6617   1.0338805912e+02   4.0765639083e+01    0.1468049    0.1031979  76.14 0.0007022373    1.640    0.390
        92  -9.9433     47.0429    135.8955   1.0462463384e+02   4.2477127862e+01    0.5203676    0.2076777 -66.69  0.001446631    2.316    0.568
        93  -9.9782     80.1218    137.2354   9.4947919827e+01   3.7598807576e+01    0.4290933    0.2851571 -25.28  0.001826721    2.129    0.530
        94  -9.7718     40.0245    138.1912   1.0709426251e+02   4.2676915992e+01    0.2935268    0.2004542  29.14  0.001179058    1.660    0.398
        95  -9.9548    244.9902    134.6814   5.6862313313e+01   5.7297479414e+00    0.1791433     0.163724 -32.37 0.0004146078    1.087    0.080
        96 -10.5598     93.3342    131.4385   8.9802844396e+01   3.6854576136e+01    0.7358952    0.2528181 -57.64  0.002295397    3.087    0.676
        97 -10.2360     74.0483    132.7056   9.5838690736e+01   3.9682495995e+01      0.30625    0.2221912 -23.16  0.001421621    1.797    0.444
        98  -9.2748     38.2277    133.1983   1.0685368292e+02   4.4136247915e+01    0.1968675    0.1513405  75.87  0.001074412    1.388    0.280
        99  -9.8926     61.6203    131.8078   9.9449941608e+01   4.1688983577e+01    0.4392873    0.3073055 -13.92  0.002028889    2.048    0.512
       100 -10.1650    103.8420    130.9676   8.6643481552e+01   3.5073583177e+01    0.2418267    0.2208929  34.75 0.0002772282    1.145    0.127
       101 -10.7951     10.2959    127.1021   1.1443955808e+02   4.8094067429e+01    0.6980911    0.2209654 -54.57  0.002884452    2.550    0.608
       102  -9.9383     81.5626    125.0500   9.1901231676e+01   4.0427946547e+01    0.4629277    0.3245102  30.67  0.002136726    1.558    0.358
       103  -9.8854    241.0459    127.8127   5.5996403475e+01   7.6059420685e+00    0.2444959    0.1785809  42.08  0.001025471    1.609    0.379
       104  -9.2591    175.9885    128.4930   6.7881277519e+01   2.0559985451e+01    0.2159243    0.1378839  73.92 0.0008104852    2.556    0.609
       105  -9.0013    223.8398    126.7993   5.8481421693e+01   1.0993105752e+01    0.1943982    0.1515226 -56.18 0.0004719831    1.327    0.246
       106  -9.5563     58.1473    118.1897   9.7805101406e+01   4.5587362791e+01    0.2605223    0.1791227 -50.72  0.001156174    1.326    0.246
       107  -9.7740     53.4339    125.2549   1.0074043564e+02   4.4413199697e+01    0.3998147    0.1646497 -50.87  0.001451734    2.188    0.543
       108  -9.3814     56.4783    122.5045   9.9231610144e+01   4.4722019685e+01    0.2717732    0.1588046 -51.18 0.0008359526    1.556    0.357
       109 -11.3695     44.8009    119.3871   1.0238599361e+02   4.6914697764e+01    0.6202384    0.4121745 -80.48  0.002485619    1.632    0.387
       110  -9.6090      2.0324    125.8743   1.1675417401e+02   4.8932548361e+01    0.2287961    0.1507645 -78.15 0.0006843437    1.241    0.194
       111 -12.3755    103.8633    122.4803   8.4609217669e+01   3.7129092100e+01    0.4487306     0.408187  16.21 0.0005885462    1.200    0.166
       112  -9.8673     49.3824    123.2703   1.0164846065e+02   4.5407328691e+01    0.3158203    0.2631021   5.83  0.001178665    1.434    0.303
       113  -9.7106     19.0326    122.5975   1.1116344700e+02   4.8564529535e+01    0.2090714    0.1559639 -82.20 0.0004509029    1.229    0.186
       114  -8.6408    143.3501    122.2845   7.3865970083e+01   2.9041932236e+01    0.1598392      0.12668   4.33 0.0007019131    1.656    0.396
       115  -9.1292     71.3614    120.8541   9.4142391511e+01   4.3064556115e+01    0.2123248    0.1757289 -53.00 0.0007078474    1.121    0.108
       116  -9.0729    221.2267    120.4213   5.7476982719e+01   1.2661134493e+01    0.1815524    0.1386492  70.11 0.0007255123    1.617    0.382
       117  -9.0511    148.5073    119.9698   7.2008947356e+01   2.8421170320e+01    0.2291709    0.1383017 -22.14 0.0008101389    2.578    0.612
       118  -9.3237    185.2367    118.9971   6.3656723893e+01   2.0476768040e+01    0.2132495    0.1221597 -41.40 0.0008896455    1.651    0.394
       119 -10.4660     42.7637     94.5568   9.7819101507e+01   5.3216992194e+01    0.3752747    0.3287289   1.19  0.001230863    1.248    0.199
       120 -10.0102     45.7101    105.8502   9.9331478252e+01   5.0167811860e+01    0.2547765    0.1895163 -44.42 0.0005124125    1.242    0.195
       121 -11.2900     51.0857     96.5909   9.5304469922e+01   5.1758100243e+01     1.437891    0.4436848 -58.50  0.004890352    3.065    0.674
       122 -11.3930     17.0030    100.9531   1.0839715655e+02   5.4033245133e+01    0.4205127    0.2921206  24.20 0.0003468861    1.694    0.410
       123 -11.8054      9.6207     97.2223   1.1035908030e+02   5.5424981585e+01    0.8491025    0.5462115 -85.19  0.001112588    1.634    0.388
       124 -11.9712      7.1106     88.8445   1.0982378533e+02   5.7553687184e+01    0.6031309    0.4382157  22.36  0.002673245    1.652    0.395
       125 -12.2142     34.5764     93.8440   1.0065210470e+02   5.4242363326e+01      1.40788    0.8990289 -51.08  0.005291208    1.329    0.247
       126 -11.3087     26.8456     86.4655   1.0188881966e+02   5.6688932314e+01    0.6459293     0.541595  27.28  0.002238606    1.381    0.276
       127 -12.1623     42.3374     85.4737   9.5735251996e+01   5.5379268992e+01    0.9324602    0.4571551  20.58   0.00366717    2.429    0.588
       128 -11.7086     22.3997     94.9240   1.0534236340e+02   5.5068470064e+01    0.4973232    0.3639627 -18.92  0.001934801    1.535    0.349
       129 -11.7738     18.2632     90.3116   1.0595075017e+02   5.6477741543e+01     0.514396     0.263536 -61.54 0.0004511253    1.601    0.375
       130 -12.1641     25.8821    113.5726   1.0754918965e+02   5.0243109455e+01     1.233254    0.5665598  17.71  0.005481664    2.733    0.634
       131 -12.1966     25.2875    108.2296   1.0682158047e+02   5.1611211248e+01    0.9519722    0.6087279 -21.92  0.004911289    1.946    0.486
       132  -8.6378     13.6846    118.7606   1.1229770465e+02   4.9917552832e+01     0.124692     0.084444 -41.92 0.0002609653    1.508    0.337
       133  -9.5148    113.5296    116.1048   8.0216576263e+01   3.6750279444e+01    0.2861383    0.2292772 -44.50  0.001373237    1.221    0.181
       134  -8.8823     68.5283    110.5299   9.2684301092e+01   4.6032785747e+01    0.1465589    0.1364263 -57.40 5.444936e-05    1.034    0.033
       135  -9.4741     67.1952    114.7617   9.4107681992e+01   4.5189278197e+01     0.319698    0.2222823  64.18  0.001474788    1.873    0.466
       136  -9.2020     65.7622    110.9705   9.3701314701e+01   4.6327779813e+01    0.2867886    0.2319278 -77.24  0.001118152    1.351    0.260
       137 -10.3244      6.7962    114.4034   1.1388466615e+02   5.1447339565e+01    0.2496684    0.2198703 -23.45   0.00084344    1.333    0.250
       138 -12.7196      2.2080    111.3688   1.1495041199e+02   5.2456055015e+01    0.4108345    0.2431393 -70.60 0.0005438844    1.346    0.257
       139 -11.1371      4.1148    104.6237   1.1340394277e+02   5.3977296130e+01     0.435237    0.3118723  39.98  0.002072659    1.669    0.401
       140  -9.3333     79.1203    114.1030   9.0109987010e+01   4.3522094493e+01    0.2399882    0.1968342 -31.10  0.001219315    1.287    0.223
       141  -9.6513    139.7737    113.5900   7.2511502582e+01   3.1749604092e+01    0.2223052    0.1513372  57.22 0.0009479541    1.621    0.383
       142 -10.5589    107.7970    112.1126   8.0824220550e+01   3.8823689881e+01     0.704677    0.3878444 -62.88  0.002597467    2.384    0.581
       143  -9.4184    103.6546    112.3355   8.2100705889e+01   3.9580534812e+01    0.3136422    0.2452305  74.42 0.0007310575    1.625    0.385
       144 -10.8346    101.7807    109.3842   8.1882180412e+01   4.0630721381e+01    0.7165693    0.4635921 -20.15  0.002817581    2.322    0.569
       145  -9.7307     94.1307    112.5274   8.5021478299e+01   4.1320928891e+01    0.3017105    0.2427946 -86.26  0.001098578    1.533    0.348
       146  -9.8631     48.7636    112.3801   9.9681831124e+01   4.8205712502e+01    0.2812954    0.2372781 -85.23  0.001138441    1.264    0.209
       147 -10.7560    170.3361    110.5345   6.4605439932e+01   2.5506085004e+01    0.4476346    0.3470832 -37.23  0.001511789    1.277    0.217
       148 -10.4707    129.0062    109.7640   7.4279419601e+01   3.4951099592e+01    0.2212836    0.2136158  48.19   0.00115375    1.055    0.052
       149 -10.2835    120.4016    109.0899   7.6431674244e+01   3.6940747030e+01    0.3634188    0.2960251 -37.60  0.001369583    1.237    0.191
       150 -11.5407     79.6429    108.2937   8.8503962751e+01   4.4840935007e+01    0.6484791     0.369997  31.04 0.0008909908    1.934    0.483
       151  -8.8935     58.8476    109.6039   9.5689948441e+01   4.7620490157e+01    0.1929102    0.1310047  44.57 0.0005429201    1.647    0.393
       152 -10.3848    175.5145    107.5261   6.2750471316e+01   2.4932293218e+01    0.3075549    0.2284155 -31.56  0.001295106    1.410    0.291
       153 -10.2225    157.2004    106.3620   6.6408189665e+01   2.9357440654e+01    0.3516575    0.2634329  20.07  0.001133217    1.765    0.433
       154 -10.8928    143.2868    105.9950   6.9604490403e+01   3.2603647686e+01    0.3949373    0.3028413  57.61  0.001432795    1.379    0.275
       155 -11.5079    145.4133    100.0351   6.7456344883e+01   3.3365870148e+01    0.4669119     0.362143 -23.31 0.0001199327    1.488    0.328
       156 -11.5219     88.2885    103.8643   8.4575178926e+01   4.4411955592e+01      0.58685    0.4085572  37.73  0.001250053    1.500    0.333
       157  -9.5979    181.0012    103.3053   6.0568354978e+01   2.4508765910e+01    0.3291999    0.1769667 -61.42  0.001171385    2.707    0.631
       158  -9.6422     57.2426    102.4870   9.4569998047e+01   4.9562027056e+01    0.2779626    0.1854323 -54.81 0.0008837164    1.356    0.263
       159  -9.9300    209.3288     99.0481   5.4446055014e+01   1.8990710532e+01    0.4186779    0.2551355 -27.27   0.00186431    1.901    0.474
       160 -10.1641     65.3961     98.8168   9.0835954382e+01   4.9302636977e+01    0.3770625     0.180673 -46.07   0.00155006    1.934    0.483
       161 -10.9063     67.9339     95.2212   8.9011188923e+01   4.9766622104e+01    0.5088575    0.2863792  43.14  0.002248071    1.977    0.494
       162 -11.0859     90.0077     89.3639   7.9936572532e+01   4.7372397456e+01    0.7540008    0.4126169 -29.46   0.00269208    2.389    0.581
       163 -10.7321     78.7988     97.2025   8.5857217279e+01   4.7586616772e+01    0.4901502     0.314535  57.57  0.001163084    2.092    0.522
       164 -10.1204     82.8390     93.3715   8.3444694530e+01   4.7771421707e+01     0.333977    0.2387769  26.12  0.001165012    1.537    0.349
       165 -10.9400     78.1189     93.0841   8.4939410256e+01   4.8639247143e+01    0.4690788    0.4300215   9.45  0.002146907    1.130    0.115
       166 -10.9108     78.9250     82.6250   8.1597471294e+01   5.0804256515e+01    0.7574733    0.5601469 -78.68  0.003518593    2.031    0.508
       167 -10.6951     72.7864     78.4178   8.2441487149e+01   5.2728437177e+01    0.4612013     0.327689 -58.35  0.001966157    1.588    0.370
       168 -10.4077     76.1158     76.2298   8.0582321383e+01   5.2628290726e+01    0.3952171    0.3118624 -77.48  0.001977366    1.793    0.442
       169  -9.3327     97.6681     97.4587   7.9862030953e+01   4.4143344586e+01    0.2815129    0.1888208 -76.33  0.000818973    2.368    0.578
       170  -9.4883     57.4858     97.3431   9.3218649499e+01   5.0755822133e+01    0.2683975    0.1874734 -36.50  0.001181311    1.418    0.295
       171  -8.5044     61.3007     97.6928   9.1968447135e+01   5.0151788186e+01    0.1388305    0.1122998  79.85  0.000303993    1.597    0.374
       172  -9.5246    120.9701    101.0132   7.4049215653e+01   3.8607106816e+01    0.2541571    0.1968319  -2.32  0.001136089    1.716    0.417
       173  -9.3615    142.2567     95.6006   6.6985745911e+01   3.4998368616e+01    0.2193056    0.1461895  39.85 0.0009459069    1.601    0.375
       174 -10.3079    117.2817     94.1021   7.3101656491e+01   4.0882225628e+01    0.4075185     0.319793  11.35  0.001325113    1.595    0.373
       175 -11.0994    124.8462     93.7328   7.0914352695e+01   3.9314379491e+01    0.6531159    0.3225558  44.89  0.001584561    2.047    0.511
       176 -11.1562    120.7948     87.6607   7.0229916823e+01   4.1456637569e+01    0.6688467    0.4101277 -46.97  0.002770459    1.652    0.395
       177  -9.6957    160.5295     93.9690   6.2326554308e+01   3.1067751937e+01    0.4377885    0.2525324  71.90  0.001605662    2.601    0.615
       178 -10.8022    152.7620     92.3014   6.3589493737e+01   3.3215311319e+01    0.4603708    0.3482522  55.36  0.001582525    1.343    0.256
       179  -9.7706    111.7229     87.7687   7.2813621268e+01   4.3392231206e+01    0.5558933    0.3577888  72.58  0.002132807    2.600    0.615
       180  -9.6208    104.2106     93.5585   7.6743551079e+01   4.3716234176e+01    0.3341978    0.2281373 -79.15  0.001323726    2.443    0.591
       181 -11.4282     99.1405     90.9670   7.7527340869e+01   4.5283678489e+01      1.08751    0.6252029  12.46  0.003431973    3.955    0.747
       182 -10.8586    113.5824     83.5478   7.1001469126e+01   4.3856308237e+01    0.4688069     0.388318 -59.09  0.002289583    1.325    0.245
       183 -11.2351    109.0902     80.8883   7.1476153764e+01   4.5346416191e+01     0.586531     0.404976   6.60  0.002460347    2.186    0.542
       184 -10.6389    183.5310     85.5114   5.5489715401e+01   2.7237440530e+01    0.7981574    0.3032554 -47.53  0.002766622    2.701    0.630
       185 -10.1363     66.6439     88.6898   8.7664999945e+01   5.1453178942e+01    0.2918351    0.2219776 -16.17  0.000801673    1.485    0.327
       186 -10.3926     67.1607     82.1424   8.5583448507e+01   5.2824796019e+01    0.4393362    0.3125082 -42.70   0.00213188    1.304    0.233
       187 -10.2922    165.5994     83.7292   5.8451726152e+01   3.1799698514e+01    0.3668482    0.2909127 -54.30  0.001250708    1.262    0.208
       188 -11.0014    142.9442     84.3841   6.3609950213e+01   3.7050948861e+01    0.4210061    0.3180442  44.73 0.0007829413    1.345    0.257
       189 -10.1557     60.5131     83.4775   8.8389435020e+01   5.3516487648e+01    0.2987118    0.2368609 -52.02  0.000541581    1.221    0.181
       190 -10.8884     58.1783     77.7291   8.7567783506e+01   5.5103688643e+01    0.3646779    0.2776323 -58.29 0.0007624241    1.401    0.286
       191 -11.6268     52.9193     75.6019   8.8930981559e+01   5.6280456074e+01    0.6909146    0.3793108 -55.99   0.00319122    1.856    0.461
       192 -10.1528     47.1383     74.8783   9.0963544855e+01   5.7175596705e+01    0.4514233    0.2388163 -54.68 0.0009783373    1.807    0.446
       193  -9.9094    127.0764     82.9439   6.7133653087e+01   4.0993117794e+01    0.4373406    0.2794129 -58.66  0.001501546    1.925    0.480
       194 -10.7072    127.0473     76.9127   6.5305620045e+01   4.2152695230e+01    0.3138767    0.2885527 -12.18   0.00167543    1.154    0.133
       195 -11.7402    122.8571     69.0157   6.3922447452e+01   4.4552290043e+01    0.5363345    0.5156652   9.99  0.001617776    1.056    0.053
       196  -9.4705     21.1330     80.8377   1.0282767456e+02   5.8456141544e+01    0.1818166    0.1686847 -83.12 0.0005837068    1.249    0.199
       197 -10.9900    104.0004     75.7632   7.1365491049e+01   4.7422540381e+01    0.5966601    0.3619948 -41.24  0.001828731    1.644    0.392
       198 -10.0663    233.0356     77.7263   4.6102597151e+01   1.7578794277e+01    0.3249137    0.2132135 -35.21  0.001578644    1.472    0.321
       199 -11.5325     85.4050     73.3932   7.6489916140e+01   5.1551477260e+01    0.8639104    0.4944402  40.14  0.003877356    1.774    0.436
       200 -11.5538     77.2335     65.6956   7.6724758236e+01   5.4528649307e+01     0.947094    0.5868139 -68.40  0.003501371    3.234    0.691
       201 -12.2293     76.2439     57.5907   7.4240213091e+01   5.6202194720e+01     1.305139    0.6634107 -28.65  0.002821588    2.300    0.565
       202 -10.9894     72.8069     47.9076   7.1889941024e+01   5.8476805316e+01    0.6048036    0.3322533 -43.54  0.002635323    1.943    0.485
       203 -11.5905     13.9791     74.7959   1.0431841436e+02   6.0344758642e+01    0.5162007    0.3830346 -64.48  0.002563589    1.257    0.205
       204  -8.8416     13.8003     67.5467   1.0267502314e+02   6.1957334259e+01    0.5170807    0.2798819  -0.33   0.00267743    2.251    0.556
       205  -4.8356     15.3137     61.3222   1.0040881242e+02   6.3185142167e+01    0.5958117    0.3678433  55.10  0.001854902    2.707    0.631
       206 -11.8870      1.9082     71.5890   1.0856449461e+02   6.1768486345e+01    0.8520263     0.214981 -66.78  0.003195856    3.372    0.703
       207 -12.5627      4.4773     61.8030   1.0530983292e+02   6.3769862088e+01     0.426317      0.35774 -32.41 0.0008427443    1.120    0.107
       208  -9.0674    170.6758     77.6985   5.5794737566e+01   3.1666103076e+01    0.1477257    0.1182767  20.36 0.0003665927    1.635    0.388
       209 -12.2167    186.3935     70.5305   5.1075812587e+01   2.9134594281e+01    0.9123179    0.5864123 -43.48  0.002915641    1.483    0.326
       210  -9.8302    184.3107     60.8923   4.8878555700e+01   3.1169816428e+01    0.3406897    0.2245017 -73.62  0.001584624    1.801    0.445
       211  -9.2312     63.5059     76.0090   8.5056325833e+01   5.4695991912e+01    0.4117734    0.2782758 -81.48  0.001729485    2.830    0.647
       212  -9.0429     66.4585     74.5014   8.3497220521e+01   5.4560737202e+01     0.224143    0.1880546  35.25 0.0009905919    1.274    0.215
       213  -9.5061    198.1912     74.0746   5.0096003200e+01   2.5793932275e+01     0.383814    0.2433775  17.66  0.001424316    3.546    0.718
       214 -11.4611     18.7215    106.0454   1.0868022518e+02   5.2671212484e+01    0.3265042    0.2358318 -32.93 0.0001990108    1.467    0.318
       215 -11.2803     40.8135     71.2417   9.2416027905e+01   5.8705799954e+01    0.5254573      0.27537 -51.43  0.001924839    1.697    0.411
       216 -11.5456     34.4621     72.1532   9.5259468485e+01   5.9193807835e+01     0.690868    0.2808418  27.42  0.003021691    2.657    0.624
       217 -10.1916     94.6719     76.2088   7.4383592347e+01   4.9222905840e+01     0.568201    0.3843783  31.28  0.002425773    1.575    0.365
       218 -10.0057    153.6883     72.6138   5.7775408715e+01   3.6640771328e+01    0.4937924     0.205415  44.59  0.001478446    2.670    0.625
       219  -8.9594     19.5314     71.9359   1.0135579967e+02   6.0578433658e+01    0.1780614   0.07478163 -40.77 0.0006394345    2.124    0.529
       220  -9.6930    162.0789     70.7676   5.5532941403e+01   3.4931655882e+01    0.3054021     0.232533 -63.63  0.001300604    1.422    0.297
       221 -10.0447    172.2042     68.5852   5.3009067080e+01   3.2849484037e+01    0.3338228    0.3010621 -24.79  0.001319695    1.235    0.190
       222 -10.2435    170.6566     63.8221   5.1972275025e+01   3.3998545190e+01    0.4730631    0.3144915 -86.23   0.00175757    1.936    0.483
       223  -9.7918     22.1130     66.0692   9.8741799935e+01   6.1647986696e+01    0.4346367    0.2274025 -72.84  0.001930335    2.735    0.634
       224 -11.5258    220.0591     66.3915   4.5159895003e+01   2.2109212787e+01    0.6409218    0.3686053  54.49  0.002474548    1.921    0.479
       225 -11.4067    234.4853     60.9196   4.2203497355e+01   1.9861997561e+01    0.5011339    0.3683625  66.83  0.001938411    1.467    0.318
       226  -9.8836    238.1273     55.8176   4.0697602569e+01   1.9853786111e+01    0.2099139     0.155159 -49.74 0.0003112937    1.154    0.134
       227 -10.2540    244.8042     51.1977   3.9041653934e+01   1.9151493609e+01    0.2133476    0.1556663 -82.69 0.0007428417    1.329    0.248
       228 -10.5253    240.3697     50.4712   3.9321619978e+01   2.0153946180e+01     0.319352    0.2518651 -39.18 0.0008339367    1.297    0.229
       229 -10.8484     59.1033     62.6954   8.2405053663e+01   5.8060753933e+01     0.454368    0.3805251 -45.35  0.001773577    1.237    0.192
       230  -9.6626     64.9126     61.0212   7.9602063781e+01   5.7487925573e+01    0.3491638    0.1617344 -42.23   0.00113182    2.055    0.513
       231  -9.6823    192.4054     65.6303   4.8847197984e+01   2.8507436526e+01    0.2741672    0.2107815 -64.34   0.00067111    1.281    0.219
       232  -9.4732     53.2636     66.0137   8.5801442167e+01   5.8236126661e+01    0.2747549    0.1768177  40.46  0.000916147    1.761    0.432
       233 -10.4135    200.1783     64.1261   4.7308643638e+01   2.6931788195e+01    0.5050091     0.309808 -84.72  0.002260092    2.108    0.526
       234  -9.4979     84.3049     61.8397   7.2964353504e+01   5.3955008338e+01    0.3512005    0.2602434 -33.19  0.001582679    1.330    0.248
       235 -11.5321     91.5020     63.1777   7.1065398362e+01   5.2321270404e+01    0.8667538    0.3992391  47.58  0.002934638    2.235    0.553
       236 -10.8892     87.8300     57.0071   7.0092924437e+01   5.4132891866e+01    0.5716377    0.2632515 -36.99   0.00156768    2.199    0.545
       237 -10.5827     91.9490     57.5035   6.8944035258e+01   5.3230947232e+01    0.3290205    0.2962616  63.44 0.0009706294    1.296    0.228
       238  -9.8039    105.7884     63.6725   6.6870365040e+01   4.9282904796e+01    0.3897752    0.2730986 -47.57    0.0018904    1.543    0.352
       239 -10.6772    106.5339     58.4396   6.4880787160e+01   5.0019697463e+01    0.3517162     0.271185  59.20 0.0009607093    1.401    0.286
       240  -9.7713    175.0356    246.9433   9.1097485676e+01  -1.9869358757e+00    0.2024492    0.1668959  20.27  0.001323953    1.016    0.016
       241 -11.6569    127.4324    242.2564   1.0014510969e+02   6.0976734097e+00    0.4447716    0.3376387 -52.48  0.002704808    1.536    0.349
       242 -11.3167     21.0605     46.7503   9.3347677427e+01   6.5666742031e+01    0.4843298    0.2921175 -34.54  0.002334688    1.405    0.288
       243  -9.8892    135.9940    240.4650   9.8127505506e+01   5.0895195182e+00    0.2005122    0.1108089  37.14 0.0004568483    1.548    0.354
       244 -11.5527     26.7899     47.3624   9.0864539457e+01   6.5013967248e+01    0.5725465    0.3017681 -22.37  0.002811697    2.148    0.534
       245 -10.2944     22.5832     36.9263   8.9069773668e+01   6.7338613578e+01    0.5684024    0.3344144  50.00  0.002749092    3.296    0.697
       246 -11.4278     52.8386     49.4464   8.0174802947e+01   6.1451002065e+01    0.5136654    0.3779105  52.28  0.002813407    1.885    0.469
       247  -9.8615     68.0357    240.4920   1.1224266313e+02   1.5128462067e+01    0.1867563    0.1066459  38.61 0.0008891724    1.570    0.363
       248 -12.2323     58.1887     29.8696   7.0098550702e+01   6.3743075186e+01     0.448628    0.2651977  26.91 0.0009844587    1.682    0.405
       249 -11.8366     49.2861     30.5265   7.4032154731e+01   6.5059429109e+01     0.838993    0.3294935  42.82  0.003677208    2.731    0.634
       250 -11.0828     41.0281     57.1659   8.7888235663e+01   6.1569821297e+01    0.3904062    0.2528489  34.25  0.002136658    1.705    0.414
       251 -11.3954     51.3463     61.4272   8.5046834517e+01   5.9413592694e+01    0.3981659     0.323521  43.11  0.002324139    1.478    0.323
       252 -11.8464     44.9828     60.0892   8.7205130819e+01   6.0509426783e+01    0.7399678    0.3800851 -26.88  0.003244975    2.354    0.575
       253 -10.3790    158.0263     62.3209   5.3903815268e+01   3.7310324301e+01    0.6231076    0.3077111  56.00  0.002372718    1.946    0.486
       254 -11.2838    148.2175    237.6891   9.5197492565e+01   3.6631113549e+00    0.5092132    0.2817416  37.30  0.001908991    1.557    0.358
       255 -10.8391    198.6273    232.7492   8.4244679176e+01  -3.3038257269e+00    0.3560886    0.3083465 -13.94    0.0023677    1.163    0.140
       256  -9.3148     15.2902    233.7633   1.2211957544e+02   2.2779188004e+01     0.196197    0.1172399 -88.06  0.001134663    1.451    0.311
       257 -10.2112    247.6029    232.1658   7.5200759490e+01  -9.9131301154e+00     0.190385    0.1771995 -34.94  0.001209697    1.685    0.406
       258  -9.8905    242.8474    232.1153   7.6009103245e+01  -9.3106142452e+00    0.2235102    0.2087916   3.13  0.001654373    1.494    0.331
       259 -10.2603    167.9743    237.9915   9.1176652152e+01   5.2006657414e-01    0.1600305     0.135806  23.20 0.0009582812    1.004    0.004
       260  -9.3936     23.7670    231.8308   1.2038491903e+02   2.2281555672e+01    0.1697479    0.1041354  63.75 0.0007348867    1.318    0.241
       261  -9.0351    190.1774    229.8021   8.5416869172e+01  -1.5681829705e+00    0.1797407    0.1349811  -0.13 0.0006310925    1.339    0.253
       262 -12.2904    114.2235     25.0703   5.1117217277e+01   5.2937467189e+01    0.7345899    0.2930544  54.45  0.002142661    2.136    0.532
       263  -9.6867    148.7728     60.8166   5.5322007876e+01   3.9801436493e+01    0.5310931    0.1965493  59.24   0.00183843    2.756    0.637
       264 -10.5528    136.1489     57.1546   5.6926542457e+01   4.3426850378e+01    0.7023321    0.4486688   6.00  0.002761741    2.811    0.644
       265 -10.1851    135.6932     50.8704   5.5037055679e+01   4.4497616367e+01    0.3015896    0.2725367  13.95  0.001692783    1.226    0.184
       266  -9.7520    181.0000    228.9395   8.7113070668e+01  -8.4272202588e-03    0.1976147   0.07310265 -44.51  0.000803659    2.951    0.661
       267  -9.7754    145.5024     39.4957   4.9467152128e+01   4.3710531000e+01     0.220864    0.2020808  62.95 0.0006101564    1.034    0.032
       268 -11.1830    156.4991     53.0736   5.1493938544e+01   3.9114133538e+01    0.9902872    0.5511943 -40.28   0.00444633    1.812    0.448
       269 -11.5643    157.1220     42.5031   4.8271417226e+01   4.0463997967e+01    0.9818727    0.4239964  69.81  0.003726406    2.594    0.614
       270 -12.4835    152.9880     35.8291   4.7006594798e+01   4.2351715018e+01    0.3572276    0.3015615  51.62 0.0004159313    1.181    0.154
       271  -9.1757    163.7691    243.5874   9.2859030160e+01   2.4908739342e-01    0.1844667    0.1030311  42.90 0.0009499734    1.667    0.400
       272 -12.3128    159.8118     29.9132   4.4153809086e+01   4.1406895577e+01    0.4467946    0.4199127 -74.71 0.0007601078    1.086    0.079
       273 -11.1352    164.0560     27.6578   4.2870815957e+01   4.0635909744e+01     0.290327    0.2591484  84.75  0.000524672    1.005    0.005
       274 -10.2815     66.3403     53.9475   7.6533148987e+01   5.8555785709e+01    0.3910213    0.2690382 -59.11   0.00193378    2.047    0.512
       275  -9.3394    188.0975     55.1869   4.6799838311e+01   3.1132578651e+01    0.2086554    0.1883983  53.76  0.000787643    1.227    0.185
       276  -9.2173    104.4699     53.5127   6.3765093452e+01   5.1274378574e+01    0.2479597    0.1380134 -22.21  0.000936043    2.274    0.560
       277 -10.8696      9.8432     62.6130   1.0315347625e+02   6.3281413229e+01    0.2571627    0.2324765 -54.98 0.0008591127    1.194    0.162
       278  -9.4755    201.5296     52.9680   4.4350526129e+01   2.8301409247e+01    0.2762785    0.2212698  -4.95  0.001276916    1.775    0.437
       279 -10.4387    201.9684     48.7176   4.3245466551e+01   2.8810052050e+01    0.5226722    0.3299532 -12.71  0.002349687    2.603    0.616
       280 -10.8209    199.7365     44.9588   4.2602372902e+01   2.9854235636e+01    0.5396151    0.2427872  78.83  0.002133838    2.768    0.639
       281  -8.8456    215.6517     49.2831   4.1710201070e+01   2.5616776009e+01    0.1411738   0.08860799 -69.66 0.0003821249    1.649    0.393
       282  -9.6397     91.4430     48.5416   6.5870892522e+01   5.4804010842e+01    0.2649196    0.1989802 -47.97 0.0008059518    1.538    0.350
       283 -10.7498     12.5897     48.1130   9.7831852523e+01   6.6081619537e+01    0.3575763    0.1716928 -32.98  0.001851074    1.898    0.473
       284 -10.0168      2.0377     48.2249   1.0293462495e+02   6.6722732867e+01    0.8439503    0.1886795 -41.77  0.003338428    3.297    0.697
       285 -10.2736      6.0227     36.0329   9.7169282536e+01   6.8849551976e+01    0.4610785    0.2354111 -42.77  0.002449079    1.517    0.341
       286 -10.2394      5.8500     31.2903   9.5583550819e+01   6.9727951883e+01    0.4123033    0.1927781 -21.94   0.00188942    2.249    0.555
       287  -9.5533     58.5074    225.5405   1.1285130387e+02   1.9465570714e+01    0.1287615     0.103532  66.13 0.0001097437    1.029    0.029
       288 -10.7005     13.9081     23.4761   8.8114715402e+01   7.0431971078e+01    0.2697891    0.1997174 -31.39 0.0003346287    1.164    0.141
       289  -9.7336    234.0277    222.9823   7.5981262232e+01  -6.8844618780e+00    0.1511895    0.1205964  -1.31 0.0006891005    1.011    0.011
       290  -9.0032    153.2995    219.3171   9.1344227468e+01   6.1759943683e+00    0.1351684    0.1021349  -1.98 0.0003468306    1.615    0.381
       291  -9.3293     10.0000    217.9928   1.2224282710e+02   2.6604432456e+01    0.1868244   0.05602393 -77.93 0.0008009443    2.932    0.659
       292 -10.3230    164.6786    212.3022   8.7741027912e+01   5.5838115706e+00    0.2576707    0.2136235  37.21 0.0007223109    1.147    0.128
       293 -10.9418    173.8000     48.3260   4.7158198707e+01   3.5576276508e+01    0.5769309    0.3513791  80.14  0.002659826    1.829    0.453
       294 -12.0882    106.5495     32.1437   5.5521926991e+01   5.3855043467e+01    0.6155808    0.3447783  20.66  0.002057708    2.727    0.633
       295 -10.8054    134.9932     45.7071   5.3537061026e+01   4.5413603371e+01    0.4317439    0.2147157  57.82 0.0006851536    1.881    0.468
       296 -10.8022    139.9245     43.9605   5.1952314048e+01   4.4466355798e+01    0.3592513    0.2883043  68.10   0.00137672    1.204    0.169
       297  -9.5821    176.5588     43.6658   4.5459742335e+01   3.5555417902e+01    0.2780455    0.2119018 -83.96   0.00149644    1.327    0.246
       298 -10.4883    189.1347     41.1682   4.3022031020e+01   3.2868721316e+01    0.4884169    0.2175852 -29.01  0.001871572    2.575    0.612
       299  -9.0632    193.8208     38.8321   4.1820018124e+01   3.2068790322e+01    0.2199773    0.1655368  62.44 0.0004415605    1.335    0.251
       300 -10.6991     94.1136     41.1969   6.2325476272e+01   5.5352831213e+01    0.6753041    0.2694237  48.43  0.002717367    2.323    0.570
       301 -10.6595     81.5697     39.8609   6.5753189054e+01   5.8086829707e+01     0.637563    0.3971784  55.99  0.002729866    1.871    0.466
       302  -9.8930     78.2459     34.4450   6.4711235268e+01   5.9499955055e+01    0.7608751     0.276657  40.66  0.002995405    2.663    0.624
       303 -10.7439     82.5399     32.4507   6.2505607453e+01   5.8926640252e+01    0.4825962    0.4105729  64.30  0.002245026    1.432    0.301
       304  -9.7201     17.4533     41.7474   9.3368000932e+01   6.6925556296e+01    0.2503076    0.1582051 -25.67  0.001434611    1.405    0.288
       305 -10.2377    154.2483    208.3426   8.9331389123e+01   8.1204378317e+00    0.4068193    0.3174898  72.80  0.002119191    1.739    0.425
       306  -9.6429    231.5311     38.7341   3.7657051213e+01   2.3601312795e+01    0.2690746    0.1478829 -43.63  0.001434155    1.581    0.368
       307 -11.3810    176.8846     37.0955   4.3633223777e+01   3.6349887885e+01    0.4903897    0.3597077 -25.79  0.002649177    1.582    0.368
       308 -10.1302    172.6769     33.3672   4.3217923839e+01   3.7844641012e+01    0.3464268    0.2254331  79.03  0.001221491    1.505    0.336
       309 -10.5129    175.1714     30.8720   4.2190174662e+01   3.7546802943e+01    0.4434945    0.1976025  51.83  0.001337591    2.303    0.566
       310  -9.1164    217.3311     38.6754   3.9069596593e+01   2.6695291430e+01    0.1418309   0.08316757 -66.07 0.0007050523    1.704    0.413
       311  -9.2182    206.8194     37.1582   3.9860842304e+01   2.9266644608e+01    0.2046887     0.155537 -70.41  0.000667788    1.189    0.159
       312  -9.5658    132.7619     36.8273   5.1129943126e+01   4.7146358362e+01    0.3305547    0.2068613 -75.92  0.001419413    2.446    0.591
       313  -9.2538     94.3138     35.9903   6.0297867896e+01   5.6032543601e+01    0.2500734    0.1704245  82.29  0.001128914    2.524    0.604
       314 -10.4259    239.8379     32.1478   3.5508583429e+01   2.2719622102e+01     0.400458    0.2900621 -37.74  0.002130121    1.421    0.296
       315  -9.4440    240.5064     26.4874   3.4282581384e+01   2.3292736672e+01    0.2053643    0.1305752 -52.96 0.0007066206    1.295    0.228
       316  -8.6550    216.7186     32.6201   3.7749150460e+01   2.7617799156e+01    0.1347146    0.1107261 -71.59 0.0004749595    1.017    0.017
       317  -9.9338    161.7957     23.4069   4.1989819110e+01   4.1673219582e+01    0.2315949     0.222018 -57.13 0.0001327698    1.152    0.132
       318  -9.1921     36.0041     31.7185   8.0480312354e+01   6.6717659871e+01    0.1673412    0.1395076   6.45 0.0004562898    1.127    0.113
       319 -10.9017    198.6642     29.0968   3.8830368132e+01   3.2171887920e+01    0.4104254    0.3493202 -88.49   0.00184628    1.053    0.050
       320  -9.3022    221.8249     29.7736   3.6611149934e+01   2.6850060760e+01    0.1764875    0.1600086 -68.71 0.0005510064    1.169    0.144
       321 -10.6249    189.3031     27.7209   3.9564688555e+01   3.4538544404e+01    0.3381051    0.2881753   0.85  0.001477762    1.610    0.379
       322 -11.3956    182.9849     25.6292   3.9788959668e+01   3.6291534808e+01    0.5169992    0.3088264  56.00  0.002255077    1.675    0.403
       323  -8.9521     99.7243     30.4221   5.6667495219e+01   5.5582145066e+01    0.1857723    0.1139564  44.40 0.0004878814    1.478    0.323
       324 -10.4579    230.3044     26.7888   3.5194690594e+01   2.5389907842e+01    0.3197471    0.1764419 -40.57 0.0006721831    1.647    0.393
       325 -10.0589    214.2437     24.4280   3.6127573950e+01   2.9182465761e+01    0.2848009    0.2338769  86.11  0.001200025    1.137    0.120
       326  -9.0586    216.3159     21.3166   3.5233913734e+01   2.9090758025e+01    0.1870419    0.1694768  87.30 0.0007244646    1.207    0.171
       327  -9.8395    250.4373     26.7496   3.3564586077e+01   2.1256277666e+01    0.1985774    0.1370502 -36.77 0.0009885505    1.500    0.333
       328  -9.7345     97.5326     26.4788   5.5752922934e+01   5.6533755470e+01    0.2381272     0.221023  65.93 0.0008421652    1.196    0.164
       329  -9.2248    204.3298    208.6572   7.8957570031e+01  -2.9415493745e-01    0.1219207    0.1085206  82.61 0.0007051079    1.748    0.428
       330  -9.5221    169.1260     23.7973   4.1079811300e+01   3.9845338736e+01    0.2709056    0.1612743  59.50   0.00123713    1.551    0.355
       331  -9.3732     61.1539    206.6292   1.1038795046e+02   2.3277979878e+01    0.2148547    0.1636064  85.30 0.0007021254    1.221    0.181
       332  -8.9579    124.1119    205.8767   9.5720069034e+01   1.3790315106e+01    0.1779135    0.1603124  -3.41  0.001012159    1.279    0.218
       333  -9.4451     80.5284     19.3135   5.7740041044e+01   6.0920051235e+01    0.3129098    0.1863034  42.97  0.001050411    1.472    0.321
       334 -10.3424    238.2114    204.5304   7.1923805158e+01  -4.7263316123e+00    0.2446756    0.1568117 -32.00  0.001412177    1.402    0.287
       335  -9.0905    196.2479    204.9875   7.9884086700e+01   1.6347608237e+00    0.1686679    0.1100953 -38.50 0.0005509072    1.537    0.349
       336 -12.1654      4.8050    184.3590   1.2119896611e+02   3.4607934114e+01    0.6408375     0.459649  81.10  0.003337518    1.122    0.108
       337 -11.1699      6.2321    198.5345   1.2183075850e+02   3.1235369566e+01    0.7949609   0.07561003 -65.37  0.002514503    5.450    0.816
       338 -10.3200     16.6934    202.9629   1.1990476957e+02   2.9256508410e+01     0.332381     0.129485 -77.37   0.00156501    2.246    0.555
       339  -9.8993     38.5916     21.8215   7.4874192687e+01   6.7855328433e+01    0.2670095    0.1779904 -27.57 0.0009118086    1.391    0.281
       340 -10.6001    245.6459    200.9072   6.9971532496e+01  -5.2192716316e+00    0.2109708    0.1528929  12.09 0.0007309397    1.336    0.252
       341  -9.1936    223.2018     22.1877   3.4815895945e+01   2.7475750406e+01    0.1764132    0.1189034 -71.35 0.0006193841    1.301    0.232
       342 -10.7027    234.2360    196.9727   7.1210136466e+01  -2.9744051966e+00    0.3943069    0.2898242  -2.64  0.001565483    1.310    0.237
       343  -9.4393     74.7146     19.4779   5.9640353664e+01   6.2057698658e+01    0.2486096    0.1715082  33.31 0.0008254109    1.293    0.226
       344  -9.0553    195.4716    199.9629   7.9108131147e+01   2.6492710340e+00    0.1756868    0.1220124 -66.31 0.0008086284    2.441    0.590
       345  -9.4845     82.7148    196.2554   1.0408043416e+02   2.2617769373e+01    0.3360727    0.2086807  19.99   0.00152325    2.198    0.545
       346  -9.8602    169.9135    191.4583   8.2860098264e+01   8.6942529975e+00    0.3615304    0.2225733  23.34  0.001344495    1.878    0.468
       347  -9.0762    162.5174    191.0092   8.4403072717e+01   1.0119792766e+01    0.1881975    0.1304876 -76.33 0.0004577505    2.361    0.576
       348  -8.9927     16.4278    191.4940   1.1911943715e+02   3.1908351907e+01    0.1243201    0.1001088  87.31 5.244205e-05    1.049    0.046
       349 -10.2635    239.4866    184.9213   6.7985035569e+01  -1.8268174160e+00    0.3750151    0.2177655 -12.66  0.001035013    2.162    0.537
       350  -9.8966    212.8616    183.7132   7.2556959140e+01   2.6239165301e+00    0.3775334    0.2301044  68.95  0.001238759    5.327    0.812
       351  -8.6150      1.3312     20.7367   9.4034520089e+01   7.1869199833e+01   0.09223674   0.08546181  26.81 0.0003603101    1.574    0.365
       352 -10.6829    250.3390    178.6438   6.4952286488e+01  -2.4352038307e+00    0.5000778    0.1275605 -35.47  0.001725572    3.655    0.726
       353  -8.9726    194.6709     19.2758   3.6863745324e+01   3.4257452923e+01    0.1790508    0.1055354  65.92 0.0003586458    1.577    0.366
       354  -8.8496    157.4885    179.5760   8.3336623044e+01   1.3422654277e+01    0.1468011    0.1396563  14.16 7.821264e-05    1.022    0.022
       355  -9.2234    205.0655     17.4895   3.5401877991e+01   3.2060860677e+01    0.1901637    0.1110605  77.44 0.0007983018    1.563    0.360
       356  -9.6063    230.6855    175.4930   6.7651465582e+01   1.1134917488e+00    0.3351143    0.1540062  34.43   0.00147297    2.456    0.593
       357 -10.3647     51.9865    173.5706   1.0874124541e+02   3.2347992973e+01    0.5432513    0.2522478  89.96   0.00197795    3.153    0.683
       358 -10.2786    186.4124     15.1830   3.6724144010e+01   3.6645586112e+01    0.2399867    0.1919584  88.65 0.0004057962    1.078    0.072
       359  -9.2572    174.5253     15.9605   3.8270814517e+01   3.9395725065e+01    0.1966288    0.1495834  77.72 0.0004583583    1.156    0.135
       360  -9.6951     27.8260    175.8935   1.1508420535e+02   3.4501669868e+01      0.23105    0.1718922  61.78 0.0008995736    1.265    0.210
       361 -10.0739    247.4817    174.1599   6.4539218026e+01  -1.2907578575e+00    0.4464634    0.2045426  25.40  0.001813111    3.387    0.705
       362  -9.3921     75.9048     13.8978   5.6849839936e+01   6.2419612939e+01    0.2064343    0.1497142  51.20 0.0006357831    1.323    0.244
       363  -9.1279    115.5165     12.9814   4.6530310441e+01   5.3873271084e+01    0.1647411    0.1303195 -17.42 -0.0001574587    1.435    0.303
       364 -10.2569     38.2192    172.8957   1.1217497161e+02   3.4134165952e+01    0.3996745    0.2060348  51.08   0.00190031    1.947    0.486
       365 -10.0555     35.4763    169.4812   1.1248750769e+02   3.5276970520e+01    0.2588847     0.178506 -77.47 0.0008793208    1.268    0.211
       366  -8.8755    170.5988    171.7793   7.8810169878e+01   1.2569362994e+01    0.1989572    0.1408406 -53.54 0.0007635164    1.533    0.348
       367  -9.9325      9.3114    156.0656   1.1783096038e+02   4.1015020002e+01    0.2402664    0.1835805 -61.44  0.001458917    1.273    0.214
       368 -11.6362      9.5324    166.9973   1.1875215702e+02   3.8337452831e+01    0.4960967    0.3951648  75.97  0.002665534    1.119    0.106
       369 -11.2398     13.4933    159.5376   1.1708416855e+02   3.9827009997e+01    0.5903816    0.2296004 -68.11  0.002684372    2.057    0.514
       370  -9.2031    198.2662    168.0035   7.2192383084e+01   8.0980934008e+00    0.2088092    0.1771541 -30.02 0.0008817511    1.104    0.094
       371  -9.0464    187.5992    168.2173   7.4413446309e+01   1.0051639298e+01     0.322276    0.1698833 -29.36  0.001270693    2.279    0.561
       372  -9.3184    188.7900    163.9896   7.3269306141e+01   1.0665791984e+01    0.2426805    0.1776625 -23.25  0.001180365    1.461    0.316
       373  -9.2691    156.3261    166.0868   8.0862112561e+01   1.6552632327e+01    0.2128302    0.1862598 -47.32 0.0004538805    1.151    0.131
       374  -8.9793    152.4446    166.5177   8.1860491273e+01   1.7218069455e+01    0.1498176    0.1463383  -6.75 9.740851e-05    1.014    0.014
       375 -10.2619     19.0313    164.9077   1.1619372914e+02   3.8029415216e+01     0.313415    0.2736782 -18.61  0.001730363    1.541    0.351
       376 -10.6394     27.9286    162.1725   1.1361996580e+02   3.7866968514e+01    0.4458233    0.2088575 -64.08  0.002101053    1.820    0.450
       377  -9.7878    204.9623    162.9797   6.9813777653e+01   7.8203345536e+00    0.2562811    0.2058907  25.33 0.0005860894    1.309    0.236
       378  -9.4402    208.4577    160.4937   6.8613867040e+01   7.6457447868e+00    0.2408257    0.1740935 -29.83 0.0007898073    1.314    0.239
       379 -10.1906    246.3781    159.0002   6.1682946741e+01   1.3770249036e+00    0.3132891    0.1085855 -38.61  0.001252409    2.457    0.593
       380  -9.0457     79.0149    160.0408   9.9527387817e+01   3.2000196924e+01    0.2405305    0.1695474  74.95  0.000902587    1.654    0.395
       381  -9.5050    224.1767    157.5084   6.5098973498e+01   5.3630480810e+00    0.3512559    0.1733871 -53.10  0.001395031    2.670    0.625
       382  -9.4421    215.5876    158.0843   6.6767388145e+01   6.7924021531e+00     0.289626     0.164397 -27.77  0.001284864    1.881    0.468
       383 -11.0067     33.3663    144.4293   1.0994297030e+02   4.1784999462e+01    0.5746326    0.3568797  25.84  0.001920616    1.880    0.468
       384 -11.8649     12.8300    137.9622   1.1499624939e+02   4.5216103676e+01     2.174208    0.9284383 -89.32  0.008871676    2.717    0.632
       385 -11.8497     15.7538    147.7247   1.1527702796e+02   4.2558859933e+01     0.706391    0.4942862  57.21  0.002826539    1.481    0.325
       386 -11.7955      3.6094    147.3224   1.1850531099e+02   4.3575471308e+01     0.864878    0.2617302 -76.97  0.003152355    2.784    0.641
       387 -11.3433      2.6848    141.6680   1.1821526583e+02   4.5022012273e+01    0.5419163     0.368738  70.15  0.002322453    1.458    0.314
       388 -11.6146     21.2033    150.6264   1.1411560399e+02   4.1372475220e+01    0.2817298     0.230978 -47.80 0.0002102982    1.346    0.257
       389 -11.6246     24.2085    148.0286   1.1298624859e+02   4.1753228527e+01    0.3619488    0.1960841 -72.77 0.0008119805    1.567    0.362
       390 -10.3709    104.8931    154.1300   9.1359716521e+01   2.9178460301e+01    0.3961656    0.3291906 -34.83  0.001982511    1.332    0.249
       391  -9.5649     33.0914    154.4940   1.1133648756e+02   3.9270953560e+01    0.2639603    0.2298973  -8.69  0.001331095    1.492    0.330
       392 -10.5836     31.1720    151.6011   1.1150038150e+02   4.0192655565e+01    0.2912142    0.2279695 -45.15  0.001646996    1.414    0.293
