#   1 NUMBER                 Running object number                                     
#   2 MAG_AUTO               Kron-like elliptical aperture magnitude                    [mag]
#   3 X_IMAGE                Object position along x                                    [pixel]
#   4 Y_IMAGE                Object position along y                                    [pixel]
#   5 X_WORLD                Barycenter position along world x axis                     [deg]
#   6 Y_WORLD                Barycenter position along world y axis                     [deg]
#   7 A_WORLD                Profile RMS along major axis (world units)                 [deg]
#   8 B_WORLD                Profile RMS along minor axis (world units)                 [deg]
#   9 THETA_WORLD            Position angle (CCW/world-x)                               [deg]
#  10 FWHM_WORLD             FWHM assuming a gaussian core                              [deg]
#  11 ELONGATION             A_IMAGE/B_IMAGE                                           
#  12 ELLIPTICITY            1 - B_IMAGE/A_IMAGE                                       
         1 -11.4935    207.9270     28.7851   4.8625004526e+01   2.9358706930e+01    0.7405414    0.5143722 -39.15  0.003728555    1.336    0.251
         2 -10.8609    213.7470     21.4944   4.5894834734e+01   2.8741662686e+01    0.4937432    0.3032157  34.24  0.001162889    2.176    0.541
         3 -12.9801      7.3759     19.2047   1.0484128979e+02   7.2160378077e+01     1.513276    0.6624886 -46.26  0.008301849    1.661    0.398
         4 -11.6412    224.6678      9.3906   4.1554542422e+01   2.7352798519e+01    0.7160969    0.5552785 -54.38  0.003279194    1.158    0.137
         5  -9.8481    208.1125    236.7385   9.6281442582e+01  -1.4549220126e+00    0.3446667    0.2102243 -14.14  0.002145356    2.023    0.506
         6 -10.6979    217.0270    249.3517   9.6577500669e+01  -4.0678362476e+00    0.3994174    0.1849894  43.12  0.002344503    1.926    0.481
         7 -10.5460    203.3967    249.1867   9.8774285838e+01  -2.1277968042e+00    0.3933762    0.2361299  24.34  0.002607681    1.441    0.306
         8  -9.7244    148.8001    249.5980   1.0801231112e+02   5.7904572429e+00    0.3102056    0.1588944  48.93  0.001860089    1.647    0.393
         9 -12.7544     61.9043    162.8633   1.1536063654e+02   3.4023870048e+01     1.346273    0.8004563  75.94  0.002059576    1.758    0.431
        10 -13.4879    123.1208    241.9446   1.1165867759e+02   1.0598148918e+01     3.018887     1.129583  34.20    0.0139088    2.849    0.649
        11 -13.0724     33.7796    189.6314   1.2387477727e+02   3.1627737740e+01     1.263075    0.9305809  50.06  0.008543827    1.301    0.232
        12 -13.4162     12.1209    181.4492   1.2766276567e+02   3.5413198993e+01     2.823045     1.155633 -79.15    0.0157495    2.034    0.508
        13 -12.7104     64.4471    248.6236   1.2223779898e+02   1.7463399667e+01    0.7193643    0.2635309  44.96  0.004045781    1.947    0.486
        14 -12.3845     32.2504    248.3264   1.2742107010e+02   2.1198981247e+01    0.8267417     0.276568  40.63  0.004692185    2.303    0.566
        15 -11.0509      5.8990    249.7797   1.3152478410e+02   2.3621736366e+01     0.339105    0.1311158  39.70  0.002254602    2.151    0.535
        16 -11.4376      2.4519    237.5977   1.3167963718e+02   2.5915708627e+01    0.6604154    0.1860571 -82.12  0.003660536    3.171    0.685
        17 -10.4850      1.4516    227.4023   1.3151658870e+02   2.7729751513e+01     0.288348   0.08366501 -84.05  0.001553393    3.030    0.670
        18  -9.7964    165.8817    234.3996   1.0324202539e+02   5.2268548748e+00    0.3489301    0.2342469   7.22  0.002062324    2.140    0.533
        19 -10.3060     26.5913    234.3074   1.2769999606e+02   2.4100387040e+01    0.1728458    0.1188683  62.91 0.0002993278    1.043    0.041
        20 -11.0763    246.0739    228.5551   8.8861500697e+01  -6.0255482506e+00    0.7243499    0.4707979  -5.96   0.00500531    1.444    0.308
        21 -11.6194    237.7261    224.9941   8.9630376323e+01  -4.4910374878e+00    0.7502754    0.4933878  29.42  0.005113843    1.225    0.184
        22 -12.3431    246.5245    210.4837   8.5826082831e+01  -4.2127100610e+00     1.109285    0.5822811 -27.90   0.00655097    1.935    0.483
        23 -12.5077    238.8981    204.3710   8.6010677825e+01  -2.3958259455e+00    0.7962821     0.396617 -28.25  0.004403757    2.047    0.511
        24 -10.6098     85.7807    228.0081   1.1701744400e+02   1.8063260990e+01    0.2414593    0.1636183 -67.71  0.001470574    1.686    0.407
        25 -10.7115     89.4765    229.9677   1.1651981041e+02   1.7232716560e+01    0.3716794    0.2371494 -75.01  0.002429976    1.760    0.432
        26 -10.6724    156.6943    226.7965   1.0391044944e+02   7.7049033615e+00    0.5006418    0.3886509 -16.23  0.003315527    1.726    0.421
        27  -9.2405    196.7179    229.7639   9.7217637345e+01   1.0678154410e+00     0.182956     0.140626 -18.14  0.001274144    1.477    0.323
        28 -14.4563     69.0807    207.5680   1.1836440076e+02   2.3925268922e+01     1.765276     1.666345 -21.39   0.01310669    1.637    0.389
        29 -11.4928     33.5280    213.4085   1.2543197546e+02   2.7060573489e+01     0.487094     0.316203  46.67  0.002794272    1.382    0.277
        30 -11.2633    135.4393    225.5178   1.0764400545e+02   1.1212552417e+01    0.3437329    0.1926962  42.22  0.001999629    1.434    0.303
        31 -10.6505    123.7852    221.2109   1.0930701532e+02   1.3685028258e+01    0.3878858     0.272029  69.31  0.002432464    1.560    0.359
        32 -12.3819    131.1700    216.5277   1.0735458615e+02   1.3297329004e+01    0.8236731    0.4839268  63.74  0.004395073    2.068    0.516
        33 -11.8802     98.4282    205.9538   1.1246490129e+02   2.0142542412e+01    0.7763793    0.6685159  75.49  0.004185554    1.110    0.099
        34 -10.9528    109.6233    201.9692   1.0977500722e+02   1.9177991877e+01    0.5486982    0.4146408  37.44  0.003024165    1.320    0.242
        35 -11.6254    144.1523    216.6695   1.0491499359e+02   1.1211924335e+01    0.3083513    0.2897237  42.52  0.001937167    1.145    0.127
        36 -11.6313    133.0059    207.6655   1.0587035965e+02   1.4470023773e+01    0.6429005    0.4138952  71.16   0.00344187    2.062    0.515
        37  -8.8948      9.1593    213.0378   1.2971078573e+02   2.9571963870e+01    0.1462064    0.1139556  85.65 0.0007833322    1.263    0.208
        38 -11.1426    149.0736    210.7834   1.0318862555e+02   1.1340470301e+01    0.3169634    0.2481694  39.15  0.002043531    1.091    0.083
        39 -11.1128     10.9816    206.6299   1.2911926469e+02   3.0587803389e+01    0.4625599    0.2622145  30.91  0.002666342    2.142    0.533
        40 -13.3668     66.4766    222.8211   1.2009791845e+02   2.1490129069e+01     1.355775    0.6601039  68.77  0.007556638    2.107    0.525
        41 -15.0384     53.1967    193.3760   1.2027778734e+02   2.8671083780e+01     3.169713     2.157589  83.23   0.02071412    1.278    0.218
        42 -11.7431    197.0524    195.9319   9.1819975076e+01   5.4749166123e+00     0.502781    0.4101423   1.38  0.003201832    1.222    0.182
        43 -12.7887    115.4880    211.4587   1.0975344062e+02   1.6588882315e+01     1.238875     0.626509  48.80   0.00660343    1.671    0.402
        44 -11.9185    249.0762    178.9420   7.9679405944e+01  -9.4380353687e-01    0.8944184    0.2828884 -30.87  0.003726659    3.031    0.670
        45  -9.1221     77.6526    167.8371   1.1234964933e+02   3.0805210881e+01    0.1872798    0.1712701  52.18 0.0005668408    1.218    0.179
        46 -10.1653     83.5053    161.6040   1.1016040114e+02   3.1319046352e+01    0.2693886    0.2225448 -53.30 0.0007092591    1.376    0.273
        47 -10.4914     73.0287    157.3658   1.1205316338e+02   3.3763459511e+01    0.2830786    0.2448385 -73.18   0.00177828    1.165    0.142
        48 -10.6473     70.4032    153.3624   1.1214069847e+02   3.5028236771e+01    0.3890705    0.2540729  49.97  0.002132217    1.469    0.319
        49 -13.8837     54.0493    238.0343   1.2331777752e+02   2.0416879927e+01     1.380304    0.6969928  46.82  0.007992375    1.505    0.335
        50 -11.4614     68.2516    143.7857   1.1131810648e+02   3.7519179026e+01    0.6805082    0.3780393  61.16  0.002701819    1.984    0.496
        51 -10.5179     86.6059    144.4382   1.0678643949e+02   3.4709012971e+01    0.2907817    0.2462187 -45.79 0.0005171949    1.360    0.265
        52 -10.9471      2.0000    131.0144   1.2669915013e+02   4.7153738035e+01    0.3769858    0.1302284 -80.61  0.001781405    2.272    0.560
        53 -11.2590      2.8263    117.9099   1.2544300409e+02   5.0105975965e+01    0.4069892    0.2984734 -38.08  0.002710836    1.784    0.439
        54 -11.4236      3.4673    111.9106   1.2473129183e+02   5.1459111385e+01    0.5049911    0.4172923  57.09  0.003648796    1.336    0.252
        55 -13.7953     77.6106    247.7470   1.1998906330e+02   1.5955815907e+01     1.312142    0.6091794  44.32  0.006950849    1.618    0.382
        56  -8.8799     96.7815    129.4720   1.0143498474e+02   3.6523199622e+01    0.2371643    0.1748004 -24.27  0.000893602    1.965    0.491
        57 -10.1357     32.5842    108.8120   1.1594072763e+02   4.9962036873e+01    0.2552665   0.09858251 -65.64  0.001132084    2.046    0.511
        58 -10.4938      1.8448    102.4516   1.2427928591e+02   5.3763779615e+01    0.5377737   0.09357011 -75.75  0.001779402    4.312    0.768
        59  -9.8275     51.1888     89.3897   1.0648651663e+02   5.2705648623e+01    0.1820191    0.1217066  46.69 0.0009544539    1.709    0.415
        60 -10.1943     58.8834     77.8498   1.0103061878e+02   5.4480687296e+01    0.2238699    0.1774818 -38.34  0.001255163    1.252    0.201
        61 -10.3182      1.9926     39.0233   1.1401702628e+02   6.8328790776e+01    0.3648177    0.1363101 -69.38  0.001714296    2.302    0.566
        62 -10.3548    198.7331     34.4411   5.1434963799e+01   3.1016491965e+01    0.2886141    0.2485086   3.08  0.001460877    1.320    0.243
        63  -9.2295    179.6942    249.3508   1.0273779457e+02   1.2856877060e+00    0.1644848    0.1186014  57.85 0.0009001978    1.729    0.422
        64  -9.2537    161.6947    245.5826   1.0534513733e+02   4.4042660145e+00    0.3022335    0.1526603  45.92  0.001781557    1.613    0.380
        65  -9.3148    169.4966    241.5787   1.0351496158e+02   3.7450550069e+00    0.1836087      0.17169   1.21  0.001460642    1.285    0.222
