#   1 NUMBER                 Running object number                                     
#   2 MAG_AUTO               Kron-like elliptical aperture magnitude                    [mag]
#   3 X_IMAGE                Object position along x                                    [pixel]
#   4 Y_IMAGE                Object position along y                                    [pixel]
#   5 X_WORLD                Barycenter position along world x axis                     [deg]
#   6 Y_WORLD                Barycenter position along world y axis                     [deg]
#   7 A_WORLD                Profile RMS along major axis (world units)                 [deg]
#   8 B_WORLD                Profile RMS along minor axis (world units)                 [deg]
#   9 THETA_WORLD            Position angle (CCW/world-x)                               [deg]
#  10 FWHM_WORLD             FWHM assuming a gaussian core                              [deg]
#  11 ELONGATION             A_IMAGE/B_IMAGE                                           
#  12 ELLIPTICITY            1 - B_IMAGE/A_IMAGE                                       
         1 -12.9727     22.6840      2.1908   3.7656746913e+01   7.1529737473e+01    0.8361372    0.3811901  15.10  0.003975601    2.934    0.659
         2 -14.2589      2.9297     19.6583   5.6797714870e+01   7.1411646736e+01     1.296185    0.5204749 -48.35  0.006809434    2.563    0.610
         3 -12.0528      2.2709      4.0753   5.0196109367e+01   7.3643637624e+01    0.5443754    0.2337635 -33.23  0.003169372    2.120    0.528
         4 -13.5177      7.0406     11.2712   5.0729025459e+01   7.2252264835e+01    0.6488808    0.4927087   7.63  0.004839014    1.175    0.149
         5 -13.6456      9.9205      2.7577   4.4934399983e+01   7.3030762826e+01    0.6862874    0.5850324  35.06  0.005195708    1.833    0.454
         6 -13.0405     13.6749     22.4441   5.1871577472e+01   7.0034586686e+01    0.4384536    0.1852807 -31.73  0.002259996    2.260    0.558
         7 -12.5160     19.9854     12.0029   4.3819768557e+01   7.0753605638e+01    0.2936986    0.1755269  -3.55  0.001721875    1.650    0.394
         8 -12.5281     25.5020      7.0401   3.8610918848e+01   7.0627487947e+01    0.2891092    0.1616094   0.13  0.001641065    2.014    0.503
         9 -12.3353    243.1053    245.9226   4.0696681333e+01  -1.1571645517e+01    0.2177926     0.131875 -25.47  0.001175074    1.382    0.276
        10 -12.2168     65.6824    248.7865   7.8681687323e+01   1.2606022487e+01    0.3819422    0.2094746  49.88  0.001966352    1.596    0.373
        11 -10.4114      9.5035    250.5152   9.0528789922e+01   1.8892347683e+01    0.1657789   0.09581131 -70.12 0.0008028172    1.767    0.434
        12 -10.5386      9.5107    247.5279   9.0365190583e+01   1.9510768845e+01    0.1597641   0.09785057 -71.06 0.0002669122    1.658    0.397
        13 -12.3667    232.7566    244.8326   4.2368951557e+01  -1.0250529446e+01    0.2927233    0.1509947 -20.10  0.001548582    1.989    0.497
        14 -12.0470     84.5098    244.9874   7.4083689433e+01   1.0790243865e+01    0.2843691    0.1557514  47.96  0.001392622    1.645    0.392
        15 -11.2149     45.2818    244.8728   8.2783015930e+01   1.6057476535e+01    0.3056571    0.1341948  47.20  0.001464264    1.911    0.477
        16 -11.5753     10.0810    244.0329   9.0057588838e+01   2.0186081511e+01    0.2425301    0.1113767  70.01 0.0009908194    2.069    0.517
        17  -9.8003     24.6450    244.3132   8.7109324811e+01   1.8586348375e+01    0.1363592   0.06974227  59.86 0.0005762412    1.736    0.424
        18 -11.6831     51.3543    249.9618   8.1898575330e+01   1.4225579001e+01    0.3521973    0.1539189  37.02  0.001691535    1.934    0.483
        19 -11.6428    225.7368    241.6004   4.3127093576e+01  -8.9404277654e+00    0.2309882    0.1245329 -27.84  0.001267519    1.709    0.415
        20 -11.9330     73.1669    240.2372   7.6148844187e+01   1.3396454473e+01    0.3209559    0.1997837  62.57  0.001640222    1.677    0.404
        21 -11.1166     54.4162    240.2123   8.0375946589e+01   1.5911785882e+01    0.2738764     0.164656  65.58  0.001424975    1.676    0.403
        22 -10.7484     38.3391    240.6946   8.3946889095e+01   1.7795828605e+01    0.2162144    0.1164283  61.95  0.001104751    1.765    0.434
        23 -12.0030    248.8822    238.6708   3.8500477638e+01  -1.1170353573e+01    0.2141253    0.1270769 -24.80  0.001057387    1.393    0.282
        24 -12.0725    241.0178    239.0102   3.9926740323e+01  -1.0345330538e+01    0.1985397    0.1162449 -10.51   0.00113714    1.701    0.412
        25 -10.5355     45.0210    236.9782   8.2177733724e+01   1.7800513878e+01    0.2263754    0.1253015  60.93  0.001142118    1.742    0.426
        26 -12.8400     15.4416    240.6253   8.8770570749e+01   2.0361468867e+01    0.3430476    0.1773858  66.25  0.001852333    1.753    0.429
        27 -11.6287     63.6766    232.5807   7.7529671399e+01   1.6372503051e+01     0.359912    0.1955529  72.22  0.001598212    2.332    0.571
        28 -10.9002     11.6083    231.7713   8.9017959586e+01   2.2678251375e+01    0.1725006   0.09663977  84.65  0.000757747    1.636    0.389
        29 -11.1223      1.5180    205.9606   8.9568186197e+01   2.9495268200e+01    0.3324218    0.1208468 -73.30  0.001316667    2.337    0.572
        30 -12.7740      2.8120    212.7172   8.9713304603e+01   2.7811950877e+01    0.5168073    0.2583421  89.29  0.002667663    1.822    0.451
        31 -13.3559      5.9368    228.3744   9.0000193890e+01   2.3982197199e+01    0.7816346    0.2144286 -84.28  0.002824562    4.069    0.754
        32 -10.2283     48.3437    229.6715   8.0776435621e+01   1.9018291798e+01    0.1457978   0.08268896  61.45 0.0007050866    1.747    0.428
        33 -12.1899     10.9031    226.4007   8.8828503792e+01   2.3941437150e+01    0.2799231    0.1455385  68.36  0.001467234    1.784    0.440
        34 -10.6104      1.5353    226.9886   9.0837886978e+01   2.4700814495e+01    0.1818027    0.1007887 -84.79 0.0006775837    1.585    0.369
        35 -12.0390    247.8606    217.1692   3.5031920233e+01  -7.8461825336e+00    0.2770398    0.1420856 -33.95  0.001525066    1.630    0.386
        36 -11.6503      1.4978    219.0160   9.0384476345e+01   2.6489396116e+01    0.2749523    0.1664093 -79.89  0.001331023    1.456    0.313
        37 -12.1900     13.8446    216.4680   8.7516648018e+01   2.5914248192e+01    0.2672208    0.1602595  66.52  0.001477478    1.513    0.339
        38 -12.2803      6.8579    205.5588   8.8328337943e+01   2.9121472732e+01    0.3354195    0.1818988  79.27  0.001613044    1.745    0.427
        39 -11.8625     13.0150    204.5008   8.6826107906e+01   2.8805704547e+01    0.2636372    0.1526792  80.22   0.00138013    1.637    0.389
        40 -10.2997    250.0000    200.0269   3.1662334757e+01  -5.3923221149e+00    0.2044924   0.05822352 -41.41 0.0008038812    2.952    0.661
        41 -12.2440      3.8926    197.2696   8.8428949251e+01   3.1351115777e+01    0.4953502     0.204536  73.37  0.002065811    2.775    0.640
        42 -10.5020      9.2987    198.6237   8.7253326111e+01   3.0555012324e+01    0.1409213   0.07788159  66.53 0.0007026206    1.754    0.430
        43 -10.3335     14.3203    196.6624   8.5895303546e+01   3.0569876877e+01    0.1414411   0.08087993  64.69 0.0007049947    1.710    0.415
        44 -10.6076     11.6738    191.3315   8.6102039542e+01   3.2111630000e+01    0.1409689   0.08112396  64.43 0.0007051103    1.709    0.415
        45 -12.5050      3.2626    187.9902   8.7895447702e+01   3.3643770261e+01    0.4652965    0.2264242  79.40   0.00218526    2.104    0.525
        46 -12.7060      2.2301    178.4702   8.7406824079e+01   3.6057206853e+01    0.5300367     0.205381 -84.80  0.002208609    2.510    0.602
        47 -12.4724      5.5585    174.3509   8.6208241559e+01   3.6819814282e+01    0.3001688    0.1639918  68.99  0.001378982    1.918    0.479
        48 -12.5658      4.0084    154.5094   8.4776604611e+01   4.1906029695e+01    0.3558803    0.1650456 -74.38  0.001660719    1.833    0.454
        49 -11.4444      2.5104    142.9915   8.4011685599e+01   4.4900379507e+01    0.2122363    0.1106908 -73.31  0.001042802    1.620    0.383
        50 -10.2430    250.3180    140.3123   2.0592853644e+01   4.6579696958e+00    0.1224757   0.09126366 -16.30 0.0005164376    1.645    0.392
        51 -11.6760      4.3528    136.4984   8.2718610488e+01   4.6410653547e+01    0.2398243    0.1064642 -71.78  0.001015087    1.906    0.475
        52 -11.2564    247.9739    129.5225   1.8870434991e+01   6.8821794162e+00    0.2597475    0.1499131 -53.16  0.001376448    1.613    0.380
        53 -11.5671      2.6887    126.4927   8.2026381021e+01   4.9006317334e+01     0.249968    0.1017249 -70.74  0.001092115    2.065    0.516
        54 -11.9779    239.5582    123.8845   1.8950709830e+01   9.2507943884e+00    0.4265401    0.2113061 -49.10  0.002069826    1.766    0.434
        55 -12.3550    247.8853    118.4137   1.6762527062e+01   8.7918838106e+00    0.4239268    0.1704963 -48.12  0.001917233    2.115    0.527
        56 -10.7734    231.4812    115.0102   1.8337381316e+01   1.2216602077e+01    0.2125989    0.1127103 -44.06  0.001040275    1.616    0.381
        57 -12.1656    241.1904    108.8970   1.5804186289e+01   1.1543773942e+01    0.2856287    0.1457034 -51.72  0.001419363    1.741    0.426
        58 -11.7063    243.3924     98.1851   1.3451652621e+01   1.2940208140e+01    0.1897016   0.09524627 -50.93 0.0009083197    1.703    0.413
        59 -11.7923    248.5988     91.8154   1.1621789346e+01   1.3054525911e+01    0.1861871   0.09169722 -51.10 0.0009527245    1.702    0.413
        60 -11.9540      1.9241     39.9027   6.4711978180e+01   6.8126295481e+01    0.2930083    0.1397052 -47.87  0.001636839    1.762    0.433
        61 -12.5490      9.1752     35.6693   5.9430973499e+01   6.8343785416e+01    0.3607781    0.1174133 -43.46  0.001682917    2.525    0.604
        62 -10.9688    144.5032    249.5057   6.1119710157e+01   9.5919227678e-01    0.1342015    0.1147074  23.67 -5.176051e-05    1.008    0.008
        63 -11.4077     34.0287    248.4916   8.5448847298e+01   1.6637926706e+01    0.2423201    0.1463128  75.09  0.001368981    1.590    0.371
        64 -11.3595      4.1106    248.6631   9.1480235627e+01   1.9814384876e+01    0.3170905    0.1431718  45.15  0.001770372    1.773    0.436
        65 -12.6915      3.2248    242.2501   9.1323368915e+01   2.1240288201e+01    0.5088275    0.2360794  74.67  0.002674135    2.010    0.502
        66 -10.9369     13.7126    247.9563   8.9556620462e+01   1.8989843582e+01    0.1723823    0.1276166  74.22  0.000828293    1.108    0.097
        67 -11.2323    100.4941    247.4917   7.0748181621e+01   7.9505581116e+00    0.1354231    0.1156257  43.95  3.26888e-05    1.024    0.023
        68 -11.1893     20.4828     21.5323   4.7834566377e+01   6.9438771355e+01    0.2074876   0.08972917 -29.60  0.001038965    2.351    0.575
        69 -12.1071     19.5069    249.4243   8.8484557409e+01   1.8070182153e+01    0.3563453    0.1598105  47.04  0.001893269    1.786    0.440
