#   1 NUMBER                 Running object number                                     
#   2 MAG_AUTO               Kron-like elliptical aperture magnitude                    [mag]
#   3 X_IMAGE                Object position along x                                    [pixel]
#   4 Y_IMAGE                Object position along y                                    [pixel]
#   5 X_WORLD                Barycenter position along world x axis                     [deg]
#   6 Y_WORLD                Barycenter position along world y axis                     [deg]
#   7 A_WORLD                Profile RMS along major axis (world units)                 [deg]
#   8 B_WORLD                Profile RMS along minor axis (world units)                 [deg]
#   9 THETA_WORLD            Position angle (CCW/world-x)                               [deg]
#  10 FWHM_WORLD             FWHM assuming a gaussian core                              [deg]
#  11 ELONGATION             A_IMAGE/B_IMAGE                                           
#  12 ELLIPTICITY            1 - B_IMAGE/A_IMAGE                                       
         1 -14.8449     69.1507    144.5482   9.2203010886e+01   3.7478651263e+01     4.537493     2.215299  72.59   0.00282127    4.034    0.752
         2 -14.3971    205.1875     43.2858   3.6149623492e+01   2.8232770152e+01     1.839832     1.364863  18.88  0.005798422    1.809    0.447
         3 -14.3290    217.2966     32.4405   3.1935248354e+01   2.6741434278e+01     1.099937    0.8663113  29.87   0.00490354    1.618    0.382
         4 -12.6859    246.5390      9.8600   2.4074723483e+01   2.2774993403e+01     0.519998    0.4402912  15.61  0.002948911    1.601    0.375
         5 -12.8333    240.2075      7.7744   2.3997297403e+01   2.4327810108e+01    0.6785902    0.3622724 -37.11  0.003168291    1.575    0.365
         6 -12.6602    245.0248      3.2924   2.2673757926e+01   2.3749715309e+01    0.6032594    0.3174921 -81.18   0.00295335    1.978    0.494
         7 -11.2128     52.3099      4.2456   5.3892348869e+01   6.8698686873e+01    0.2687176    0.2056148  61.05 0.0009476416    1.694    0.410
         8 -10.8625     47.7197      2.5196   5.4771522342e+01   6.9708392640e+01    0.2250895     0.203489  -5.46 0.0005166261    1.150    0.131
         9 -10.0178     32.9405    210.3286   1.0732868071e+02   2.7873632048e+01    0.1513345    0.1166444  56.66 0.0003682482    1.116    0.104
        10 -11.5332    139.9856    249.1562   9.0602217458e+01   7.4075340859e+00    0.2863844    0.2318769 -78.23  0.002114606    1.706    0.414
        11 -16.2952     38.2183    188.5023   1.0466727285e+02   3.1641260045e+01     6.178387     2.166916  62.72   0.01827672    3.600    0.722
        12  -9.3845    131.6553    191.3368   8.4765491115e+01   1.7870164364e+01    0.1345757   0.09495701  68.89 0.0007049128    1.772    0.436
        13 -10.2467    145.9582    184.0125   8.0625539664e+01   1.6781055855e+01    0.2105822    0.1575186  70.45  0.001136299    1.724    0.420
        14  -8.7291    224.2656    206.6964   6.9880128270e+01   6.4336762399e-01   0.09457776   0.09367932  13.67 0.0002135532    1.525    0.344
        15  -9.7016     81.1648    183.3182   9.4643895641e+01   2.7283541566e+01    0.2144161    0.1440417  37.65 0.0007926084    1.454    0.312
        16  -8.7186    149.3242    192.3015   8.1279624343e+01   1.4757347276e+01    0.1278941   0.09706912   7.54 0.0002486136    1.635    0.388
        17 -10.2491     99.4925    180.9214   9.0214400253e+01   2.5045256368e+01    0.2461346    0.1792102  42.61  0.000637734    1.271    0.213
        18 -12.7661    237.3342    175.1351   6.2139675779e+01   2.6904897923e+00    0.5733842    0.2603346  36.86  0.002864419    2.175    0.540
        19 -13.3263     77.7475    158.0587   9.2051503276e+01   3.3192420892e+01     1.680411    0.6352953  59.07 0.0005858294    5.282    0.811
        20 -13.4810     65.5666    153.8954   9.4504617217e+01   3.5836876751e+01    0.4429323    0.3864057 -15.21 0.0009674363    1.566    0.361
        21 -12.4108    203.2252    199.5691   7.2268666378e+01   4.7662576828e+00    0.5017198     0.202523  35.31  0.002315233    2.315    0.568
        22 -12.1790     64.0910    171.5039   9.7135528907e+01   3.2127201581e+01    0.3751425    0.2810874 -24.02  0.002068464    2.139    0.533
        23 -12.1459     68.8303    166.7852   9.5425774614e+01   3.2521276407e+01    0.3300788    0.2787752  22.54 0.0008060976    1.461    0.316
        24 -15.3142      5.8880    142.2116   1.0853585851e+02   4.4819063091e+01     5.083054    0.8177105 -76.09   0.01623261    5.002    0.800
        25 -10.7456     45.6180    166.5948   1.0096521947e+02   3.5490609234e+01    0.2522715    0.1698185  67.36  0.000498765    1.376    0.273
        26  -9.7802    185.9847    172.3341   7.0549160420e+01   1.1727109272e+01    0.1932544    0.1629913  31.19  0.001164615    1.107    0.097
        27  -9.1783    192.3230    169.3144   6.8778464635e+01   1.1083511081e+01    0.1365017   0.09670334   6.89 0.0006580915    1.661    0.398
        28  -9.8303    110.7520    167.6052   8.5634122867e+01   2.5955404857e+01    0.2569459    0.1805194 -73.76 0.0009632782    1.645    0.392
        29 -11.0416     69.5238    161.3019   9.4535394888e+01   3.3635748500e+01    0.4216176    0.3270146  43.66  0.002502451    1.276    0.216
        30  -9.7450    187.3112    166.3145   6.9139683629e+01   1.2467168867e+01    0.1366926   0.09889511   5.88 0.0007031514    1.635    0.388
        31  -9.2698    101.7433    163.5459   8.7082415466e+01   2.8289798297e+01    0.1813856    0.1174291  52.65  0.000584116    1.509    0.337
        32  -9.7148     53.0724    162.1269   9.8669436211e+01   3.5593582124e+01    0.2898112    0.1612887  14.98    0.0012736    3.153    0.683
        33 -12.1240     85.5337    151.9130   8.9158586832e+01   3.3396586149e+01    0.5524458    0.4330568 -13.18   0.00175223    1.907    0.476
        34 -11.2124    134.0000    146.0130   7.6271008894e+01   2.6254678665e+01     0.852724    0.2416292 -51.78  0.002594403    4.047    0.753
        35 -11.0108    133.0000    140.9935   7.5465733935e+01   2.7475162521e+01    0.5397115    0.1866416 -50.83  0.001844195    3.087    0.676
        36 -10.5336    174.7937    149.4383   6.8164786557e+01   1.7697003109e+01    0.2533497    0.1958878 -38.58 0.0006341102    1.312    0.238
        37 -11.2352     54.3541    147.3653   9.6489905860e+01   3.8786686165e+01     0.601393    0.2454816 -55.15  0.002612977    2.400    0.583
        38 -10.9544     86.5821    173.4827   9.2126119018e+01   2.8546269347e+01    0.4273887    0.2760834  25.61  0.002191855    1.908    0.476
        39  -9.3521     34.6848    145.6480   1.0141455860e+02   4.1436927382e+01    0.2013475    0.1331373 -59.74  0.001142725    1.491    0.329
        40 -10.4288     31.9276    143.1736   1.0185967507e+02   4.2293154624e+01    0.2999042    0.2198252  81.51   0.00124089    1.225    0.184
        41 -12.4843     87.4743    137.6770   8.6198999106e+01   3.6306107764e+01    0.3276657    0.2621131 -72.93 0.0006416757    1.233    0.189
        42 -10.2256     99.4793    139.4962   8.3412493898e+01   3.3911764713e+01    0.2681379    0.2415875  85.61 0.0007531837    1.091    0.084
        43  -9.9506    102.0121    136.5076   8.2178440507e+01   3.4142118195e+01    0.2877069    0.2338999  -3.28  0.001108232    1.692    0.409
        44 -10.6936    105.9472    130.9852   8.0035185815e+01   3.4675232691e+01     0.330791    0.2926828 -70.51  0.001234813    1.123    0.109
        45 -10.4379    109.8393    129.3998   7.8692872445e+01   3.4319351042e+01    0.3249644    0.2470965  22.08  0.001160158    1.622    0.383
        46 -11.3843    135.6469    128.4011   7.2081768535e+01   2.9554601138e+01    0.6371074    0.1843662 -47.02  0.001977769    3.495    0.714
        47 -10.2140    160.6444    128.4927   6.6464133850e+01   2.4410660334e+01    0.3026301    0.1844804 -44.64  0.001368623    1.652    0.395
        48 -10.7712     97.2771    124.8905   8.1040409524e+01   3.7576057865e+01    0.2942548    0.2464146  -1.32  0.000720461    1.567    0.362
        49  -9.6904    116.7343    123.4449   7.5603782191e+01   3.4327784138e+01    0.2043226    0.1412694  30.26 0.0009438717    1.673    0.402
        50  -9.6935    163.1783    121.1282   6.4178072977e+01   2.5277332301e+01    0.1990411    0.1726814 -69.52 0.0004158239    1.317    0.241
        51 -10.4428     44.1239    129.8275   9.6819124942e+01   4.4110895966e+01    0.2087968    0.1615807  78.16 0.0007362504    1.246    0.198
        52 -17.5584     15.4089    241.1526   1.1212825905e+02   2.4120748103e+01     6.383291       1.9059  28.62   0.02801827    4.655    0.785
        53  -9.8572    106.9319    118.1538   7.6947675938e+01   3.7344847404e+01     0.203854    0.1994046 -87.30 0.0003106493    1.025    0.024
        54  -9.0534     81.0729    115.5592   8.3570131363e+01   4.2430581450e+01    0.2037822    0.1108754  59.79 0.0008069334    2.491    0.599
        55  -9.7183    135.0000    112.9811   6.8542289596e+01   3.2868488314e+01    0.2498695   0.08413313 -44.44 0.0008026917    2.944    0.660
        56 -10.2256    205.4514    110.2811   5.3509496532e+01   1.8174091232e+01    0.2909148    0.2194187  40.65  0.001019809    1.401    0.286
        57 -11.5406    248.4474    107.9998   4.6559297379e+01   1.0043866406e+01    0.4228267    0.1613985 -22.00  0.001479312    3.628    0.724
        58 -10.6813    231.3146    113.9148   5.0286184123e+01   1.2409970958e+01    0.2651439    0.2368251 -19.47 0.0007618924    1.012    0.012
        59 -10.6630     28.3991    107.7002   9.8218370050e+01   5.1018720715e+01    0.3843293    0.1283459  22.09  0.001459682    3.988    0.749
        60 -12.3825    239.6108    169.0643   6.0623952737e+01   3.1331613536e+00    0.4507426    0.2117976  48.31  0.001562777    2.516    0.603
        61  -9.5930     30.7142     95.4328   9.5397444642e+01   5.3720163987e+01    0.2303624    0.1175566  34.47  0.001135664    2.143    0.533
        62 -10.6382     53.1213     91.1094   8.6854538304e+01   5.2212703663e+01    0.2156257    0.1752693 -41.81 0.0005028874    1.240    0.193
        63  -9.9251     18.5141     90.5593   9.8754671351e+01   5.5949789911e+01    0.2666682    0.1071211  31.21 0.0009580636    2.698    0.629
        64 -10.3462    160.1941     83.8300   5.4974029387e+01   3.2850592255e+01    0.2285257    0.2042679 -63.94 0.0005307898    1.173    0.148
        65  -9.5303     71.9559     83.1681   7.8474351320e+01   5.1306114485e+01    0.2086219    0.1808122  78.55 0.0005095824    1.323    0.244
        66  -9.2156    129.7245     64.9927   5.5991514786e+01   4.3363820552e+01    0.2017724    0.1899195 -39.19 0.0003888319    1.049    0.046
        67  -9.5085     89.3372     64.8802   6.7145466786e+01   5.2092517320e+01    0.2277129    0.1741183 -61.84 0.0009119331    1.502    0.334
        68 -13.2895    195.2057     50.1811   3.9334912099e+01   2.9702795666e+01    0.8520473    0.6237095  44.00  0.000828377    1.531    0.347
        69 -11.9704    192.7599    194.5678   7.3291645870e+01   7.1524505045e+00    0.9530646    0.4671118 -58.00  0.003233498    5.883    0.830
        70 -11.5371    120.0092    245.1343   9.3753960539e+01   1.0774068167e+01    0.1706601    0.1593492  79.21 0.0006742039    1.264    0.209
        71  -8.6021     82.9932     60.0000   6.7511664231e+01   5.4253365247e+01    0.2148023   0.08132275  44.10  0.000433872    2.771    0.639
        72  -9.2134     43.9997     40.7769   7.5116552665e+01   6.4290642338e+01     0.154615     0.105687  31.03 0.0003655755    1.593    0.372
        73 -10.2904    187.9722     31.2753   3.4890741820e+01   3.3902754352e+01    0.1971077    0.1788702 -89.88 0.0005870097    1.074    0.069
        74  -9.6029    197.9855     23.6134   3.1558899012e+01   3.2338478060e+01     0.218982    0.1824449 -15.43 0.0005345019    1.338    0.253
        75 -10.5817     13.5553     60.0516   9.4625044500e+01   6.3371052743e+01    0.2295511    0.1833026 -57.60 0.0004161586    1.030    0.029
        76  -9.5764    189.4986     15.0176   3.0019619078e+01   3.5345918023e+01    0.1996065    0.1292603 -27.85 0.0006088518    1.552    0.356
        77 -11.4832    106.8979    203.1671   9.1559728377e+01   1.9618253010e+01    0.3303979    0.1958015  76.06  0.001590398    2.529    0.605
        78 -10.5465    123.4104    201.0746   8.7876416595e+01   1.7447374402e+01    0.2187312    0.1770815  72.41 0.0007444237    1.356    0.263
        79 -16.0098     10.1370    209.1078   1.1166581124e+02   3.0386936599e+01      1.50249    0.9798506  85.21  0.004803257    1.282    0.220
        80  -9.8308     82.3519    195.0589   9.5772695369e+01   2.4749057539e+01    0.2071224    0.1669716  34.01  0.001314678    1.329    0.248
