#   1 NUMBER                 Running object number                                     
#   2 MAG_AUTO               Kron-like elliptical aperture magnitude                    [mag]
#   3 X_IMAGE                Object position along x                                    [pixel]
#   4 Y_IMAGE                Object position along y                                    [pixel]
#   5 X_WORLD                Barycenter position along world x axis                     [deg]
#   6 Y_WORLD                Barycenter position along world y axis                     [deg]
#   7 A_WORLD                Profile RMS along major axis (world units)                 [deg]
#   8 B_WORLD                Profile RMS along minor axis (world units)                 [deg]
#   9 THETA_WORLD            Position angle (CCW/world-x)                               [deg]
#  10 FWHM_WORLD             FWHM assuming a gaussian core                              [deg]
#  11 ELONGATION             A_IMAGE/B_IMAGE                                           
#  12 ELLIPTICITY            1 - B_IMAGE/A_IMAGE                                       
         1 -12.3306    124.2997     26.8529   7.3877157182e+01   5.1030781980e+01    0.8713203    0.6702594 -10.72  0.002522176    1.318    0.241
         2 -13.7981    118.2537     40.7946   8.0791389288e+01   5.0284989292e+01     1.661001    0.9408627  46.42  0.007402157    1.797    0.443
         3 -12.5377     60.4166     45.0788   1.0052223203e+02   5.9779260569e+01     0.964187    0.4439791 -49.58  0.004529086    1.875    0.467
         4 -11.8244    109.3877      2.2848   6.7028294649e+01   5.7495639378e+01     1.941632    0.4750807  62.96  0.005437396    5.242    0.809
         5 -10.2773    145.5041     16.3516   6.5094105110e+01   4.7160656708e+01     0.338347    0.2606915 -69.18 -5.119154e-05    1.635    0.389
         6 -11.5575    139.9118     20.5315   6.7842969199e+01   4.8079815543e+01    0.7741138    0.3115333  47.64  0.002322083    2.366    0.577
         7 -12.6533    130.9883     14.2784   6.7257159751e+01   5.1041518881e+01     1.764049     0.802735  71.61   0.00624126    3.123    0.680
         8 -11.2069    121.0423      7.7654   6.6731599283e+01   5.4185190520e+01    0.3617641    0.3248905  47.74  0.001074215    1.131    0.116
         9 -11.8072    198.6495     27.5342   6.0215255043e+01   3.1853537706e+01    0.6502528    0.4207874   1.88  0.002239996    1.862    0.463
        10 -11.9417    105.9584     32.6705   8.1053446623e+01   5.4216522878e+01     0.939387    0.5209063   1.78  0.003100398    4.018    0.751
        11 -11.8203    105.9949     19.9818   7.5802324270e+01   5.6096776785e+01    0.5188783     0.244926 -22.14 0.0004757025    2.262    0.558
        12 -10.5372      5.1501      9.0576   1.1163525709e+02   7.2090704134e+01    0.8339741    0.2958836 -61.34  0.004098708    2.447    0.591
        13 -11.8174     26.4409     27.5875   1.0804067697e+02   6.6963501134e+01      0.47134    0.4484834  89.92  0.003035055    1.336    0.251
        14 -12.3711     18.9493     22.7190   1.0972882005e+02   6.8526279125e+01    0.5229774    0.3888884 -50.29  0.002059272    1.054    0.051
        15 -12.8232     15.3937     13.8289   1.0823030354e+02   7.0506133507e+01    0.8063372    0.4208852 -42.97  0.002713167    1.484    0.326
        16 -11.8315     22.8984     11.0789   1.0343729820e+02   7.0409053317e+01    0.4750225     0.303276 -20.92  0.002171272    1.646    0.393
        17 -11.5764    182.5278     25.0859   6.1797807725e+01   3.6417653228e+01      0.91545      0.39689  39.20  0.003195627    2.749    0.636
        18 -11.5094    178.1644     21.5243   6.1277372811e+01   3.7988554256e+01    0.8294497    0.4659958  14.10  0.003172044    2.502    0.600
        19 -11.4607    153.9375     25.4633   6.6881251071e+01   4.3901136970e+01    0.6009536     0.447312  29.58  0.002775179    1.401    0.286
        20  -9.1355     87.7929      7.4746   7.5421312270e+01   6.1526115473e+01     0.556373    0.3083014  40.83  0.002627022    1.807    0.446
        21 -11.6622     90.7201     20.3316   8.0443019494e+01   5.9179146413e+01    0.8184487    0.4841887 -22.48   0.00394361    1.685    0.406
        22 -11.4109     86.0187     14.0812   7.9105583451e+01   6.0989258928e+01    0.6087213    0.3754537  -9.87  0.002618405    1.835    0.455
        23 -10.8318    222.8684     21.2617   5.5276769057e+01   2.6232376043e+01    0.5398432    0.2852618 -61.71  0.002149339    2.486    0.598
        24 -10.7949     42.4148      3.5364   9.0559980210e+01   6.9568362733e+01    0.6018543    0.2728992 -21.11  0.002467534    3.309    0.698
        25 -10.9438     47.1221     18.8839   9.5779439043e+01   6.6421928325e+01    0.3450696    0.2454982 -31.93  0.001188134    1.185    0.156
        26 -10.5633     36.1392      9.4206   9.6362277138e+01   6.9368779979e+01    0.3871687    0.1445742  42.58  0.001703086    3.777    0.735
        27 -12.6406     47.5443     12.9119   9.2917737893e+01   6.7392844010e+01    0.8841359    0.3588572  36.67  0.004157915    2.833    0.647
        28 -11.6381     35.5493     18.7160   1.0072049004e+02   6.7787323499e+01    0.5512038    0.2459676 -39.28  0.002232101    1.913    0.477
        29 -12.4818     69.5014     18.3520   8.6734654744e+01   6.3281378880e+01     0.649098    0.4736677  39.99  0.003783368    1.521    0.342
        30 -12.1825    236.9107     16.3011   5.2407091816e+01   2.3212300013e+01     0.747045    0.4818912  29.98  0.003241457    1.865    0.464
        31 -11.5712    244.7589     15.7308   5.1512135012e+01   2.1354226804e+01    0.5070054    0.3361203  63.36  0.002632432    1.556    0.358
        32 -10.4750    206.8210     18.1395   5.6222061702e+01   3.0725284871e+01    0.4169558    0.2257881 -39.32  0.001800069    1.819    0.450
        33 -10.5527     38.5389     21.9974   1.0073631089e+02   6.6861725758e+01    0.4119845     0.157053 -42.48  0.001912111    2.162    0.538
        34 -11.3415    165.4182     17.1829   6.1816006219e+01   4.1867341593e+01    0.4284439     0.272285  37.15  0.000558574    1.637    0.389
        35 -10.7145    186.4591     15.2304   5.7943396984e+01   3.6450071864e+01    0.3351069    0.2528273  40.90 0.0006436011    1.335    0.251
        36 -11.8881    186.3920      9.2800   5.5977563811e+01   3.7066677192e+01    0.7385038    0.3634224 -62.79  0.002622161    3.029    0.670
        37 -11.8874    192.9561      7.0992   5.4432659358e+01   3.5512733037e+01    0.7940114    0.4741037  30.62  0.003397709    1.945    0.486
        38 -10.6633    223.4276     11.9240   5.2513039255e+01   2.7035966302e+01    0.4241489    0.2603209  70.83  0.001366335    1.650    0.394
        39 -12.3198    104.9612     12.8862   7.2978631013e+01   5.7261308070e+01    0.5569654    0.3922909 -23.57   0.00261116    1.348    0.258
        40 -10.6132     62.9291      6.1688   8.3343623908e+01   6.6191145566e+01    0.3140235    0.1948848 -15.66  0.001006522    1.620    0.383
        41 -11.0753     65.8181     10.4278   8.4371884861e+01   6.5102391564e+01    0.3535913     0.219835  41.83  0.001818206    1.766    0.434
        42 -11.6725    211.6280     10.1648   5.3238521852e+01   3.0263586708e+01    0.5165268      0.33339   8.79  0.001415138    1.890    0.471
        43 -10.1732    157.4437     10.7203   6.0793156581e+01   4.4667391362e+01    0.4071736    0.1328314 -24.29  0.001374824    2.932    0.659
        44 -10.2927     31.9285     12.0011   9.9507735589e+01   6.9376512467e+01     0.175823    0.1430376 -36.68 0.0003936365    1.081    0.075
        45 -11.5724    238.3109      6.7717   4.9663930223e+01   2.3788503469e+01    0.4132346    0.2495228 -66.43  0.001961106    1.872    0.466
        46 -12.0322    246.4969      7.2215   4.9091262236e+01   2.1755568263e+01    0.5239031    0.4161068 -79.69  0.001918841    1.314    0.239
        47 -10.7807    240.9943      3.9860   4.8681731652e+01   2.3387781548e+01    0.2874061    0.2048596  76.31  0.001007604    1.443    0.307
        48 -10.1888    168.8289     10.0034   5.8708651662e+01   4.1713358281e+01    0.3417468    0.1708468  47.81  0.001395076    1.916    0.478
        49 -10.0240    152.2628      7.2441   6.0361961088e+01   4.6381182991e+01    0.3907242    0.1781117  44.60  0.001529667    2.139    0.533
        50 -11.5620     76.8496      5.4047   7.7934827561e+01   6.3886744558e+01    0.4902605     0.469272 -14.45  0.003231212    1.238    0.192
        51 -10.0889      1.2711      7.1901   1.1300021711e+02   7.2662715286e+01    0.1457204   0.07701527 -61.87 0.0002881043    1.587    0.370
        52  -9.4124    202.4282      6.2004   5.3040339234e+01   3.3067958591e+01    0.2861291    0.1804203 -25.37 0.0009662582    1.567    0.362
        53 -11.2875    204.5435      2.3307   5.1609696998e+01   3.2859350837e+01    0.5276366    0.3003999  81.00  0.001313402    1.865    0.464
        54  -9.9953    162.9056      5.6481   5.8042344138e+01   4.3720305536e+01    0.2703576    0.1956179  12.23 0.0006497914    1.507    0.336
        55 -11.2167    218.8536      2.6696   5.0276347407e+01   2.9081024871e+01    0.4746221    0.3292385 -85.21  0.001594676    1.553    0.356
        56 -11.7877    224.2328      1.5955   4.9467015156e+01   2.7794918860e+01    0.8428902    0.3789587 -75.71  0.003010256    3.296    0.697
        57 -10.6082    173.9836      4.5757   5.6045146268e+01   4.0851888813e+01    0.5096164    0.2399938  74.18  0.001982793    2.262    0.558
        58 -10.7677    141.8999      3.8131   6.0844923202e+01   4.9406525427e+01    0.3904225    0.3164459  72.60  0.002068593    1.312    0.238
        59 -10.3057     29.9031      3.3814   9.6415918216e+01   7.1068359965e+01    0.3097755    0.1734494 -60.05  0.001504189    2.970    0.663
        60 -11.2212    157.7476      2.7173   5.7755295629e+01   4.5365075967e+01    0.3508149    0.3279844 -76.20  0.001087717    1.165    0.141
        61 -12.0427    133.8548      2.6202   6.1864736051e+01   5.1567507310e+01    0.3980187      0.29098  61.10 0.0005046073    1.354    0.261
        62 -10.1091    182.9881      2.0497   5.3995012549e+01   3.8655316418e+01    0.2672061    0.1996643 -45.80  0.001345934    1.405    0.288
        63 -11.5256      3.1610      1.7868   1.0987471773e+02   7.3566415105e+01    0.3608753    0.1782102   5.33  0.002116305    2.703    0.630
        64  -9.9393     14.2535      1.8314   1.0377805409e+02   7.2789814707e+01    0.2273673    0.1218487 -16.62  0.001261445    2.350    0.574
        65  -9.0187    162.6492      1.2528   5.6470791158e+01   4.4192231222e+01    0.1460788    0.1080207 -67.17 0.0001714693    1.595    0.373
        66  -9.4857     82.0933      1.1673   7.4072342796e+01   6.3418973738e+01    0.1693276   0.09282865  48.98 0.0005817495    1.866    0.464
        67  -9.7601      3.9656    120.9606   1.3096410562e+02   4.8869692416e+01    0.1734661   0.09440956  71.23  0.000875817    1.641    0.391
        68  -9.8203    148.3956    119.8033   9.6305846885e+01   2.9383254904e+01    0.1942931    0.1339418 -31.33 0.0006595137    1.674    0.403
        69  -9.6307     72.8545    119.8516   1.1419296711e+02   4.2284315967e+01    0.1759606    0.1624587 -47.39 0.0005386969    1.288    0.224
        70 -10.8861     34.4507    118.9923   1.2354416961e+02   4.6821145684e+01    0.1785365    0.1639897 -28.80   0.00076605    1.507    0.336
        71  -9.7368    113.8941    115.8986   1.0339967210e+02   3.6727638441e+01    0.1930632    0.1835659  -4.76 0.0003795944    1.234    0.189
        72 -11.4280     35.4051     92.9492   1.1981057451e+02   5.2314778117e+01     1.352622    0.7142125 -79.93  0.007280134    1.835    0.455
        73 -12.5909     39.6923     85.7060   1.1737968734e+02   5.3487110189e+01     1.490098    0.3741355  25.90  0.002219958    6.129    0.837
        74 -12.1556      7.3409     88.8424   1.2716458787e+02   5.5355093900e+01    0.4192606    0.3434391  89.45  0.001044504    1.114    0.102
        75 -12.3054     18.8739    106.0089   1.2598040691e+02   5.0900236495e+01    0.4343511     0.206461 -52.99 0.0003035646    2.142    0.533
        76 -11.2188     21.4540    114.3501   1.2621948425e+02   4.8936307240e+01    0.2702135     0.225773   2.67  0.001610408    1.778    0.438
        77 -11.3522     28.5057    113.0268   1.2432573771e+02   4.8620513753e+01    0.3152934    0.2266394  26.41  0.001565674    1.793    0.442
        78 -12.5961     25.5994    107.5511   1.2442738274e+02   5.0031732399e+01    0.9076583    0.5868497 -40.86  0.005110303    2.025    0.506
        79 -12.0500     18.9456     95.9541   1.2479817329e+02   5.3038514866e+01    0.4605455      0.25147  62.95  0.002282599    2.012    0.503
        80 -11.2334     23.2702     94.6484   1.2344560773e+02   5.2985412362e+01    0.2614811    0.2044669  64.52 0.0009093878    1.322    0.244
        81 -12.3030     18.3984     90.4000   1.2425017189e+02   5.4272040410e+01    0.3754027    0.2353326 -68.50  0.000583105    1.263    0.208
        82  -9.7096     87.9986    114.4074   1.0946939572e+02   4.1282774405e+01    0.2572601     0.108022  48.26 0.0008198633    2.494    0.599
        83 -10.6831     67.1744    112.0814   1.1434406945e+02   4.4676404043e+01     0.408761    0.2286171 -66.96  0.002010646    1.652    0.395
        84 -10.7117    107.9770    112.5133   1.0412954524e+02   3.8448722042e+01    0.3361298    0.2234727  72.75   0.00159688    1.982    0.495
        85 -11.4828      2.4655    112.1277   1.3063570913e+02   5.0776856978e+01     0.279969    0.1607233 -85.96 0.0007914032    1.340    0.254
        86 -12.0726      4.2354    105.6068   1.2965517720e+02   5.2014829757e+01    0.4288375    0.2931387  86.46  0.002201287    1.172    0.147
        87 -11.5403    171.2082    109.8399   8.9099319002e+01   2.6322216541e+01    0.6430021     0.414977  30.89  0.002931363    1.759    0.432
        88 -10.0199     48.8959    112.1486   1.1904467783e+02   4.6817073613e+01    0.1898514    0.1426828  78.94  0.001188564    1.269    0.212
        89 -11.2589    101.7915    109.7290   1.0508166620e+02   4.0070901208e+01    0.4401514    0.3434013  43.99  0.002507826    1.322    0.244
        90 -10.2068     83.0125    111.5009   1.1018626992e+02   4.2634049933e+01    0.2440573    0.1183894  44.57 0.0008874647    2.105    0.525
        91 -11.0496     78.6982    108.0789   1.1065517929e+02   4.3980243200e+01    0.3994663    0.3177001  33.68  0.001786816    1.454    0.312
        92 -11.0529    249.4543    108.5918   7.4929364926e+01   9.4004915873e+00    0.3195654    0.2304774 -45.78  0.001700072    1.700    0.412
        93 -10.9059    157.6439    106.0156   9.1038488647e+01   2.9956047094e+01    0.4666587      0.31141  -4.51  0.001948656    2.436    0.590
        94 -10.8981    181.4597    102.9778   8.5306785997e+01   2.5184219286e+01     0.576907    0.4453825 -80.35   0.00275282    1.864    0.463
        95 -11.8620    145.0000    101.9482   9.2850063526e+01   3.3406764228e+01    0.6400005    0.3588438 -27.35  0.002588996    2.391    0.582
        96 -11.2603     86.9330    104.4840   1.0780338239e+02   4.3538477442e+01    0.4499759    0.2408527  39.49  0.001587214    1.994    0.498
        97 -11.0847     48.0914    103.0838   1.1789491030e+02   4.8854516084e+01    0.2795149    0.2049934 -38.01 0.0003651686    1.717    0.418
        98 -10.0869     51.6277    100.1705   1.1646631237e+02   4.9100714867e+01    0.2832684    0.1494672 -51.71  0.001467715    1.828    0.453
        99 -10.0217     52.5189     96.4772   1.1558978157e+02   4.9803367351e+01    0.2541962    0.1549033 -56.28  0.001445529    1.468    0.319
       100 -10.9662    246.4994    103.8490   7.4242725819e+01   1.0600537360e+01    0.2567251    0.1923618  76.05  0.001324067    1.942    0.485
       101 -10.3276     57.3409     97.7070   1.1447040792e+02   4.8983104244e+01    0.2775406    0.1803379 -85.04  0.001153172    1.651    0.394
       102 -10.1271     57.7011    102.3567   1.1518825200e+02   4.7932983749e+01    0.2313077    0.1372892 -75.98 0.0008253967    1.660    0.398
       103 -10.5542    194.8141    101.7982   8.2421195199e+01   2.2328577841e+01     0.265598    0.2429644   6.39  0.001400463    1.059    0.056
       104 -10.5054     67.6009     99.7727   1.1203715178e+02   4.7267931482e+01     0.308129    0.2112648 -85.17  0.001128277    1.591    0.371
       105 -11.1558     68.3858     95.7791   1.1104614080e+02   4.8028648452e+01     0.391094    0.3019915 -13.55  0.002140284    1.915    0.478
       106 -10.1053    236.4949     99.9932   7.4828314030e+01   1.3225115744e+01    0.2189553    0.1307335 -25.26  0.001037012    1.602    0.376
       107 -10.3405    210.0733     97.6589   7.8594278221e+01   1.9457245813e+01    0.3292117     0.254048  20.32  0.001216899    1.350    0.259
       108  -9.6091    190.5894     96.7633   8.1923635523e+01   2.4093246524e+01    0.2066219    0.1354629 -42.62 0.0009429801    1.622    0.383
       109  -9.4579     92.7248     85.5880   1.0196534278e+02   4.6617685636e+01    0.2421729    0.1957981  39.15 0.0005972871    1.344    0.256
       110  -9.7199     78.1908     96.9880   1.0859340800e+02   4.6425372847e+01    0.1933673    0.1750568 -76.08 0.0004112081    1.015    0.015
       111 -11.3471     81.6143     92.6976   1.0672915491e+02   4.6846114788e+01    0.6156995    0.4011583  53.48  0.003003216    1.697    0.411
       112 -11.2872     89.3954     90.1823   1.0400296957e+02   4.6188195472e+01    0.4412729    0.2857635 -46.66  0.001897215    1.492    0.330
       113 -11.2196     66.5973     81.7947   1.0858908021e+02   5.1285593489e+01    0.4092991    0.3117362  30.95  0.002437173    1.546    0.353
       114 -11.2629     79.5001     82.9716   1.0507820329e+02   4.9234479648e+01    0.5658839     0.455178 -87.86  0.002824869    1.396    0.283
       115 -11.4099     73.3049     77.6800   1.0561186179e+02   5.1256623571e+01    0.5111219    0.4244023 -22.88  0.003057011    1.435    0.303
       116  -9.3544    183.7924     96.3775   8.3140086853e+01   2.5730409340e+01    0.2108364    0.1307855  41.65 0.0005802371    1.597    0.374
       117 -10.1528    138.2354     93.2429   9.2194556761e+01   3.6476131455e+01    0.3561957     0.232255  29.65  0.000970805    1.887    0.470
       118 -10.2864     42.4366     95.2960   1.1820499924e+02   5.1128959515e+01    0.2366468    0.2116102  89.58  0.001686573    1.109    0.098
       119 -11.0945    117.0568     92.9986   9.7346184850e+01   4.0773823205e+01    0.8869771    0.5342419  17.53  0.003313537    3.358    0.702
       120 -11.1920    122.5785     93.7933   9.6154254045e+01   3.9550591025e+01    0.3760923    0.2520361 -53.62  0.001295855    1.530    0.346
       121 -10.7464    126.4755     93.2079   9.5035121742e+01   3.8896159949e+01    0.4028238     0.351411 -83.97   0.00181637    1.283    0.221
       122 -11.3391    102.4619     90.4102   1.0050825625e+02   4.3964281921e+01     0.503993    0.4218886 -39.85  0.001533354    1.221    0.181
       123 -11.2092    236.3577     92.1603   7.2900094021e+01   1.4279958649e+01    0.4037987    0.3467176 -85.72  0.002081949    1.560    0.359
       124 -10.7248    235.4469     87.2320   7.1788237104e+01   1.5127749197e+01    0.2373719    0.2020896  64.42 0.0007555619    1.360    0.265
       125 -10.9610    152.5838     91.8340   8.8502877206e+01   3.3631782871e+01    0.3847529    0.3537346  56.27  0.002117626    1.106    0.096
       126 -12.2252     10.0738     96.4876   1.2725600485e+02   5.3553100488e+01    0.7247022    0.4584527  85.65  0.003798278    1.382    0.276
       127  -9.5397     47.3293     91.3089   1.1614594004e+02   5.1493036528e+01    0.1209885   0.08480826 -40.02 0.0005011116    1.663    0.399
       128 -10.2172    220.3810     88.8234   7.4565006694e+01   1.8346188228e+01    0.2081205    0.1333545 -13.01 0.0005564474    1.695    0.410
       129  -9.9015    212.0277     87.4897   7.5606441272e+01   2.0480171650e+01    0.3063423    0.1662477  13.53  0.001029285    3.384    0.704
       130 -10.7962    183.9711     86.2731   8.0388883822e+01   2.7322736774e+01    0.6110582    0.2473329 -38.38  0.002220182    2.455    0.593
       131  -9.3730     67.5801     88.1638   1.0970476545e+02   4.9781206703e+01    0.1895672    0.1037733 -49.05 0.0009434488    1.722    0.419
       132 -11.5427    113.4244     84.4417   9.6055032049e+01   4.3183020129e+01    0.5613558    0.3192132 -41.64  0.001912066    1.743    0.426
       133 -11.3832    108.7972     80.8466   9.6312151377e+01   4.4776155420e+01    0.3407199    0.2808111 -35.26  0.001172596    1.232    0.188
       134  -9.2039    135.2936     86.3280   9.1041258406e+01   3.8411608812e+01     0.146667    0.1157995   1.86 0.0007021551    1.626    0.385
       135 -10.7988    165.4637     83.1581   8.3287493382e+01   3.2218984911e+01     0.422474     0.334564 -51.36  0.001630607    1.382    0.276
       136 -11.4905    143.2321     83.9403   8.8482992968e+01   3.7144920790e+01    0.3972685    0.3438076  -5.38  0.001595392    1.286    0.223
       137 -11.0309    120.1371     85.0216   9.4466409913e+01   4.1767683330e+01    0.3976708    0.2034801  41.04  0.001671914    2.081    0.520
       138 -10.7030    127.2248     83.5896   9.2273931630e+01   4.0620236559e+01    0.2630834     0.185487  39.40  0.001280261    1.489    0.328
       139  -9.9549     59.4441     83.7528   1.1114375019e+02   5.1764121578e+01    0.2414509    0.1824152 -26.86  0.001409109    1.704    0.413
       140 -11.7398     52.8821     76.3885   1.1154737053e+02   5.4132496710e+01    0.6754668    0.2887599 -63.22  0.003089126    2.135    0.532
       141 -12.1713    241.6204     76.9660   6.8247046512e+01   1.5058465652e+01    0.8222367    0.3730585  61.89  0.003142356    2.547    0.607
       142  -9.4974    170.5719     77.7822   8.0679529712e+01   3.1912261046e+01    0.2120032    0.1391299 -43.99 0.0005512351    1.596    0.373
       143 -10.2880    104.1916     76.6537   9.6407996869e+01   4.6470390910e+01    0.3346448    0.2286902 -32.09  0.001643144    1.613    0.380
       144 -11.1751     94.2154     76.2916   9.9115037524e+01   4.8300446072e+01     0.497308    0.3930419  35.36  0.001725243    1.395    0.283
       145 -12.5007     75.0795     50.8730   9.7389308349e+01   5.6536028859e+01     1.077248    0.7451648 -50.85   0.00588254    1.344    0.256
       146 -11.9008     85.7104     73.6995   1.0088213652e+02   5.0235034666e+01    0.5935059    0.4645115  56.32  0.003348403    1.446    0.308
       147 -11.9013     13.7234     74.4535   1.2342601866e+02   5.8034363214e+01    0.4338208    0.3060823 -68.10  0.002057033    1.105    0.095
       148 -11.9026      2.0181     71.4274   1.2664371881e+02   5.9376254469e+01    0.5238614    0.1461583 -72.14  0.002415566    2.606    0.616
       149 -11.7599     12.4188     62.1807   1.2189823747e+02   6.0758856796e+01    0.2473673    0.2302572   8.05 0.0005088864    1.405    0.288
       150 -11.1992     14.4617     66.6821   1.2197538674e+02   5.9660550802e+01    0.2742634    0.2055156 -76.28 0.0008523731    1.100    0.091
       151 -12.2275      5.7729     62.4975   1.2417991961e+02   6.1081436670e+01    0.5498035    0.2759729 -51.13  0.003082823    1.744    0.427
       152  -9.5971    134.4951     77.4788   8.8729964409e+01   4.0249849510e+01    0.2521447    0.1434352  60.94   0.00102014    2.184    0.542
       153 -11.1005     58.5116     78.1946   1.1021418413e+02   5.3081500644e+01    0.2836009    0.2233454  50.49 0.0008528733    1.427    0.299
       154  -9.6632    126.7776     76.5925   9.0396080497e+01   4.2056262792e+01     0.194918    0.1403427  59.81 0.0003416853    1.560    0.359
       155 -10.9059    192.6199     65.8061   7.2927242327e+01   2.8363563397e+01    0.4385609    0.3164133 -74.18  0.001760296    1.955    0.488
       156 -12.6957    186.0733     69.6775   7.5261589579e+01   2.9414986094e+01     1.006807    0.6903982 -46.82  0.003574602    1.593    0.372
       157 -10.3766    184.3010     60.9800   7.2990188486e+01   3.1167078551e+01     0.298651    0.2652107  -9.44 0.0009630884    1.127    0.112
       158 -10.1729     66.7857     72.9311   1.0641908741e+02   5.3163033469e+01    0.4871608    0.1906677 -55.27  0.002072304    2.246    0.555
       159 -10.3976    230.4552     73.4776   6.8940900050e+01   1.8075283684e+01    0.3034522    0.2339656 -73.58  0.001302734    1.754    0.430
       160 -11.3581     33.5129     71.4817   1.1665146290e+02   5.7156024417e+01     0.427229    0.2648525  24.97  0.002558546    2.035    0.509
       161 -10.2218     38.3202     73.3458   1.1548372815e+02   5.6310012650e+01    0.2133721     0.194294   1.44 0.0007907756    1.387    0.279
       162 -11.2144     41.3226     70.5462   1.1394300056e+02   5.6626742855e+01    0.4695593    0.2590393 -69.11  0.002524864    1.664    0.399
       163  -9.6431     60.8342     72.8185   1.0824570804e+02   5.3954958057e+01    0.1651561    0.1406286  79.93 0.0004251905    1.312    0.238
       164 -11.4269    162.2860     70.6197   8.0301292248e+01   3.5093093932e+01    0.4707698    0.3866236  85.93  0.001757452    1.511    0.338
       165 -12.1232    122.5914     68.5284   8.9055662440e+01   4.4456312720e+01    0.5890695    0.4567076  48.52  0.001811509    1.336    0.252
       166 -10.6712    129.5702     65.8307   8.6425635074e+01   4.3468232095e+01    0.6236984    0.2955821 -55.28  0.002119263    3.196    0.687
       167 -10.6590     20.9305     71.6882   1.2072074922e+02   5.8130618257e+01    0.1937364    0.1499922 -63.53 0.0003775286    1.082    0.076
       168 -10.4856    199.6151     69.6919   7.2827878053e+01   2.6055349729e+01    0.2551377    0.1902902  86.47  0.001171215    1.787    0.440
       169 -11.1067    209.3427     67.7562   7.0641916039e+01   2.3928307048e+01    0.6285375    0.2381754  42.63  0.002115027    2.948    0.661
       170 -12.3256    219.3982     66.2602   6.8635987310e+01   2.1670789261e+01    0.8690264    0.3737589  55.30  0.002527296    2.282    0.562
       171 -10.9697    172.0156     67.7979   7.7429783669e+01   3.3184701296e+01    0.4404393     0.333055 -37.17  0.001555395    1.326    0.246
       172 -11.6133     78.9274     67.5630   1.0123428330e+02   5.2564665908e+01    0.5679147    0.4069302 -79.78  0.002797213    1.858    0.462
       173  -9.0866     69.7135     66.7308   1.0388450460e+02   5.4078105248e+01    0.1246652   0.09559815 -26.59 0.0001940166    1.501    0.334
       174  -9.7504     21.4272     65.0993   1.1939452664e+02   5.9518045700e+01    0.2088027    0.1428149 -87.10   0.00114182    1.461    0.315
       175  -9.5925     25.8939     65.3263   1.1794691087e+02   5.9128192431e+01     0.154037    0.1246816 -62.80 0.0004004966    1.043    0.041
       176 -10.0313    204.9294     63.3214   7.0094925688e+01   2.5640279287e+01    0.3328626    0.2035779  30.34  0.001012619    1.932    0.482
       177 -10.0689    198.4970     63.4734   7.1216648590e+01   2.7228658376e+01    0.3429307     0.224381 -49.19  0.001516636    1.738    0.424
       178 -10.5569     98.1747     62.8104   9.4026254666e+01   5.0322691202e+01    0.3688089    0.2717751  -7.08  0.001818144    1.845    0.458
       179 -10.7515     84.4909     62.2813   9.7976868063e+01   5.2774219528e+01     0.294348    0.2414817 -39.92  0.001701044    1.131    0.116
       180 -11.2693     91.4339     62.4387   9.5909982168e+01   5.1584610964e+01    0.4069749    0.3294172 -53.43   0.00132545    1.200    0.167
       181 -11.1222     91.2120     57.9355   9.4561441824e+01   5.2512388470e+01    0.3614056    0.2983679  75.73  0.001039137    1.555    0.357
       182 -10.9082     87.5670     57.1979   9.5443667037e+01   5.3280621018e+01    0.5080703    0.2007722 -46.87  0.001506491    2.330    0.571
       183 -10.8578     58.3591     62.0282   1.0629591195e+02   5.6560613738e+01    0.4339149    0.2753573 -77.11  0.002185995    2.071    0.517
       184 -11.2677    159.2229     61.6521   7.8185219177e+01   3.7310475702e+01    0.5264038    0.3253455  37.21  0.001836826    1.762    0.432
       185 -12.1487    157.1125     53.4766   7.5997761267e+01   3.9131006556e+01     1.034368    0.6687717 -56.05  0.004396667    1.965    0.491
       186 -10.4178    162.3530     43.7408   7.1666113820e+01   3.9277186645e+01    0.3643925    0.2289072  64.78  0.001576483    1.730    0.422
       187 -11.7667    156.0346     41.8626   7.2304205181e+01   4.1149865018e+01    0.4211959     0.412742 -64.43 0.0009653951    1.102    0.092
       188 -10.9525    153.1925     36.0931   7.0867348076e+01   4.2687104860e+01    0.2966471    0.2880543  73.11 0.0003929193    1.107    0.097
       189 -10.9461    105.2110     61.9247   9.1718146357e+01   4.9187069140e+01    0.3912906    0.2941212 -53.14   0.00203287    1.365    0.267
       190 -10.8365    113.6094     61.2215   8.9150126563e+01   4.7671234387e+01    0.4176754       0.2355 -43.96  0.001855632    1.711    0.415
       191 -12.0626    120.7331     58.0075   8.6181640008e+01   4.6787072638e+01    0.9845177    0.5858018  70.37  0.003822294    2.807    0.644
       192 -10.4824    142.9757    249.4955   1.1645734071e+02   1.0518069040e+01    0.1654143   0.07295737  44.49  0.001037214    1.603    0.376
       193 -11.5129     93.6874     41.3258   8.8043120921e+01   5.5177941770e+01    0.7107193    0.2932584  46.31  0.002851509    2.618    0.618
       194 -11.1277    113.5061     49.7551   8.5316234935e+01   4.9778275418e+01    0.5571248    0.3337826  26.30  0.001690204    2.275    0.560
       195  -9.9332    199.4944    244.5094   1.0728662809e+02   2.8104004270e+00    0.1064898   0.07488883  37.14   0.00081059    1.005    0.005
       196 -11.7778     46.1382     48.8419   1.0685979264e+02   6.0742350426e+01    0.5320253    0.3425453 -49.07  0.002042584    1.287    0.223
       197 -11.9626     41.8159     45.3768   1.0744297310e+02   6.1917892011e+01     0.324775    0.2790139  25.55 0.0009981171    1.395    0.283
       198 -10.2238     25.7613     59.8992   1.1689805776e+02   6.0307634531e+01    0.9279675    0.4122872  58.51  0.003827103    4.290    0.767
       199 -10.8310     25.5648     55.2377   1.1596342225e+02   6.1321294733e+01    0.3025316    0.1925278 -42.50  0.001285803    1.518    0.341
       200 -10.7427     29.1816     52.5704   1.1404346434e+02   6.1594784979e+01    0.3032342    0.2064677  30.73 0.0006236008    1.797    0.443
       201  -9.8820    248.9947     59.7484   6.2783593434e+01   1.5499816799e+01    0.2740238    0.1598293 -38.89  0.001287621    1.662    0.398
       202  -9.8691    147.5309     60.6514   8.0451622575e+01   4.0287598168e+01    0.3702125    0.1484069  58.01   0.00124925    2.853    0.649
       203  -9.1818    235.6370     59.3325   6.4402644717e+01   1.8657194300e+01    0.1528338    0.1047713 -58.35 0.0007037685    1.812    0.448
       204 -11.5843    219.3603     57.1705   6.6089852081e+01   2.2877593396e+01     0.495168     0.337824  79.67  0.001928043    1.852    0.460
       205 -10.2160    215.6236     51.2954   6.4954143480e+01   2.4565574573e+01    0.4625745    0.1528816 -30.15  0.001577244    2.722    0.633
       206 -11.4690    136.3885     55.4211   8.1353766867e+01   4.3772631469e+01    0.7711978    0.5364708 -39.67  0.003669416    1.420    0.296
       207 -11.9768    145.0814     46.9105   7.6417641132e+01   4.3102214127e+01      1.04224    0.6814986 -34.73  0.004775647    1.501    0.334
       208  -9.5207      1.5393     56.4352   1.2467810260e+02   6.2594130300e+01    0.1114872   0.08290432 -68.04 9.513867e-05    1.024    0.023
       209  -9.5317    187.4609     55.3058   7.0683659187e+01   3.1189731599e+01    0.2693848    0.1377831  58.78  0.001060674    1.970    0.492
       210 -12.3365     48.9892     59.9830   1.0890997095e+02   5.8092776893e+01    0.7776485    0.5267644  76.05  0.002677577    2.176    0.540
       211 -10.4140     66.8659     54.8139   1.0138167363e+02   5.6942618406e+01    0.2413864    0.1956997 -57.10 0.0006950774    1.171    0.146
       212 -10.2491    150.4887    237.5092   1.1410705807e+02   1.0835571940e+01     0.107085   0.07800741  46.03 0.0001695834    1.015    0.014
       213 -11.0935     60.8498     36.5050   9.7378232946e+01   6.1388712206e+01      0.32847    0.1889743 -44.89 0.0009602659    1.495    0.331
       214 -11.1605    240.0272     50.8831   6.1545556527e+01   1.8641816684e+01    0.5286523    0.3226212 -14.79  0.002457145    1.677    0.404
       215 -10.5682    248.7868     52.2750   6.0847052947e+01   1.6428603534e+01    0.3095285    0.2230669 -59.35  0.001579492    1.648    0.393
       216 -10.3833    244.8295     50.8454   6.0944334713e+01   1.7514733462e+01    0.3157863    0.2583527 -74.58   0.00112721    1.458    0.314
       217 -10.9192    207.5947     53.1696   6.6706025111e+01   2.6348500819e+01    0.5732062    0.2542752  63.81  0.002133866    2.437    0.590
       218 -11.5388    202.3354     47.3992   6.5800408575e+01   2.8449587956e+01    0.6820887    0.4806823 -49.37  0.003200539    1.553    0.356
       219 -10.5417    194.6952     46.4370   6.6719338202e+01   3.0548480590e+01    0.6398545    0.3914608  83.20   0.00257818    2.271    0.560
       220 -12.0016    174.6451     46.6937   7.0283167878e+01   3.5704676676e+01    0.8948708    0.5994467  46.63  0.003639756    1.473    0.321
       221 -11.3500    176.6135     37.3029   6.6841096311e+01   3.6472366287e+01    0.4631028     0.345772   4.65  0.001320069    1.513    0.339
       222 -11.5103    171.3578     33.7457   6.6573617660e+01   3.8312285305e+01    0.4924824    0.2293052  51.63  0.001906234    2.033    0.508
       223 -10.0939     51.9997     48.0295   1.0448880351e+02   6.0241584643e+01    0.2603742    0.1514347 -45.58 0.0009680907    1.466    0.318
       224 -10.7310     27.0275     47.6281   1.1362954985e+02   6.2817099290e+01    0.3858551     0.222111 -18.50  0.001034305    2.596    0.615
       225 -10.9537     21.2516     47.3549   1.1574324946e+02   6.3322328452e+01    0.2868595    0.2142621 -65.55  0.001017808    1.118    0.105
       226  -9.8621      2.3335     48.6287   1.2309096946e+02   6.4208616557e+01    0.1732658    0.1005067  27.18   0.00112497    2.197    0.545
       227 -11.6028     40.1679     55.9057   1.1092697572e+02   5.9882853848e+01    0.4827733    0.3939821  42.22  0.003234363    1.471    0.320
       228  -9.3522    132.4775     45.4820   7.8874962169e+01   4.6318487459e+01    0.1489785    0.1406921   0.17 5.422069e-06    1.018    0.018
       229 -10.9325     33.7081     43.6140   1.1001367681e+02   6.3075506483e+01    0.3946931     0.281995 -89.90  0.002344114    1.884    0.469
       230 -10.2032     36.2062     40.3820   1.0809883848e+02   6.3503888778e+01    0.2030548    0.1472097 -41.80   0.00129251    1.198    0.165
       231  -9.3140      6.0000     42.9566   1.2061601065e+02   6.5214783563e+01    0.2966364   0.08561316 -74.79  0.001085854    4.203    0.762
       232 -11.4775      4.2220     35.9481   1.1981873391e+02   6.6769671040e+01    0.2465704    0.1957001 -69.14  0.000398515    1.122    0.109
       233 -10.0668      6.6163     30.7519   1.1757253761e+02   6.7713421713e+01    0.2731701    0.1557374 -21.97  0.001666326    2.174    0.540
       234 -10.6431    189.0594     42.0203   6.6258916381e+01   3.2596555192e+01    0.3432063    0.2014921 -29.14 0.0006612341    1.661    0.398
       235 -10.0770     26.1024     43.5207   1.1292673223e+02   6.3752197800e+01    0.1431807    0.1184535  14.87 0.0003629846    1.503    0.335
       236  -9.9092     18.4683     41.7389   1.1545611064e+02   6.4700451527e+01    0.2051448     0.133148  -7.55  0.001266887    2.090    0.521
       237 -10.7367     69.6331     32.5673   9.2688402885e+01   6.0838391806e+01     0.415294    0.2724152  43.47  0.001179638    1.758    0.431
       238 -11.2748     81.2169     39.5068   9.1356531171e+01   5.7713421620e+01    0.4983573    0.3636639  54.31  0.002013582    1.695    0.410
       239 -11.2062     77.3995     34.3506   9.0671389280e+01   5.9279162255e+01    0.3822852    0.2714961  34.14  0.001090876    1.545    0.353
       240 -11.3665     82.4366     31.3778   8.7791766306e+01   5.8941567472e+01    0.4078571    0.3606894  69.22  0.002053751    1.478    0.323
       241 -10.2298    231.1652     39.5238   5.9514149914e+01   2.2123436927e+01    0.2650048    0.2351987 -76.93 0.0008184887    1.239    0.193
       242 -10.6876    226.2642     36.9314   5.9385967440e+01   2.3641517736e+01    0.4542312    0.2577305  68.67  0.001511783    1.895    0.472
       243 -10.0937    218.0167     39.1103   6.1076329792e+01   2.5467035050e+01    0.2222215    0.2203967   1.74  0.000862506    1.031    0.030
       244 -10.5478    133.5448     37.3801   7.5678832268e+01   4.7328582125e+01    0.4528463    0.3490807 -72.80  0.002166254    1.761    0.432
       245  -9.5879     15.2012    233.8189   1.3469150094e+02   2.8013451235e+01    0.1091419   0.08792704  77.47  0.001069937    1.372    0.271
       246 -11.3908    140.4391     32.1876   7.2167461007e+01   4.6415916215e+01    0.7485662     0.600921  55.71  0.003838964    1.269    0.212
       247 -11.4601    127.5434    242.5032   1.1819667739e+02   1.3523112262e+01    0.2469689    0.1432059 -77.66  0.001619978    2.688    0.628
       248 -10.5653    133.2747     23.8960   7.0600055835e+01   4.9291587457e+01    0.4930925    0.3544271 -75.07  0.002246312    2.028    0.507
       249 -11.2189    143.7177     24.7514   6.8666656028e+01   4.6595418903e+01    0.5024495     0.358686  52.82  0.002011013    1.367    0.268
       250  -9.4796    247.3166    231.3361   9.8391181663e+01  -3.0645208262e+00    0.1116993   0.05988472  20.87 0.0006117888    1.697    0.411
       251  -9.4881     23.4868    231.5504   1.3340251875e+02   2.7559507039e+01    0.0931873   0.06019082  64.96 0.0006799727    1.019    0.019
       252  -9.3824      9.3274    227.2952   1.3531477943e+02   2.9513777708e+01   0.07149888   0.06383629  87.97 0.0002590969    1.628    0.386
       253  -9.5620    234.6665    222.6956   9.9035807647e+01  -4.5735429276e-01    0.1146722   0.06382243  22.63  0.000287368    1.662    0.398
       254 -11.3136    205.6037     37.1935   6.2217906611e+01   2.8889615780e+01    0.5571925     0.377239  78.27  0.002001634    1.700    0.412
       255 -10.9006    198.4547     35.2457   6.2658610739e+01   3.0992639733e+01     0.430463    0.3516697 -36.25  0.001492801    1.221    0.181
       256 -11.0854     22.0373     36.3504   1.1259543944e+02   6.5554432174e+01     0.325699    0.2276707  46.46  0.001506018    1.879    0.468
       257 -10.1637      4.5369    204.8151   1.3524543885e+02   3.3426963417e+01    0.1625368   0.06858726 -77.39  0.001131166    2.127    0.530
       258  -9.9767    245.5878    200.8360   9.3987699937e+01  -1.4222264844e-01    0.1336117    0.1024255 -27.58 0.0005260431    1.631    0.387
       259 -11.7526    115.4177     24.6559   7.5234930939e+01   5.3371430497e+01    0.4300051    0.2635378  45.71  0.001180057    1.622    0.383
       260 -11.8640    110.5140     23.7987   7.6180859810e+01   5.4579661059e+01    0.4474143    0.3910816 -78.48  0.001860702    1.489    0.328
       261 -11.7118    159.8155     29.9417   6.7371785854e+01   4.1813165521e+01    0.6875083    0.4512984 -42.03  0.001726791    1.605    0.377
       262 -11.1915    164.0476     27.6589   6.5779079795e+01   4.0999243756e+01    0.4587485    0.2712246 -33.41 0.0006120478    1.674    0.402
       263 -10.4307    239.4764     32.5822   5.6621547314e+01   2.0872412024e+01    0.4537776    0.2148027  61.71  0.001940998    2.131    0.531
       264 -10.2500    211.3675     31.1964   5.9612985025e+01   2.8102132485e+01    0.4445662    0.1950937 -31.17  0.001740391    2.107    0.525
       265 -10.6479    188.6586     30.6821   6.2688770763e+01   3.4127899532e+01    0.4209717    0.3075333 -72.96  0.001955107    1.690    0.408
       266  -9.6963    189.5181     27.4773   6.1519639445e+01   3.4279795756e+01    0.3614084    0.2448626  30.55  0.001195468    1.640    0.390
       267  -9.7592    221.6416     30.6853   5.8157712031e+01   2.5520460675e+01    0.3924129    0.1204699 -26.50  0.001318018    2.920    0.658
       268  -9.3061    216.6272     32.1197   5.9205124063e+01   2.6639300355e+01    0.2015475    0.1356291  -5.06 0.0003622915    1.662    0.398
       269 -10.5256    182.4020     32.0769   6.4135017329e+01   3.5613730254e+01     0.280139    0.2227902  70.12  0.000570976    1.315    0.239
       270  -9.5607    147.7510     31.7991   7.0448071523e+01   4.4650998672e+01    0.1979505    0.1749844 -60.10 0.0006827386    1.284    0.221
       271 -11.2132     56.1155     30.8918   9.7055333590e+01   6.3084911227e+01    0.2766149    0.2342934  30.39 0.0003329726    1.361    0.265
       272 -12.1740     48.4527     30.4950   9.9904801736e+01   6.4130366791e+01    0.6551017    0.3369278  27.39   0.00274475    2.403    0.584
       273 -10.1858    233.9283    197.1769   9.5202928414e+01   2.0931895754e+00    0.1911605    0.1546484  -0.32  0.000867518    1.246    0.197
       274  -9.5994     17.0162    192.2915   1.3268439098e+02   3.4400106734e+01    0.1323478   0.09331546  67.14 0.0003690062    1.065    0.061
       275  -9.9986    169.0690    191.5537   1.0524641313e+02   1.3798837167e+01    0.1860834   0.09872855  44.26 0.0004947712    1.538    0.350
       276 -12.2799      4.7209    184.5868   1.3441269739e+02   3.6790285727e+01    0.4817083    0.2713681  68.73  0.003730407    1.297    0.229
       277  -9.2585     57.0670    175.0342   1.2430126760e+02   3.3312348874e+01    0.1308589    0.1020421  70.58 0.0004295946    1.022    0.022
       278 -10.1323     39.5149    173.4906   1.2751768144e+02   3.5531024081e+01    0.1063501   0.08098562  75.28 2.554616e-05    1.015    0.015
       279 -10.4311     35.5854    170.3036   1.2802759566e+02   3.6520212789e+01    0.2056087    0.0867347 -81.45  0.001158025    2.210    0.548
       280 -10.3212    181.0036     16.2839   5.9072391413e+01   3.7802496856e+01    0.2167885    0.2123179  25.51 0.0003911468    1.012    0.012
       281 -10.2683     98.8883     28.9305   8.1604524397e+01   5.6251562469e+01    0.5189337    0.2567466 -53.83  0.001872238    3.389    0.705
       282 -10.6910    229.7633     27.3600   5.6249678164e+01   2.3837511847e+01    0.3742024    0.2328792 -30.62  0.001129728    1.502    0.334
       283 -10.2794      9.0066    156.2633   1.3221948669e+02   4.1559457546e+01    0.1927207    0.1515345  62.53  0.001604893    1.225    0.184
       284  -9.4673    158.3265     20.3091   6.4175879764e+01   4.3382470440e+01    0.2351808     0.186324  59.95 0.0008596583    1.250    0.200
       285 -10.0446    155.2342     19.9935   6.4624046934e+01   4.4226572536e+01    0.2663841    0.2463621 -19.54  0.001457338    1.092    0.084
       286 -10.0669    250.5187     25.2754   5.3512992253e+01   1.9011882549e+01    0.2721439    0.1268653 -22.32 0.0007812978    2.016    0.504
       287 -11.4314    214.2570     24.0438   5.7102900196e+01   2.8152234621e+01    0.4227642    0.3619884  15.74  0.001381576    1.240    0.194
       288  -9.8946     59.9676     24.5012   9.3003639262e+01   6.3710002126e+01    0.2321623    0.1546313 -49.24 0.0005130988    1.518    0.341
       289 -12.0021      9.7161    166.0843   1.3263380221e+02   3.9673147482e+01    0.3984778    0.2882853 -79.17   0.00315781    1.325    0.246
       290 -10.1595     80.6395     19.2564   8.3234034436e+01   6.1228693080e+01    0.3333111    0.1836455  46.57  0.001096217    1.979    0.495
       291 -11.2358     13.8468    157.7846   1.3136961230e+02   4.0874749802e+01    0.3353234    0.1450108 -84.12  0.001026957    1.929    0.482
       292  -9.3111    198.0020    167.9660   9.6184755756e+01   1.1844032177e+01    0.1540114    0.1344988  25.78 0.0005832945    1.047    0.045
       293 -10.4625     18.9555    165.2912   1.3085207415e+02   3.9027510547e+01    0.1936303    0.1803122  66.68  0.001163275    1.427    0.299
       294  -9.3218    169.4906     23.4852   6.3361013666e+01   4.0069938301e+01    0.1504484    0.1426927  28.02 5.754902e-05    1.021    0.020
       295 -10.1179    188.8995    164.0643   9.7117748524e+01   1.4094356244e+01    0.2074146    0.1452802  16.09  0.001119257    1.681    0.405
       296 -10.4801     28.0646    163.6406   1.2899360354e+02   3.8499157087e+01     0.191421    0.1151467  84.16  0.001085155    1.371    0.271
       297  -9.8468    205.0898    163.1463   9.4037257536e+01   1.1160419498e+01    0.2006737    0.1524348  24.90 0.0006083928    1.214    0.176
       298 -10.6536    104.9103    154.5593   1.1222138998e+02   3.0637434560e+01    0.2812624    0.1757167 -57.26  0.001588022    1.684    0.406
       299 -10.3778     31.3182    154.3761   1.2764916635e+02   3.9954546335e+01    0.3137774    0.1676259  59.16  0.001551781    1.649    0.394
       300  -9.6855    246.0211     22.2891   5.3152615726e+01   2.0388738205e+01    0.1860823    0.1784952 -58.65 0.0006287003    1.058    0.054
       301 -10.8267     30.7869    149.6175   1.2737148884e+02   4.0931871666e+01    0.2734374    0.1544384  80.15 0.0008447425    1.581    0.368
       302 -10.7255     43.5083    149.8864   1.2472744616e+02   3.9602880083e+01    0.3950399    0.2001955  69.18   0.00105934    2.017    0.504
       303 -10.2283     48.4320    151.6905   1.2386355269e+02   3.8718135685e+01    0.1674654    0.1430142 -23.74 0.0005873215    1.886    0.470
       304 -10.9436     47.1750    146.3441   1.2359559127e+02   3.9912973783e+01    0.4524805     0.211143 -79.40  0.002196699    2.060    0.514
       305 -12.2637     12.9204    139.6588   1.3035509238e+02   4.4455493288e+01    0.6043424    0.2373302  72.44  0.003094994    2.707    0.631
       306 -12.2219     23.2840    148.9780   1.2887518430e+02   4.1748916688e+01    0.4054868    0.2881544 -27.37  0.002234961    2.670    0.625
       307 -10.1648    191.8609     16.4530   5.7606821654e+01   3.4875699365e+01     0.309188    0.2199686  20.62  0.001461433    1.595    0.373
       308 -10.9366     16.0971    148.0403   1.3028370822e+02   4.2553038949e+01    0.3318726    0.1478174  48.08  0.001685438    2.000    0.500
       309 -11.6793      3.9576    136.5632   1.3204303184e+02   4.5746076495e+01    0.2067297    0.1574749 -88.02 0.0003894815    1.110    0.099
       310 -12.4317      5.0353    146.9651   1.3246010401e+02   4.3641030845e+01    0.5567337     0.306154 -67.78  0.003832028    1.697    0.411
       311  -9.9763    115.6320     16.8119   7.1906478600e+01   5.4377447987e+01    0.2605502    0.1772856 -31.84   0.00119675    1.445    0.308
       312  -9.9475    225.6155     16.1512   5.3504046552e+01   2.6058387111e+01    0.2894945    0.1972793  -2.44  0.001401809    1.656    0.396
       313 -11.5095      3.2788    141.7685   1.3250753185e+02   4.4776634432e+01    0.3170664    0.2457377  49.31  0.002356079    1.403    0.287
       314 -10.9844     62.1636    149.7729   1.2073745721e+02   3.7511369566e+01    0.3727406    0.2563871  80.65  0.002406403    1.344    0.256
       315  -9.8344    214.6974    151.6741   9.0118847135e+01   1.0844182326e+01    0.1371744    0.0917667  16.37 0.0002694973    1.641    0.391
       316 -11.0732    249.6271    144.1902   8.2819346406e+01   5.1104939832e+00    0.5284126    0.1967717 -34.01  0.002264496    2.765    0.638
       317  -9.6074    239.7921    146.6177   8.4879761582e+01   6.6658232129e+00    0.1700339    0.1174526  51.96 0.0006366612    1.604    0.377
       318  -9.4932    108.7192    146.0419   1.1010093902e+02   3.1650406332e+01    0.1678041    0.1508542 -89.35  0.001089966    1.078    0.072
       319 -10.8913     33.1427    144.2984   1.2641669283e+02   4.1756662022e+01    0.2351606     0.171673  73.89 0.0008695467    1.135    0.119
       320  -9.9071    133.9064    139.8213   1.0355851539e+02   2.8477318620e+01    0.2061209    0.1837746  12.40  0.001238338    1.347    0.257
       321 -12.4369     22.9017    135.4519   1.2786761964e+02   4.4467285692e+01    0.7169694    0.2756505  47.82  0.003952654    2.398    0.583
       322 -10.3015     82.7863    134.4000   1.1410068162e+02   3.7900094654e+01    0.3877795    0.2387431  16.18  0.001766319    3.233    0.691
       323 -10.6386     47.1712    135.3372   1.2241590847e+02   4.2138025470e+01    0.3176701    0.1488129 -50.55  0.001621453    2.586    0.613
       324  -9.0067    216.6872    135.2992   8.6343980478e+01   1.2654345690e+01    0.1245591    0.1102106 -81.12 0.0003270224    1.606    0.377
       325 -11.0773     72.6194    133.2507   1.1628775317e+02   3.9524212887e+01    0.2829328    0.1902843 -18.03  0.001332488    3.380    0.704
       326 -12.0260     29.8578    132.9169   1.2608717836e+02   4.4360718270e+01    0.4309864    0.2578309 -89.24 0.0004664585    1.435    0.303
       327  -9.9447     62.5970    131.2173   1.1834415550e+02   4.1216254650e+01    0.1748375   0.09670024 -57.58 0.0009603025    1.758    0.431
       328 -10.8043     10.4957    127.4358   1.2997404825e+02   4.7089373690e+01    0.3903058    0.1147712 -63.05  0.001817512    2.810    0.644
       329  -9.9813     92.5035    128.9439   1.1095986002e+02   3.7588570065e+01    0.2476138    0.1622767  59.34  0.001348781    1.565    0.361
       330 -10.4373     67.7626    134.5971   1.1760069749e+02   3.9875934422e+01    0.1688873   0.09946077  51.54 0.0009512249    1.642    0.391
       331 -10.9939    242.9649    127.9758   8.0368445236e+01   8.3161618648e+00    0.2684725    0.2302447  59.72  0.001297926    1.469    0.319
       332 -11.7262    240.8475    122.6115   7.9496860865e+01   9.4062642504e+00    0.5587631    0.4358777 -17.09  0.001757283    1.220    0.181
       333 -10.4143    223.9364    125.8259   8.2993860233e+01   1.2451529788e+01    0.3387738     0.186316 -45.31  0.001506488    2.317    0.568
       334  -9.7836     80.0559    138.0334   1.1526463755e+02   3.7544152426e+01    0.1982144    0.1660214  76.16  0.001308243    1.065    0.061
       335 -10.3892     18.6302    124.5609   1.2787821562e+02   4.7043357923e+01    0.2364621    0.1276409 -67.24 0.0008593251    1.583    0.368
       336  -9.5619      1.8629    125.6489   1.3177483596e+02   4.8064471169e+01    0.2133237   0.09326424  89.55  0.001239578    1.907    0.476
       337 -10.9274     55.9296    123.1983   1.1884349594e+02   4.3683605638e+01    0.3629749    0.2915553   8.66   0.00193791    1.866    0.464
       338 -11.8090    104.6620    121.3925   1.0671236538e+02   3.7197343072e+01    0.4366619    0.3863432 -77.21  0.001606248    1.088    0.081
       339  -9.5964    204.0094    121.4853   8.5501241461e+01   1.7282628088e+01    0.2111437    0.1051525  30.96  0.000810015    2.510    0.602
       340 -10.7345     45.6725    120.4167   1.2097485598e+02   4.5402612569e+01    0.2512707    0.1660958  68.43  0.001267423    1.500    0.333
