#   1 NUMBER                 Running object number                                     
#   2 MAG_AUTO               Kron-like elliptical aperture magnitude                    [mag]
#   3 X_IMAGE                Object position along x                                    [pixel]
#   4 Y_IMAGE                Object position along y                                    [pixel]
#   5 X_WORLD                Barycenter position along world x axis                     [deg]
#   6 Y_WORLD                Barycenter position along world y axis                     [deg]
#   7 A_WORLD                Profile RMS along major axis (world units)                 [deg]
#   8 B_WORLD                Profile RMS along minor axis (world units)                 [deg]
#   9 THETA_WORLD            Position angle (CCW/world-x)                               [deg]
#  10 FWHM_WORLD             FWHM assuming a gaussian core                              [deg]
#  11 ELONGATION             A_IMAGE/B_IMAGE                                           
#  12 ELLIPTICITY            1 - B_IMAGE/A_IMAGE                                       
         1 -11.4794     26.9432     54.6047   9.2683980246e+01   6.3331964066e+01      1.62133     0.711851  11.97  0.007050695    2.999    0.667
         2 -12.2139     89.6069     33.6767   6.0711360046e+01   5.7072012135e+01    0.4871289    0.4502915  29.93 0.0001816538    1.061    0.058
         3 -10.6863     74.8772     27.1836   6.2861733626e+01   6.0825495558e+01    0.4054376    0.3525411 -55.67  0.002535659    1.543    0.352
         4 -11.6185     14.2678     38.4341   9.3415172119e+01   6.7494061229e+01     1.160344    0.6487762  42.56  0.005405307    2.672    0.626
         5 -12.4715    107.5816     29.1059   5.4135388674e+01   5.3778027708e+01    0.4518535    0.3670497  11.03  0.002644409    1.368    0.269
         6 -10.1822     25.9815     21.4021   8.0811587949e+01   6.9176856847e+01    0.5901287    0.3194941  11.45  0.003199041    2.042    0.510
         7 -11.4543     18.8842     28.5643   8.7430973093e+01   6.8799785225e+01    0.3548786    0.2570053 -45.10  0.000649803    1.450    0.310
         8  -9.5094     16.5235     18.1954   8.4350174779e+01   7.0664730581e+01    0.7356128    0.3932494  -4.04  0.003943795    2.202    0.546
         9 -11.6214      7.6799     15.6161   8.8151742538e+01   7.1862063512e+01    0.4671983    0.3132183   6.20   0.00142389    1.351    0.260
        10 -11.8337     13.9956     11.1619   8.2536475382e+01   7.1942285428e+01    0.3842822    0.2179532 -30.45 0.0003205866    1.534    0.348
        11 -10.9967     24.8924      6.7502   7.4481145378e+01   7.1300044431e+01    0.3725482    0.2425155 -41.03  0.002375945    1.920    0.479
        12 -12.0004     20.6485      6.3880   7.6537615627e+01   7.1859779206e+01    0.5254668    0.3861024  38.09  0.002253273    1.741    0.426
        13 -10.6320    205.8370     24.1932   3.6873506513e+01   3.1233761038e+01    0.4952648    0.3267284 -69.43  0.001587976    1.406    0.289
        14 -11.1658    174.4801     22.7149   4.0099215979e+01   3.8678093454e+01    0.5147415    0.3799482  63.26  0.001612949    1.268    0.211
        15 -11.0153    182.4270     18.2608   3.7996931541e+01   3.7296317293e+01    0.4991828    0.3578981  42.79   0.00107354    1.732    0.423
        16  -9.3509     70.1927     19.6064   6.1332090377e+01   6.2626580800e+01    0.4038864    0.1787446 -40.68  0.001137315    2.790    0.642
        17 -11.5511     61.7137     16.6147   6.3041774777e+01   6.4520147568e+01    0.6974136    0.3416362  31.86  0.002818889    2.035    0.509
        18  -9.5953    211.8011     10.0046   3.3172123879e+01   3.1509248441e+01    0.3104378    0.1509998  74.94  0.001637366    1.833    0.455
        19  -9.5145    219.2905     11.9701   3.2971198016e+01   2.9668831799e+01    0.4525273    0.1486685 -47.68  0.002052339    2.586    0.613
        20 -10.4490    218.5026     19.0984   3.4551219015e+01   2.9034881367e+01    0.4669274    0.2471029 -60.10   0.00250846    1.743    0.426
        21 -10.2655    211.6519     16.0516   3.4500901885e+01   3.0878600626e+01    0.4724911    0.1967114 -57.15  0.001305145    2.391    0.582
        22 -10.4853     23.2575      1.8667   7.2825686641e+01   7.2090552512e+01     0.398562    0.1560349  38.64  0.002063676    2.512    0.602
        23 -10.5224    166.6362     17.7262   3.9803748672e+01   4.1094188269e+01     0.298281    0.2558728  -4.26  0.001493558    1.530    0.346
        24  -9.6873    199.7181     18.4373   3.6173355381e+01   3.3281228412e+01    0.2920982    0.2347108 -41.00  0.001495663    1.353    0.261
        25 -11.4812    229.8812     14.5928   3.2672237666e+01   2.7130680682e+01    0.5410152    0.3816855 -73.64  0.003549078    1.160    0.138
        26 -11.3454    244.3568     12.9586   3.1292718839e+01   2.4366851889e+01    0.7427577    0.4916619  25.86  0.003711249    3.919    0.745
        27 -10.2118    250.0529      1.4689   2.8781896281e+01   2.4514372536e+01    0.1984777    0.1545452 -88.63 0.0005307304    1.211    0.174
        28 -10.3539    116.0174     15.3200   4.7422638496e+01   5.3356632565e+01    0.5211632    0.2159992  62.94  0.001850042    2.154    0.536
        29 -10.4388    175.7112     13.2530   3.7513819420e+01   3.9408918218e+01    0.5660484    0.2686833  70.48  0.002191816    1.830    0.453
        30 -10.9592     97.6326     12.9990   5.0721616091e+01   5.7711860419e+01    0.4465062    0.2452574  55.80  0.001175284    1.559    0.359
        31  -9.0699     97.3457      7.3111   4.8649168999e+01   5.8295334478e+01     0.245633    0.1671413   7.51 0.0007468752    1.758    0.431
        32  -8.7803     89.2340     13.1853   5.2944339150e+01   5.9497791027e+01    0.2558632     0.170373 -15.13  0.001107795    1.701    0.412
        33 -10.3191     90.4892      2.0992   4.8275365138e+01   6.0215668924e+01    0.4074768    0.1899945  63.62  0.001496256    2.023    0.506
        34  -9.2803     90.2151      9.0668   5.1073840803e+01   5.9678571199e+01    0.2503488    0.1368165  42.00 0.0008491621    1.608    0.378
        35  -9.9022     87.5261      5.9885   5.0551719407e+01   6.0521851531e+01    0.3350411    0.2308619  68.76 0.0009316994    1.569    0.363
        36  -9.5205     51.5303     12.4622   6.5076376363e+01   6.6740719258e+01    0.3146474    0.1361977 -25.90  0.001532182    2.475    0.596
        37 -10.0069     32.1861     12.7268   7.3754763443e+01   6.9606991277e+01    0.2442405    0.2116186  29.36  0.001614484    1.420    0.296
        38  -9.8908    248.0236      4.9692   2.9548291249e+01   2.4532200547e+01     0.204579    0.1342854 -87.84 0.0003219968    1.301    0.231
        39 -10.0210    144.9863     12.6557   4.1436500279e+01   4.6788752200e+01    0.2982205    0.2109029  55.91 0.0009410125    1.284    0.221
        40  -9.0935    148.3521     12.3151   4.0834404673e+01   4.6017595233e+01    0.2362751    0.1813646  53.02 0.0007139629    1.260    0.206
        41 -10.9034    133.1545     12.6765   4.3344680088e+01   4.9602439378e+01    0.2111987    0.2018969  42.44  0.000236232    1.156    0.135
        42  -9.5522    128.5372      9.1177   4.3009014122e+01   5.1021929872e+01    0.3913016    0.3262469  -4.32  0.002437655    1.454    0.312
        43 -10.2995     79.1226     12.2194   5.5409432471e+01   6.1678591651e+01    0.2281297    0.1996439   5.24 0.0005207204    1.164    0.141
        44 -10.0328     61.7780      6.4218   5.8475126221e+01   6.5581894637e+01    0.3467944    0.2074923  56.30  0.001945892    1.812    0.448
        45  -8.5622     65.5589      4.4692   5.6317237593e+01   6.5060922120e+01    0.2072936   0.08603752  42.89 0.0006277272    1.995    0.499
        46  -9.7084     69.6116     11.4172   5.8039981978e+01   6.3623771845e+01    0.2365109    0.1683805  32.34 8.980839e-05    1.209    0.173
        47  -9.4142     69.3136      7.0594   5.6244630899e+01   6.4106140924e+01    0.1990457    0.1520643  46.80 0.0002726849    1.201    0.167
        48  -9.9626     74.6438      8.0817   5.5023378939e+01   6.2970794087e+01    0.3063956    0.1736777  49.73  0.001694254    1.508    0.337
        49 -10.9462     73.6711      3.0466   5.3162851130e+01   6.3614169962e+01    0.3252511    0.2703047  27.84  0.001762359    1.063    0.060
        50  -9.4831     69.6347      2.2628   5.4040236014e+01   6.4474224869e+01    0.1934595    0.1781115  66.52 0.0005600548    1.351    0.260
        51  -9.8732     55.9757     10.8790   6.2616053193e+01   6.6162638350e+01    0.2453054    0.1597375 -17.11 0.0008187367    1.578    0.366
        52  -9.6186    224.1809      9.5195   3.2075573327e+01   2.8893132959e+01    0.2712994    0.1345255 -47.98  0.001509508    1.746    0.427
        53 -10.5905    192.1849      8.2603   3.4547333502e+01   3.6090594395e+01    0.4711366    0.3489365 -64.90  0.001511988    1.228    0.186
        54 -10.6539    195.3069      3.6222   3.3182718482e+01   3.5844309023e+01    0.5270582    0.2283961  64.59  0.002638283    2.038    0.509
        55  -9.2150     38.8946     11.2522   6.9900743897e+01   6.8852408695e+01    0.1610376    0.1383972   7.54  0.001152199    1.165    0.142
        56  -9.6916    165.8441      9.0188   3.7585254912e+01   4.2166285001e+01    0.2832974    0.1751793 -35.81 0.0008666723    1.754    0.430
        57  -9.7038    120.0718      9.2028   4.4556826547e+01   5.2992385707e+01    0.2650785    0.1894028 -14.05 0.0006571384    1.690    0.408
        58  -9.6023     43.5437      9.3932   6.6952524445e+01   6.8368236935e+01    0.2741399    0.1503329  32.21 0.0009826414    1.609    0.378
        59  -9.4143     48.7290      7.6246   6.3939440610e+01   6.7732800009e+01      0.20536    0.1863166  72.15   0.00106539    1.728    0.421
        60  -9.3921      7.1075      8.9248   8.5454372381e+01   7.2907918080e+01    0.1750222    0.1641114  17.77  0.001234134    1.621    0.383
        61  -9.4927    202.0343      8.2111   3.3623282914e+01   3.3864490774e+01    0.2004272    0.1823818 -71.81  0.001412333    1.200    0.167
        62  -9.0829      1.3091      8.6506   8.8819709210e+01   7.3423484015e+01    0.1873294   0.08939984 -49.11 0.0009240411    2.204    0.546
        63 -10.0113    232.1503      6.1157   3.0807777296e+01   2.7596000397e+01    0.2737835    0.2389823  -9.27  0.001174415    1.770    0.435
        64 -10.8523    236.4816      6.9542   3.0673815307e+01   2.6618291835e+01    0.2871884    0.1915653 -68.13  0.001126333    1.197    0.164
        65 -10.9044    237.5625      3.4443   2.9922438562e+01   2.6776476501e+01     0.505407    0.2154081 -89.99  0.002574098    2.331    0.571
        66  -9.2320    206.6855      1.7260   3.1798015948e+01   3.3489451247e+01     0.196482    0.1395083 -84.10  0.000301997    1.156    0.135
        67  -9.9157    107.0192      6.4168   4.6178440237e+01   5.6222911741e+01    0.4141423    0.3327277  88.98  0.002048669    1.417    0.294
        68  -9.3834    152.9259      5.2096   3.8173441532e+01   4.5589785436e+01    0.2348453    0.1838281 -15.03  0.001342664    1.619    0.382
        69 -10.0644     39.9931      3.3934   6.5558426540e+01   6.9569348021e+01     0.411382    0.2757473  13.48  0.002664468    1.341    0.254
        70 -10.6384     30.9084      3.1731   6.9643745334e+01   7.0925435854e+01    0.2305065    0.1776697 -35.73 0.0007188665    1.678    0.404
        71 -10.6286    217.6870      2.6557   3.1147268471e+01   3.1002830263e+01     0.363907     0.221619  84.87  0.001814205    1.410    0.291
        72 -10.9445    159.9688      2.7808   3.6625025921e+01   4.4136161383e+01    0.4133044    0.2436687  70.84  0.001676243    1.420    0.296
        73 -10.6486    179.6891      2.0549   3.4285383074e+01   3.9576121569e+01    0.2756693    0.1720367  78.09 0.0004011366    1.355    0.262
        74  -8.2861    146.2645      3.6998   3.8634922291e+01   4.7304640974e+01    0.1225915   0.08644701 -70.43 0.0001831423    1.517    0.341
        75  -9.0429    127.4043      1.7896   4.0859270005e+01   5.1912895312e+01     0.271985    0.1151493  46.30  0.001236183    2.276    0.561
        76 -10.0049    115.8288      1.9306   4.2891654946e+01   5.4586100707e+01     0.198062    0.1525903  62.63 0.0003431994    1.092    0.084
        77  -8.8069     82.3237      2.1251   5.0351673460e+01   6.1934730402e+01    0.1644791    0.1451323  36.68 0.0006090315    1.079    0.073
        78  -9.7968     55.8704      1.6878   5.8378116359e+01   6.7092109499e+01    0.1745003    0.1264201  24.28  0.001141238    1.168    0.144
        79  -9.1716     50.0929      1.9927   6.0690296501e+01   6.8070134479e+01    0.2017489    0.1389071  35.77 0.0006007802    1.215    0.177
        80 -10.3907    209.1334      4.3697   3.2174007772e+01   3.2684511871e+01    0.3444454    0.2736753   0.19  0.001675562    2.014    0.503
        81  -8.6497    135.9503      1.4560   3.9435867326e+01   4.9933130351e+01     0.194347    0.1050912  67.50 0.0006289736    1.535    0.348
        82  -8.5394    109.8165      1.3146   4.3807055499e+01   5.6007129394e+01    0.2475654    0.1069671  73.61 0.0009542654    2.577    0.612
        83 -10.2058     13.9450    109.7351   1.1004784215e+02   5.2094562791e+01    0.3709304    0.2169315 -36.11 0.0009716179    1.824    0.452
        84  -9.3591    201.5351    249.5433   8.4947131940e+01  -5.8010992648e+00    0.2106642    0.1659618  14.41 0.0005454271    1.028    0.027
        85 -10.2074    115.7543    248.5387   1.0208017050e+02   7.0347015130e+00    0.2374226    0.2287618  81.80 0.0009596334    1.189    0.159
        86  -9.5059    237.1217    121.1305   5.4372503806e+01   9.9077716668e+00    0.2046783    0.1778474 -15.38  0.001240154    1.271    0.213
        87  -8.5990    123.8304    121.1433   7.7680503079e+01   3.3552087719e+01    0.2043029    0.1816421   9.90 0.0003632404    1.268    0.211
        88 -10.5131     61.8332    120.4358   9.6122668160e+01   4.4555972829e+01    0.2582814    0.2299082 -67.24 0.0002535342    1.081    0.075
        89  -9.4120     62.3409    115.4584   9.4899358934e+01   4.5703955810e+01     0.348185    0.2143402 -86.32  0.001028707    2.497    0.600
        90  -9.3193     93.8563    118.9963   8.5747690614e+01   3.9848467275e+01     0.257505    0.2240015  29.31 0.0009326681    1.204    0.169
        91  -9.6967     43.4873    119.1719   1.0184084717e+02   4.7132375479e+01    0.3194083    0.1896763  35.91  0.001065567    1.811    0.448
        92 -10.5380      3.9791    117.0935   1.1430258584e+02   5.0968055568e+01    0.3518521    0.3246094   4.84  0.002279722    1.315    0.240
        93  -9.8703     67.7836    118.5529   9.3804929485e+01   4.4181130001e+01    0.2474637    0.2434348  53.66 0.0007513252    1.076    0.070
        94  -8.9793     70.3246    115.7409   9.2361408530e+01   4.4491512679e+01    0.2208617    0.2013069  89.41 0.0002520236    1.179    0.152
        95  -8.8582    239.2993    117.3305   5.3256187965e+01   1.0157959132e+01    0.1291166     0.100749  -8.82  0.000703081    1.644    0.392
        96  -9.7955     81.6696    116.0758   8.8815748062e+01   4.2634525915e+01    0.3878718    0.1679577  50.28  0.001327056    3.032    0.670
        97  -8.6893     48.6476    111.2598   9.8570464057e+01   4.8477712608e+01    0.2870751    0.1554738 -58.75  0.000601254    1.660    0.398
        98 -10.4684     28.1811    116.0032   1.0631603590e+02   4.9441512912e+01    0.4828984    0.2710811  65.59  0.002149721    2.540    0.606
        99 -10.0966     32.3523    112.1567   1.0425627668e+02   4.9995340530e+01    0.3701022     0.248326  88.00  0.001359999    1.795    0.443
       100  -9.6881     20.9119    112.9151   1.0821948394e+02   5.0807160188e+01    0.3204405    0.2240585  19.26  0.001828145    1.667    0.400
       101 -10.2546     21.2824    107.9823   1.0728575034e+02   5.1969292428e+01    0.4538706     0.222358 -27.32  0.001949224    2.815    0.645
       102  -8.9587     20.6338    104.2835   1.0687710273e+02   5.2906939620e+01     0.268132    0.1782719  83.97 0.0009927691    1.838    0.456
       103  -9.5820     48.0493    115.4149   9.9613759448e+01   4.7535677142e+01    0.4006174    0.2459496  52.72  0.001217271    1.981    0.495
       104  -8.2315     40.4754    112.3827   1.0155695870e+02   4.9122840573e+01    0.1331271     0.122729 -58.38 0.0001284599    1.031    0.030
       105  -8.5659    121.4548    111.5426   7.5892225129e+01   3.6200794332e+01     0.153436    0.1496962 -87.74 0.0008070244    1.042    0.041
       106  -9.9635     62.9420    110.8579   9.3680656170e+01   4.6733558207e+01    0.2525268     0.193448 -53.85 -0.0009232552    1.214    0.176
       107 -10.4865     62.8127    104.7998   9.2319637519e+01   4.8195986494e+01    0.3390066    0.2732841  -4.30 0.0008657588    1.431    0.301
       108 -11.0552      5.2185    108.7877   1.1281506322e+02   5.2881906453e+01    0.5400637    0.3619189 -31.18  0.003175823    1.634    0.388
       109  -9.1611      3.3739    102.7202   1.1258305640e+02   5.4424434490e+01    0.3334513     0.136926 -74.42  0.001214538    2.201    0.546
       110  -9.5409     44.1279    108.8781   9.9618276683e+01   4.9574402000e+01    0.3498466    0.1961067 -69.71  0.001329813    1.867    0.464
       111  -9.8404    116.5604    107.8728   7.6288773973e+01   3.8027841887e+01    0.4887021    0.3006401 -20.17  0.001788526    2.717    0.632
       112  -8.6568    103.1219    108.8120   8.0419283674e+01   4.0498486624e+01    0.2016332    0.1780101  -5.97 0.0003660743    1.267    0.211
       113  -9.1244     67.8915    108.0460   9.1380576068e+01   4.6697142483e+01    0.3825572    0.2027036  16.57 0.0008474346    2.807    0.644
       114  -9.7021     72.1567    104.0506   8.8988395339e+01   4.6995764721e+01     0.477813    0.2439956  33.64   0.00201184    2.055    0.513
       115 -10.2343     34.2714    103.1447   1.0188313531e+02   5.1983343822e+01    0.2457872    0.1932568  33.57  0.001026578    1.422    0.297
       116  -9.5039     36.1070    108.3015   1.0225736582e+02   5.0563820860e+01    0.3501721    0.2067153 -35.61  0.001692472    1.844    0.458
       117  -9.8431     39.0912    103.0598   1.0016717712e+02   5.1516207116e+01    0.2858633    0.2058759 -31.08 0.0004314872    1.460    0.315
       118 -11.0965     49.9402    101.0593   9.5905146781e+01   5.0764531945e+01    0.4918086    0.4383242  31.61  0.002561192    1.222    0.182
       119  -8.2486    183.5858    107.4424   6.0349530662e+01   2.3322604844e+01    0.1465248    0.1393385 -54.68 5.173311e-05    1.017    0.017
       120 -10.0092     92.3252    104.8386   8.2671718923e+01   4.3422637983e+01    0.4745021    0.2830003 -36.95  0.002015678    1.832    0.454
       121  -9.0864     89.0417    102.5406   8.3100449402e+01   4.4535166171e+01    0.2944174    0.2151935  63.07  0.001366592    1.731    0.422
       122  -9.2978    132.7084    103.8352   7.0861580428e+01   3.5460045869e+01    0.2733303    0.2014489  37.31 0.0007348384    1.422    0.297
       123 -11.2476    102.0700    101.9577   7.8918986154e+01   4.2240097197e+01    0.5173311    0.3928217 -27.05 0.0005236034    1.486    0.327
       124 -10.6766    109.7676     99.5348   7.5983286476e+01   4.1241735854e+01    0.5170746     0.446094  54.41  0.001898392    1.206    0.171
       125  -8.5635    126.4682    102.4947   7.2138946946e+01   3.7101529309e+01    0.1531094    0.1491917   0.79 6.154075e-05    1.062    0.058
       126  -9.1675     80.7696    101.6413   8.5528660553e+01   4.6168366398e+01    0.3348398    0.2025341  37.36  0.001505927    1.701    0.412
       127  -9.5493     78.3485     99.3151   8.5717276118e+01   4.7100743018e+01     0.343351    0.2187032 -35.91  0.001559772    1.673    0.402
       128 -10.0077     41.3850     99.1587   9.8518653992e+01   5.2196361901e+01     0.461843    0.2253688  32.40  0.001718648    2.189    0.543
       129 -10.2010     18.1248     99.0664   1.0684383697e+02   5.4336505540e+01    0.4882499    0.2638067  14.91  0.002481619    2.198    0.545
       130  -9.3903     13.2604     96.2011   1.0808384128e+02   5.5353539918e+01    0.2589484    0.1840572 -33.86  0.000733521    1.405    0.288
       131  -9.3076      7.4667     89.5518   1.0904607381e+02   5.7260301962e+01    0.3715645    0.2667201  33.23  0.001578358    1.654    0.395
       132  -9.7537      2.0418     92.3406   1.1149471936e+02   5.6916671208e+01    0.3459998    0.2188959  45.71 0.0004300348    1.955    0.489
       133  -9.7762      2.1901     86.8380   1.1054779087e+02   5.8170930750e+01    0.4372401    0.1113804 -55.21  0.001820712    2.583    0.613
       134 -10.4824      2.3872     80.7568   1.0941712626e+02   5.9535645615e+01    0.3706558    0.2180067 -58.50  0.001577023    1.344    0.256
       135  -9.5067      8.8404     98.4616   1.1003901273e+02   5.5107657827e+01    0.4619251    0.2419684 -82.30  0.001793288    2.090    0.521
       136  -9.3710      4.0965     97.9272   1.1162623853e+02   5.5509398171e+01    0.3552464    0.2191474 -42.68  0.001257312    1.497    0.332
       137 -10.4976    137.1472     97.5108   6.8024820843e+01   3.5785339712e+01    0.3550934    0.3141085 -25.73  0.001558928    1.216    0.178
       138 -10.6800    124.9560     97.5662   7.1197641524e+01   3.8464980633e+01    0.4773815    0.3009441  22.21   0.00186171    2.367    0.578
       139  -8.9905    171.1582     97.0831   6.0227580850e+01   2.8099935886e+01     0.214127    0.1994668  -5.27            0    1.226    0.184
       140  -8.4739    150.0275     97.0106   6.4790692440e+01   3.2965678413e+01    0.1824292     0.173101  61.28 0.0003217269    1.047    0.045
       141  -8.6936    155.3237     95.9555   6.3305628490e+01   3.1957519238e+01    0.2098592    0.1987732 -46.79 0.0005443367    1.064    0.060
       142 -11.2597    117.7308     97.8687   7.3256856586e+01   3.9948186077e+01    0.3159877    0.2818678  -0.86  0.000397968    1.252    0.201
       143  -9.1483     87.1708     95.9098   8.1914785373e+01   4.6354120977e+01    0.2073956    0.1728188 -15.34 0.0007203491    1.325    0.245
       144  -9.8142     23.3002     94.5823   1.0413020875e+02   5.4987237929e+01    0.4969066    0.2012867 -54.58  0.002238507    1.968    0.492
       145 -11.0361     44.3354     81.8119   9.3247475970e+01   5.5826997254e+01     1.552909    0.2659563  33.34  0.004622483    5.185    0.807
       146 -10.7687     53.6868     57.2783   8.2168427043e+01   5.9638093473e+01     1.377585    0.3438613 -49.50   0.00338989    4.395    0.772
       147 -11.3535     31.6600     93.2815   1.0078052539e+02   5.4557034294e+01    0.4802665     0.434288 -15.16   0.00206363    1.156    0.135
       148 -11.3868     30.2618     85.4926   9.9574457848e+01   5.6474667807e+01    0.8441071    0.4993095  -6.13  0.004123912    2.201    0.546
       149 -13.0174     53.0542     74.8698   8.7964598768e+01   5.6233224047e+01    0.4791046    0.3072795 -53.47 0.0007005371    1.551    0.355
       150 -11.0656     45.6380     68.3143   8.8938702942e+01   5.8542533987e+01    0.5563114    0.3051214 -27.79  0.002559963    2.117    0.528
       151  -8.9177     80.1692     94.8274   8.3911972022e+01   4.7807564602e+01    0.2146832    0.1977809  88.11 0.0005372307    1.251    0.200
       152  -8.7016    166.7589     94.4094   6.0439851933e+01   2.9617362875e+01    0.2027026    0.1399256  42.89 0.0003683683    1.550    0.355
       153  -9.9127     46.9557     92.8039   9.5036945582e+01   5.3044892643e+01    0.3671744    0.1897771 -52.65 0.0009386841    1.714    0.417
       154 -10.3625     43.5248     88.3133   9.5210706700e+01   5.4467362771e+01    0.2829027     0.235228  12.43 0.0005571814    1.288    0.224
       155  -9.1173     39.6441     88.3006   9.6664614206e+01   5.4898890186e+01    0.1967053     0.185483 -83.43  0.001012511    1.210    0.173
       156  -9.1950    134.9877     91.3186   6.6857200426e+01   3.7513066097e+01    0.2111274     0.192572  49.19 0.0001967153    1.085    0.078
       157  -9.7602    117.9521     84.5440   6.9397739663e+01   4.2622712753e+01    0.4135984    0.2502915 -16.95  0.001524307    2.832    0.647
       158  -9.2067    132.9377     82.6754   6.4918076671e+01   3.9650709349e+01    0.2422838    0.2050281 -54.95 0.0003651665    1.235    0.190
       159 -10.7882    128.3286     85.7150   6.6965658256e+01   4.0108214814e+01    0.5214927    0.3969502   3.61 0.0006340829    1.811    0.448
       160 -10.9038    123.6208     86.1257   6.8321273443e+01   4.1073444569e+01    0.5665728    0.3195643 -41.36  0.002389003    1.805    0.446
       161  -8.7740    106.7163     91.0361   7.4492120486e+01   4.3667699554e+01    0.2113392    0.1858989 -40.56 0.0003396518    1.138    0.121
       162  -9.3276     52.5667     90.2643   9.2354248896e+01   5.2934467466e+01    0.2209021    0.1966878 -68.25 0.0006339729    1.216    0.178
       163 -10.3812     86.8433     88.3386   7.9892819106e+01   4.8057586184e+01    0.3536632    0.3160648  35.83 0.0009549757    1.136    0.120
       164  -9.6129     71.1834     89.0922   8.5389198050e+01   5.0540701914e+01    0.3883452    0.2052578 -58.72  0.001071308    2.149    0.535
       165 -10.1808     65.5943     85.5062   8.6359997885e+01   5.2183344506e+01    0.3909817    0.2960665  14.71  0.001287538    1.448    0.309
       166  -9.3939     73.5434     79.6035   8.1831057526e+01   5.2190407986e+01    0.3467104    0.2528595 -38.44 0.0009498309    1.327    0.247
       167 -10.8532     80.1956     83.4859   8.0690021576e+01   5.0257836219e+01    0.4534394     0.348626  33.43  0.002365487    1.318    0.241
       168  -9.3741     73.3956     83.8435   8.3130478868e+01   5.1322480394e+01    0.4357415    0.2453715  41.90  0.001961318    1.869    0.465
       169  -9.8834     16.0208     88.0087   1.0555286967e+02   5.7062333519e+01    0.3506498    0.2767513 -46.30  0.001148314    1.088    0.081
       170  -8.7082     97.4044     87.2111   7.6202909048e+01   4.6316018183e+01    0.1997153    0.1407541 -55.58 0.0004686227    1.557    0.358
       171  -8.7695     58.0241     87.2806   8.9580896401e+01   5.2880346102e+01    0.1859453    0.1732972  12.45 0.0003141154    1.115    0.103
       172  -9.5097    104.2666     85.6525   7.3655378053e+01   4.5273700253e+01    0.2752319    0.2263192  -8.56 0.0001835167    1.411    0.291
       173 -10.1887    155.5322     83.0455   5.9779686017e+01   3.4342907944e+01    0.4583916    0.2703529 -25.66  0.001525476    2.233    0.552
       174 -10.9272    151.0873     80.7382   6.0110254965e+01   3.5804901874e+01      0.52447    0.2629956  55.64  0.002099528    1.997    0.499
       175  -8.9072    145.9351     84.0000   6.2178022506e+01   3.6409491447e+01     0.249387   0.08426791  51.75 0.0006919739    2.910    0.656
       176  -9.4776    181.9929     81.6746   5.4225555041e+01   2.8393657665e+01    0.1963857    0.1806723  79.64 0.0003572555    1.066    0.062
       177  -9.2737    184.8358     75.8291   5.2247943144e+01   2.8728992508e+01    0.1963452    0.1572239 -71.63 0.0003284187    1.280    0.219
       178  -9.4092    178.4825     81.4975   5.4814342838e+01   2.9239280797e+01    0.2509649    0.1409771 -38.89 -4.520675e-05    1.772    0.436
       179 -10.8408    180.5101     74.2106   5.2580959095e+01   3.0007122526e+01    0.5686906    0.4008846   0.18  0.002457171    2.458    0.593
       180  -9.2016    172.2229     77.4713   5.4927162609e+01   3.1400381009e+01    0.2276515    0.1425123  60.49  0.001038554    1.602    0.376
       181  -9.3169    175.1416     75.1612   5.3782934527e+01   3.1107164001e+01      0.22241    0.2049017 -84.83  0.000285848    1.031    0.031
       182  -8.4565    101.7660     80.7892   7.2956818414e+01   4.6755821523e+01    0.2418045    0.1171927 -53.33    0.0008967    2.511    0.602
       183 -10.0550     20.3419     79.1886   1.0202148278e+02   5.8735807551e+01     0.418602    0.2538163 -65.36  0.001237383    1.580    0.367
       184  -8.2505     18.3213     72.4403   1.0128046185e+02   6.0373913223e+01    0.3392478     0.222332 -45.60  0.001902769    1.268    0.211
       185  -9.2808    136.8824     78.3839   6.2711170655e+01   3.9544284510e+01    0.2613492    0.2047366 -55.69  0.001295265    1.367    0.268
       186 -11.0280     97.0967     63.9719   6.9082807482e+01   5.0858386663e+01     0.341786    0.2480987  30.13 0.0003064371    1.422    0.297
       187 -10.8260     89.8621     73.9153   7.4566273734e+01   5.0437360954e+01    0.6290191    0.5151352 -62.26  0.001649559    1.457    0.313
       188 -10.4502     94.5854     69.9073   7.1787730933e+01   5.0283701429e+01    0.6021813    0.3823172 -25.04  0.002728995    1.884    0.469
       189  -8.4943     12.5944     78.1484   1.0488612721e+02   5.9523566396e+01    0.1767287   0.09115715 -51.85 0.0004292003    1.545    0.353
       190  -9.0438    110.9288     77.0644   6.9131414579e+01   4.5577176393e+01    0.2307283    0.2169652  16.78 0.0007317233    1.069    0.065
       191 -10.2283     27.9355     76.3628   9.8309039260e+01   5.8720893893e+01    0.3604061    0.2194852 -42.96 0.0003437638    1.425    0.298
       192  -9.0284     68.8464     74.7763   8.2042414014e+01   5.3942904921e+01    0.2047365    0.1748945 -12.46 0.0004398485    1.161    0.139
       193 -10.0787     63.9955     74.3442   8.3682216393e+01   5.4784300931e+01    0.3028511    0.2305731 -42.20  0.001651056    1.252    0.201
       194  -8.2348     37.5921     75.4518   9.4197097669e+01   5.7965882728e+01    0.1334146    0.1115147 -33.46 0.0001100066    1.056    0.053
       195 -10.5206    170.2256     73.3498   5.4211693799e+01   3.2572444351e+01    0.2976909     0.249165 -45.58  0.000663027    1.196    0.164
       196 -10.3356    145.6332     71.4051   5.8676079423e+01   3.8737002228e+01    0.4278159    0.2790567 -20.37  0.001601761    2.056    0.514
       197 -10.5829    143.9401     66.4165   5.7605498134e+01   3.9980608578e+01    0.4337173    0.2880799  40.63  0.001647318    1.618    0.382
       198  -9.6893    137.3981     73.1553   6.1066225687e+01   4.0363321907e+01    0.3656884    0.1791295 -36.34 0.0008696354    2.168    0.539
       199  -8.1005    115.6826     74.7313   6.7086684507e+01   4.4990146238e+01    0.1467084    0.1140724  16.05 0.0003743281    1.557    0.358
       200  -8.4621    152.1746     73.1661   5.7758720453e+01   3.6886556280e+01    0.2041526    0.1693332 -77.43 0.0005766153    1.324    0.245
       201  -9.1164    111.3814     71.6727   6.7342377647e+01   4.6484372557e+01    0.3623115     0.235309  -2.66  0.001425524    2.688    0.628
       202  -8.7330    199.8490     70.8392   4.8617366691e+01   2.6101346728e+01    0.2029162    0.1941359  16.01  0.001217698    1.295    0.228
       203 -10.3971    101.8120     70.3951   6.9724455192e+01   4.8734900441e+01     0.350639    0.2803577  21.66  0.001818267    1.347    0.257
       204  -9.4442    106.1977     66.1303   6.7071559178e+01   4.8587417878e+01    0.4503313    0.3518727  75.13  0.002252898    1.651    0.394
       205  -9.8533     82.9770     64.0975   7.3670553138e+01   5.3576227607e+01    0.4636886    0.2517294 -44.35  0.001316623    1.895    0.472
       206  -8.5415    215.4973     70.5000   4.6323246185e+01   2.2689376795e+01    0.1368669    0.1182621 -66.68 0.0008105953    1.022    0.021
       207 -10.3097    119.7909     68.0770   6.3930116174e+01   4.5280208423e+01    0.5178483    0.3308764  41.02  0.002394875    1.569    0.363
       208 -10.8584     39.9340     58.3953   8.8216763304e+01   6.1208581672e+01    0.4749675    0.3267195   4.24  0.002283294    1.562    0.360
       209 -12.1485     30.5007     64.0644   9.3957088192e+01   6.1090275916e+01    0.8189629     0.560698   9.88  0.004732983    1.554    0.357
       210  -8.4944    192.4896    248.4742   8.6515714770e+01  -4.3849498399e+00     0.123148    0.1003045  15.27 2.432245e-05    1.008    0.008
       211 -10.7892     18.8785     47.4161   9.4134366298e+01   6.5444940514e+01     0.484196    0.3847101 -25.37  0.002723665    1.040    0.039
       212 -10.4413     26.6374     45.3840   8.9816946173e+01   6.5111803338e+01    0.5156096    0.2006997 -34.62  0.001485448    2.666    0.625
       213  -9.9373     32.3291     48.0557   8.8118058741e+01   6.4026954858e+01    0.3175169    0.2343089  56.82  0.001350689    2.210    0.547
       214 -11.0376     46.0761     48.0641   8.2088352138e+01   6.2359584830e+01    0.5671462    0.3197795  18.05 0.0006703998    1.996    0.499
       215 -10.5749     38.6308     47.1120   8.4971744897e+01   6.3475902534e+01     0.534655    0.3018116   3.91    0.0023784    2.338    0.572
       216  -9.5992      9.8456     69.4511   1.0411996232e+02   6.1605122706e+01    0.3250995    0.1943237  -9.27  0.001821026    1.890    0.471
       217  -8.7607     14.9030     64.8325   1.0086708478e+02   6.2252082373e+01    0.3173461    0.1874195 -15.84  0.001733982    1.863    0.463
       218 -11.3679      9.9704     51.8377   9.9645480601e+01   6.5254723956e+01    0.6218372    0.4491803  26.29  0.003411999    1.608    0.378
       219  -9.8454     15.5440     59.9300   9.9317442209e+01   6.3226345109e+01    0.2111084    0.1752109 -27.29 0.0004672172    1.070    0.065
       220 -11.7374      2.3065     66.3358   1.0662197249e+02   6.2701994354e+01    0.3313241    0.2030997 -53.80  0.001152272    1.288    0.224
       221 -10.3877      9.1019     62.4028   1.0279024266e+02   6.3150647416e+01    0.3366502    0.2860965 -14.84  0.001014076    1.185    0.156
       222 -10.5486      4.1015     59.7325   1.0435561531e+02   6.4001252786e+01    0.5581422    0.2582096 -29.17  0.002844722    2.170    0.539
       223  -9.6242    173.5845     69.0264   5.2453430810e+01   3.2493108348e+01    0.2677061    0.1996739  54.19 0.0005735509    1.342    0.255
       224  -8.8524     63.2632     69.3344   8.2403139139e+01   5.5906947526e+01     0.370232    0.1660843  25.92  0.001443118    2.767    0.639
       225 -11.3644    134.4475     64.2691   5.9120404571e+01   4.2570999982e+01    0.6303014    0.4401289  81.06  0.001955312    1.872    0.466
       226  -9.7814    129.8663     57.8259   5.8229841518e+01   4.4682498217e+01    0.5018412    0.2709768  67.63  0.002011095    2.333    0.571
       227  -9.2842     75.0730     65.9707   7.7018606781e+01   5.4640043685e+01    0.2295127    0.1909636 -37.81 0.0003566662    1.196    0.164
       228  -8.9957     77.1769     62.1292   7.5003218089e+01   5.4985322690e+01    0.2497678    0.1833151 -13.84 0.0007114694    1.538    0.350
       229  -9.6478     65.8273     62.2991   7.9161810770e+01   5.6867178901e+01    0.9419867    0.6279562  88.99  0.003307533    4.800    0.792
       230  -9.9437     70.4968     59.8838   7.6626104173e+01   5.6548349251e+01    0.3995739    0.2530218  53.04 0.0009652083    2.024    0.506
       231  -8.6805     68.0000     54.5559   7.5698753256e+01   5.7918227136e+01    0.3057527    0.1597929 -46.22   0.00140354    2.040    0.510
       232  -9.5564     65.0536     56.5035   7.7480477886e+01   5.8056060922e+01    0.2385797    0.2209873 -17.04 0.0003460703    1.096    0.088
       233  -9.6828     62.6236     52.8408   7.7118115423e+01   5.9095012655e+01    0.2976116    0.2775214 -69.64  0.001377279    1.417    0.294
       234  -8.4521    203.1590     63.1741   4.6303453580e+01   2.6550693508e+01    0.1875401    0.1433096 -70.82  0.000362748    1.275    0.216
       235  -9.2563    193.9672     61.2960   4.7167784337e+01   2.8934958478e+01    0.3245488    0.1898242 -38.92  0.001109198    1.683    0.406
       236  -9.6987    151.1171     61.0416   5.4533773435e+01   3.9142570865e+01    0.3101668    0.2339353  51.24  0.001245697    1.290    0.225
       237 -10.4925    162.2243     58.9687   5.1799260219e+01   3.6801023924e+01    0.5332876    0.3386571 -11.77  0.002255402    2.565    0.610
       238 -11.1611    142.2093     59.6026   5.5979919899e+01   4.1495375252e+01     0.343628    0.2798453  17.56 0.0001039066    1.521    0.343
       239  -8.6223    115.4206     61.1604   6.2912277131e+01   4.7434780223e+01    0.1915704    0.1347642 -50.31 0.0004395665    1.592    0.372
       240 -10.3985    171.6025     59.1688   5.0183635050e+01   3.4523197250e+01     0.426198    0.2983289  47.37  0.001560387    1.523    0.343
       241  -9.9792    167.2008     56.9447   5.0349005069e+01   3.5915099674e+01    0.3375091    0.2180399 -43.57  0.001183711    1.559    0.359
       242  -8.5924    177.5568     57.5059   4.8748314591e+01   3.3356704450e+01    0.2092718    0.1236529  52.62 6.721648e-05    1.704    0.413
       243 -11.9475     79.6198     69.8958   7.6707515197e+01   5.3096231560e+01    0.2997061    0.2492331  20.27  0.000291697    1.201    0.167
       244  -8.7083    198.8732     58.1217   4.5690689578e+01   2.8286127694e+01    0.1642882    0.1603158  44.40  0.001018809    1.250    0.200
       245  -8.4307    181.5634     58.5105   4.8364819494e+01   3.2255847123e+01    0.1411815    0.1258363 -79.02 6.284257e-05    1.039    0.037
       246  -9.2423    136.2650     55.4462   5.6033977671e+01   4.3551308709e+01    0.2635098    0.2006823 -37.63  0.001370483    1.388    0.280
       247 -11.0284    118.8635     52.3900   5.9191852600e+01   4.8059823774e+01    0.5823932    0.3729735  38.31 0.0002132055    1.616    0.381
       248 -11.5956    125.7095     45.8172   5.5418117643e+01   4.7450788124e+01    0.5839419    0.5538042  79.21  0.002019007    1.085    0.079
       249 -12.9998     62.4945     44.6192   7.4164090027e+01   6.0503401219e+01    0.7586622     0.490762  59.62  0.001161024    2.532    0.605
       250  -9.5972    150.5618     54.2377   5.2683496985e+01   4.0322990920e+01    0.3427551    0.2548283 -39.58  0.001326681    1.408    0.290
       251 -10.7191    153.5962     48.8422   5.0545860688e+01   4.0381133548e+01    0.4658394    0.3917046 -59.66  0.001575733    1.229    0.186
       252  -9.2520     98.7529     54.8993   6.5549597454e+01   5.2056957608e+01    0.2168817    0.1994081  33.50 0.0004409062    1.030    0.029
       253 -10.1205     88.2924     48.6322   6.6590483664e+01   5.5183189070e+01    0.6757565    0.2835799 -41.77  0.002653948    2.561    0.610
       254  -9.0459     96.4289     48.7713   6.4131147678e+01   5.3508931962e+01    0.2054221    0.1706912  38.78 0.0002787505    1.120    0.107
       255  -9.3885     93.4978     54.9425   6.7161698239e+01   5.3128279002e+01    0.3278647    0.2523817   2.79 0.0008899862    1.508    0.337
       256  -9.8999     92.8642     51.1403   6.6041340034e+01   5.3870927812e+01    0.2435817     0.202787  45.53 0.0003318794    1.174    0.148
       257  -8.8583    191.0416     53.9690   4.5783032993e+01   3.0705724079e+01     0.208989    0.1638455  34.39    0.0010222    1.679    0.405
       258 -11.0535    174.4719     50.4440   4.7388160938e+01   3.5129508474e+01    0.2922142    0.2873328  21.19 0.0002661133    1.209    0.173
       259  -9.3658    145.7095     52.4621   5.3134022748e+01   4.1751828901e+01    0.2613997    0.2182781 -63.25 0.0007637993    1.275    0.216
       260  -8.9749    106.8516     52.8387   6.2521438718e+01   5.0662245599e+01    0.2144105    0.1752438  31.63 0.0003698623    1.208    0.172
       261  -9.5596    164.7841     52.0308   4.9428538377e+01   3.7224790549e+01     0.311966    0.1949373  63.80 0.0009400665    1.517    0.341
       262  -8.7926     83.2903     51.0515   6.9078847135e+01   5.5770694854e+01    0.2427896    0.1772799 -39.04  0.001304411    1.436    0.304
       263  -9.5075    181.6954     49.7480   4.6089307582e+01   3.3509676202e+01    0.3034281     0.197124 -29.79  0.001516464    1.752    0.429
       264  -8.6222    137.5676     49.7235   5.4006248871e+01   4.4097662866e+01    0.1930628    0.1304396 -47.68 0.0009443226    1.599    0.375
       265 -10.1393    114.7922     46.4905   5.8284652683e+01   4.9859280636e+01    0.3863466    0.2875418  21.08  0.001453234    1.582    0.368
       266  -8.1900    214.5666     48.4806   4.1432525677e+01   2.6151603987e+01    0.1298058    0.1129358 -72.00 0.0001565362    1.037    0.036
       267  -9.1307    163.7725     47.0418   4.8228595169e+01   3.8180718483e+01    0.3487461    0.2155759  33.13  0.001401335    2.311    0.567
       268 -10.2951     80.1712     44.4778   6.7742486975e+01   5.7401367780e+01    0.5328673    0.3824214  13.74  0.002837994    1.554    0.357
       269  -9.2231    234.8975     47.0265   3.8921846751e+01   2.2021356219e+01    0.1829842    0.1496505 -67.93 0.0003809697    1.007    0.007
       270  -9.2940    202.4924     46.8379   4.2513150708e+01   2.9082163810e+01    0.2403783    0.1746632  65.36 0.0004478509    1.359    0.264
       271  -8.3082     84.2445     47.5954   6.7526462644e+01   5.6138510532e+01    0.1299197    0.1060973 -66.00 0.0006930447    1.694    0.410
       272 -10.3661    243.9689     44.1152   3.7454464318e+01   2.0579583690e+01    0.3172968    0.2624129  42.59  0.001180418    1.744    0.427
       273 -10.7040    103.1193     43.0904   6.0221784706e+01   5.2929829361e+01    0.5577737    0.2643053  50.87  0.002206822    1.942    0.485
       274 -11.8804    103.7356     38.7196   5.8521774333e+01   5.3403247774e+01    0.3435198      0.28577  70.41 0.0003298436    1.348    0.258
       275 -10.8321     78.8996     33.7956   6.4130075910e+01   5.9188629651e+01    0.9026107    0.3667951  35.53  0.001942901    2.738    0.635
       276 -10.5682     93.9703     44.9911   6.3534223327e+01   5.4589140305e+01    0.5672312    0.4245614  60.26  0.001871694    1.491    0.329
       277  -9.3846    163.4653    246.5296   9.1980520449e+01   1.6231230334e-01    0.1271578     0.106012  22.93  2.89537e-06    1.026    0.025
       278 -10.1643     71.9419     30.4843   6.5188175654e+01   6.0947364378e+01    0.2914965    0.2549722  43.96 0.0008541183    1.231    0.187
       279  -8.5127      1.3572    244.1579   1.2437095462e+02   2.2306364269e+01    0.1531769   0.07812586  81.46 0.0004151315    1.655    0.396
       280  -8.5694      4.7564     44.9735   1.0018909200e+02   6.6931635258e+01    0.1617467    0.1169019 -37.66  0.001079184    1.090    0.082
       281  -9.2428      8.4973     43.8941   9.8038235760e+01   6.6901759840e+01    0.1788813    0.1599858 -46.46 0.0004173067    1.252    0.201
       282  -9.5997    202.6089    242.0855   8.3587902101e+01  -4.8691267432e+00    0.1947805    0.1342462  26.38 0.0005433368    1.256    0.204
       283  -9.8618      7.5244     39.4591   9.7142667366e+01   6.7803079556e+01    0.2129065      0.16171 -31.85 0.0006200721    1.036    0.035
       284 -10.2763      4.4804     39.4803   9.8686969010e+01   6.7995316033e+01    0.3745211    0.2296163 -60.59  0.001724063    1.700    0.412
       285  -8.6334    209.7780     43.7726   4.0917894575e+01   2.7860623944e+01     0.174862    0.1275403 -66.73 0.0002427867    1.256    0.204
       286  -8.4038    184.9775     44.2043   4.4197541701e+01   3.3505634416e+01    0.1868342     0.100722  66.78 0.0008696078    1.758    0.431
       287  -8.6827    140.6132     43.8730   5.1594348274e+01   4.4197818233e+01    0.2009317    0.1205743 -47.87 0.0009371447    1.831    0.454
       288  -9.6805     79.9890     54.4933   7.1407114108e+01   5.5819536883e+01    0.4383875     0.324689 -76.13  0.002097107    2.361    0.576
       289  -8.3287    200.3038     43.2965   4.1946486212e+01   3.0066415088e+01    0.1225783    0.1016676  37.69  0.000398046    1.582    0.368
       290  -9.5941    240.9663     54.6595   3.9896312471e+01   1.9726020415e+01    0.2661656    0.1806606 -82.59 0.0008822303    1.488    0.328
       291 -10.4383    228.0949     39.1898   3.7943898010e+01   2.4492857462e+01    0.4884973     0.181402 -31.85  0.002029692    3.055    0.673
       292  -8.2880    191.5361     42.0103   4.2756953985e+01   3.2264509214e+01     0.192982   0.09087152 -56.45 0.0008062226    2.367    0.577
       293  -9.6118    158.3984     39.8664   4.7136617237e+01   4.0451208078e+01    0.3341537    0.2134014 -40.10  0.001317597    1.632    0.387
       294 -10.4380     35.9085     41.1659   8.4030627926e+01   6.4849174244e+01      0.35652    0.2013634  12.82 0.0003282019    2.000    0.500
       295 -11.1646     41.1222     38.5516   8.0694101704e+01   6.4639788676e+01    0.3961032    0.2275077  -7.60 0.0009530949    2.342    0.573
       296  -9.3367    222.5508     40.6388   3.8815175263e+01   2.5482235458e+01    0.2176747    0.1849567  89.46 0.0007020085    1.126    0.112
       297  -9.0357    112.9965     41.1081   5.6931970714e+01   5.1022662410e+01     0.202468    0.1809038  40.53 0.0002960221    1.042    0.040
       298  -8.7078     48.8468     41.1798   7.8359346695e+01   6.3152839029e+01     0.174793    0.1302555  -9.01 0.0004886286    1.298    0.229
       299  -8.5493    197.3632     39.8547   4.1488910194e+01   3.1201648556e+01    0.1775248    0.1262907 -23.37 0.0009520178    1.782    0.439
       300  -8.1815    203.4576     39.5081   4.0670225266e+01   2.9854261207e+01    0.1325219    0.1118515 -76.41  4.92119e-05    1.021    0.020
       301  -8.4369    165.7401     39.3611   4.5795157912e+01   3.8746137779e+01    0.1775825    0.1319879 -25.70 0.0007074436    1.585    0.369
       302  -8.9539    164.0367     36.0000   4.5141730114e+01   3.9589812761e+01    0.3718945    0.1442366  68.75  0.001421128    2.629    0.620
       303  -8.8579    120.5934     38.2035   5.4124592593e+01   4.9677286042e+01    0.2962146    0.1523223 -47.15  0.001286501    2.328    0.570
       304 -10.5725    178.1977     36.8658   4.3271388556e+01   3.6084539810e+01    0.4138058    0.3054306 -75.63   0.00162559    1.357    0.263
       305  -8.6551    134.4617     27.9771   4.7902575437e+01   4.7678396431e+01    0.3228409    0.1811055 -14.05  0.001450147    2.538    0.606
       306  -9.6581    146.3651     29.1797   4.6104187424e+01   4.4686805333e+01    0.3268986    0.2093435  74.59 0.0006182286    1.532    0.347
       307 -10.2898    141.4914     32.9583   4.8112489721e+01   4.5404412775e+01    0.5218543    0.3605909  11.41  0.002563858    2.136    0.532
       308  -9.8924    136.4125     37.5549   5.0503121397e+01   4.6041901839e+01    0.3204033    0.2332588 -80.25 0.0009387893    1.678    0.404
       309 -10.9131    131.5634     35.3329   5.0794729684e+01   4.7477573857e+01    0.4355468    0.3249065 -35.90            0    1.461    0.316
       310  -8.9687    109.9894     38.0464   5.6647635811e+01   5.2111172279e+01    0.2228539    0.1490481  30.63 0.0005878757    1.647    0.393
       311  -8.8794    238.7912     37.1850   3.6520724674e+01   2.2538076347e+01    0.1529259    0.1391134  70.82 0.0009916301    1.357    0.263
       312  -9.4483    209.0274     33.8521   3.8735815128e+01   2.9332192102e+01    0.4515317    0.1973251 -29.00  0.001969544    2.775    0.640
       313 -10.5690    248.2155     30.7957   3.4449869408e+01   2.1469601144e+01    0.3759316    0.2594078 -24.07  0.001948212    2.002    0.500
       314  -9.8739    185.9068     34.6725   4.1671168089e+01   3.4539948424e+01    0.4614019      0.18949 -32.67  0.001963512    2.591    0.614
       315 -11.0896     56.3747     35.1220   7.2884321726e+01   6.2971305533e+01    0.3994888    0.3729356  25.20  0.001368773    1.254    0.202
       316 -11.2229     51.9609     29.0124   7.2180973350e+01   6.4557139408e+01    0.2041695     0.177682  13.68 0.0003009739    1.105    0.095
       317  -8.9794    223.4426     34.7342   3.7447978896e+01   2.6061918917e+01     0.211787    0.1682341 -71.30 0.0006475535    1.047    0.045
       318  -8.9148    114.6535     35.2936   5.4551914758e+01   5.1417031880e+01    0.2880708    0.1269501  55.46 0.0008631816    2.035    0.509
       319  -9.6273    117.7196     32.9333   5.3032229369e+01   5.1012219619e+01    0.2523022    0.1776619  53.48 0.0004735479    1.268    0.211
       320  -9.8321     50.5931     32.4842   7.4184502999e+01   6.4260864796e+01    0.3226165    0.2093821  15.49 0.0008441536    1.590    0.371
       321  -9.1524    123.0351     33.9552   5.2172205466e+01   4.9654452470e+01     0.202825    0.1780535  48.80 0.0002995797    1.052    0.050
       322  -8.7475    127.9852    240.6524   9.8541824310e+01   6.6113256216e+00    0.2289933    0.0738097  50.39 0.0007048864    4.495    0.778
       323 -11.9176    105.1721     21.0139   5.1839699629e+01   5.5233585954e+01     0.281814    0.2494587  84.46  0.000350148    1.283    0.221
       324  -9.3371    160.7395     31.5862   4.4435391873e+01   4.0932954961e+01    0.4025963     0.183254  51.09   0.00174963    2.160    0.537
       325  -9.1573    221.4775    237.4886   7.9324137935e+01  -6.7916344665e+00    0.1222258   0.09642866   3.01 0.0004226739    1.028    0.027
       326  -8.0464     42.8125     31.0712   7.6956725621e+01   6.5598756171e+01    0.4119858    0.2810236 -57.77  0.001324697    2.416    0.586
       327 -11.0718     24.8757     29.4182   8.4736064524e+01   6.8055876997e+01    0.4548769    0.2185079 -35.71  0.001690266    1.874    0.466
       328 -10.2186     31.1572     27.9724   8.1063592461e+01   6.7576191404e+01    0.4723444    0.2963279 -13.61  0.002467507    1.613    0.380
       329  -9.6432     34.7958     31.5052   8.0788075154e+01   6.6581486385e+01    0.2619126    0.1604616  28.10  0.001040603    1.589    0.371
       330 -10.1727     37.2164     27.0323   7.7804186201e+01   6.6960206183e+01    0.3963046    0.2334135 -28.89  0.002269763    1.604    0.377
       331  -9.5528    233.8821     30.5940   3.5609014530e+01   2.4387364355e+01    0.3422463    0.1669727  53.31  0.001704312    2.575    0.612
       332  -9.1379    168.3004    237.6400   8.9692873510e+01   8.8999327388e-01    0.1226069   0.09861748  65.11 0.0007036216    1.716    0.417
       333  -9.0608    139.9444    236.9996   9.5517371218e+01   5.4154729797e+00    0.1962385    0.1682565  34.34 0.0003362397    1.006    0.006
       334  -8.8249     32.2030    232.4344   1.1784727158e+02   2.1464484947e+01    0.1634531   0.08786973  49.00 0.0004587763    1.536    0.349
       335  -9.8534    186.6958    231.0130   8.4933604788e+01  -8.3011328221e-01    0.1820893    0.1592777   0.29  0.001176244    1.076    0.071
       336  -9.2975    177.5035    231.3102   8.6835998259e+01   5.2857569148e-01    0.2417592    0.1054652  35.43  0.001085269    2.044    0.511
       337  -8.1094      3.5145    230.4275   1.2333530302e+02   2.4841936815e+01    0.1138438   0.08548929  70.96 0.0001804903    1.015    0.015
       338  -8.9438    189.4241     28.8061   3.9777909710e+01   3.4442361178e+01    0.2123173    0.1350175  67.64  0.000537826    1.442    0.307
       339  -9.1677    124.6718     29.4061   5.0327036843e+01   4.9824254966e+01     0.393345    0.1164924  59.25  0.001392428    2.957    0.662
       340 -10.1461    223.1261     26.2723   3.5667716908e+01   2.7187487234e+01    0.3652716    0.2583195  37.59  0.001605077    2.243    0.554
       341  -9.3609    163.4758    226.5450   8.8989173325e+01   3.5568170285e+00     0.205665    0.1316577 -46.66 0.0007827667    1.744    0.427
       342  -8.9250    223.9717    225.0545   7.6797688104e+01  -5.3253818837e+00    0.1861791    0.1518908   3.67 0.0006167979    1.028    0.028
       343  -8.0901    143.3389    225.7200   9.3168176712e+01   6.9547770354e+00    0.1345866   0.09739089  59.25 0.0003344589    1.621    0.383
       344  -9.2990    154.6284     32.0539   4.5546110337e+01   4.2350537428e+01     0.258477    0.1770472  58.37  0.001379279    1.332    0.249
       345  -8.2250     68.3010     27.0305   6.5072471821e+01   6.2067804514e+01    0.1994952   0.09688833 -10.12 0.0007033414    4.157    0.759
       346  -9.2602    241.5513     25.4955   3.3940232153e+01   2.3451758644e+01    0.2164353    0.1656308 -70.55 0.0007981952    1.034    0.033
       347  -8.9499    100.9841     26.0451   5.4707812959e+01   5.5597606254e+01    0.2013028    0.1728376  34.88  0.000781573    1.073    0.068
       348  -8.8923     45.9698     25.6467   7.3288444296e+01   6.5940187696e+01    0.4164637    0.2703623  28.04  0.002472495    1.415    0.293
       349 -10.2972     41.1440     21.7584   7.3722278191e+01   6.7178180159e+01    0.2703505     0.227818 -37.89 0.0004134581    1.483    0.326
       350 -11.0913      2.0755     25.0875   9.5118093749e+01   7.0732617572e+01    0.2400828    0.1554172 -46.76 0.0005005067    1.389    0.280
       351 -10.1671     62.0966     23.4071   6.5825440309e+01   6.3635292451e+01    0.5243303     0.257246  32.66  0.002450598    2.014    0.503
       352  -8.5087    131.9733    225.2731   9.5583728485e+01   8.8770353586e+00    0.1730387    0.1063156  37.70 0.0004153768    1.437    0.304
       353  -8.7149    196.5732    222.2359   8.1522904138e+01  -9.0063073144e-01     0.180294    0.1123483 -26.48 0.0009467976    1.704    0.413
       354  -9.9198    232.6623     23.7411   3.4310294324e+01   2.5482272771e+01    0.3838306    0.1857592 -87.81  0.001904162    2.252    0.556
       355  -8.5888    188.5164     22.9715   3.8457043338e+01   3.5343116228e+01    0.1756181    0.1243544 -36.20 0.0004626481    1.526    0.345
       356  -8.8438    153.6958     23.0803   4.3128503085e+01   4.3617959004e+01    0.2356632    0.1434294  54.03 0.0006266702    1.532    0.347
       357  -9.1295    124.9466     23.3978   4.8303895090e+01   5.0443103488e+01     0.190273    0.1386039  60.26 0.0003328584    1.209    0.173
       358 -12.0221    117.0822     22.1731   4.9534599186e+01   5.2405655495e+01    0.2769378    0.2250906  30.99 0.0004178403    1.276    0.216
       359  -9.5836     84.4795     20.8698   5.7311657187e+01   5.9680613690e+01    0.3468515    0.2235541 -50.19 0.0008705449    2.162    0.538
       360  -8.8818     79.8290     22.2285   5.9267124824e+01   6.0462368111e+01    0.2075851    0.1679127 -39.15  0.001272936    1.467    0.318
       361  -8.5375    130.4876    221.4667   9.5361661356e+01   9.8617451967e+00    0.1359375    0.1217138  35.29 2.918114e-05    1.029    0.029
       362  -9.2000     88.7542    220.9815   1.0465588733e+02   1.6496211129e+01     0.227138    0.1783069  40.55 0.0006416613    1.184    0.156
       363  -8.0624    203.2494    217.6734   7.9435593408e+01  -1.1709883514e+00    0.1103971     0.104062 -80.30 0.0001996989    1.542    0.352
       364  -8.6237    242.5732    209.7768   7.0841368226e+01  -5.5936075957e+00    0.1611965    0.1053228 -41.83  0.000912479    1.644    0.392
       365  -7.9579    145.6058    210.2905   9.0268052418e+01   9.5651961730e+00    0.1450445    0.1028917  62.57 0.0007004174    1.780    0.438
       366 -10.2300    165.3117     20.6974   4.0779675869e+01   4.1090336764e+01    0.2668312    0.1989546  89.49 0.0002500953    1.259    0.206
       367  -8.8336    231.0392    209.1790   7.2751234408e+01  -3.9099896868e+00    0.1902653    0.1415999  -3.20  0.000479185    1.245    0.197
       368  -7.9720     95.4523     21.4267   5.4448471614e+01   5.7318181361e+01    0.2158109    0.1495161 -59.16  0.001125013    2.083    0.520
       369  -8.5254    123.8713    206.1093   9.4557160514e+01   1.4099729237e+01     0.175215    0.1586405  -4.56            0    1.259    0.206
       370  -8.7334     36.1320     20.0732   7.5272609435e+01   6.8102542241e+01    0.1905651    0.1350236  -6.74  0.001208602    1.291    0.225
       371  -8.6696    225.7251     16.3393   3.3359771601e+01   2.7805473306e+01    0.2097138    0.1421373 -40.69 0.0009104947    1.481    0.325
       372  -9.1968     35.1623    200.9396   1.1474720068e+02   2.8013728951e+01    0.2071892    0.1446329  69.58 0.0009151835    1.279    0.218
       373  -9.2918    144.5035     17.6697   4.2996059240e+01   4.6403464220e+01    0.3455115    0.2249132  30.42  0.001776397    1.992    0.498
       374  -8.5208    152.0417     17.9721   4.1918101604e+01   4.4564557713e+01      0.15061    0.1403929 -85.95 0.0004039452    1.101    0.092
       375  -9.7106    131.8901     21.3415   4.6298033066e+01   4.9027485258e+01    0.2419748    0.2236161  47.65 0.0008510799    1.109    0.098
       376  -8.4034    120.4112    199.5044   9.4332719819e+01   1.6103291760e+01    0.1421181    0.1302298  59.46  0.000180315    1.065    0.061
       377  -8.5312      6.5050    194.5396   1.2067308722e+02   3.2322105384e+01    0.1196036    0.0978614  87.23 0.0008081129    1.079    0.073
       378  -8.5441    241.9594    193.7638   6.8044451499e+01  -3.0660187071e+00    0.1490828   0.09955972  30.66 0.0004577928    1.565    0.361
       379 -10.5369     43.0068     15.4405   7.0033247801e+01   6.7732369595e+01     0.314615    0.1823811  35.90  0.001830871    1.580    0.367
       380  -8.7103     55.4039    181.2575   1.0779743869e+02   3.0253019297e+01    0.1833949    0.1209809 -84.64 0.0003460988    1.515    0.340
       381  -8.7615     72.2318     15.2180   5.8805627953e+01   6.2726581941e+01    0.1480998    0.1445053 -88.17 0.0005121095    1.357    0.263
       382  -8.5885    154.5745     14.5252   4.0569263168e+01   4.4310542347e+01    0.1292965    0.1117902  78.28  9.66373e-05    1.011    0.010
       383 -10.6545    101.0077    176.0029   9.5271376972e+01   2.4765572158e+01    0.2070281    0.1962176  71.09            0    1.003    0.003
       384  -9.4349     18.6057    174.1262   1.1626935632e+02   3.6009662160e+01    0.2152947    0.1902479  16.60 0.0009786754    1.441    0.306
       385  -9.6158      7.0996    174.4733   1.1909587217e+02   3.6921055835e+01    0.1702373    0.1181927  32.73  0.001037983    1.610    0.379
       386  -8.4769     11.4925    172.5216   1.1787550869e+02   3.7019430935e+01    0.1254608    0.1037607 -87.19 0.0008098622    1.043    0.042
       387 -10.3583      7.2930    166.1912   1.1838065761e+02   3.8873018765e+01    0.2293754     0.206625 -45.79  0.000740395    1.352    0.261
       388 -11.1277     12.4872    164.9420   1.1696819668e+02   3.8752365194e+01    0.3828768    0.2794296  70.79  0.001865537    1.271    0.213
       389  -8.4632     84.6935     14.2847   5.4631371816e+01   6.0336621671e+01    0.1142898     0.098336 -85.14 0.0003775541    1.565    0.361
       390 -11.7005     36.1014    158.6666   1.1007739982e+02   3.8070193392e+01    0.7161909    0.3003708  43.68  0.003091513    2.400    0.583
       391 -12.2444     30.6752    154.7622   1.1108500919e+02   3.9594493564e+01     1.109985    0.5476869  60.13  0.004866004    2.419    0.587
       392 -10.2946     24.0465    162.9689   1.1379496005e+02   3.8209521917e+01    0.3395098    0.2028406  12.20  0.001648797    2.321    0.569
       393  -9.6459     20.9707    160.4843   1.1434307321e+02   3.9100532173e+01    0.2353335    0.2070003 -82.77 0.0004587656    1.067    0.063
       394 -10.4177      1.9988    154.8665   1.1876667067e+02   4.1979381006e+01    0.4566639    0.1491992 -73.90  0.001952332    2.443    0.591
       395  -9.5851    249.0306    153.6819   5.9209233349e+01   2.3628859128e+00    0.1747802    0.1571608 -16.07 0.0005382851    1.099    0.090
       396  -9.1313     45.9260    151.3684   1.0636345615e+02   3.8807902938e+01    0.2197298    0.1716879 -83.26 0.0004582177    1.204    0.169
       397  -9.9507     19.9752    151.3062   1.1362456493e+02   4.1441749169e+01    0.3361639    0.1731163 -49.67  0.001287048    1.997    0.499
       398  -8.2824     75.0069     12.4847   5.6770970297e+01   6.2470890270e+01    0.1879905    0.1529516  65.90  0.001177323    1.476    0.322
       399 -11.1589     11.9955    150.8539   1.1574990811e+02   4.2210357715e+01     0.542821    0.2830983  12.19  0.002658289    2.643    0.622
       400  -9.1023      8.6601    147.6826   1.1633621493e+02   4.3236735928e+01    0.2354034    0.1489959 -35.01 0.0008650563    1.988    0.497
       401 -10.2343      4.2067    146.2331   1.1740497301e+02   4.3906465728e+01    0.3951336    0.2060601  65.25  0.001976688    2.101    0.524
       402  -9.0430     35.8167    149.1320   1.0892886333e+02   4.0476136655e+01    0.1823356    0.1420162 -52.29 0.0002326215    1.289    0.224
       403  -8.8611     22.7107    138.6971   1.1134493891e+02   4.4320922531e+01    0.2106991    0.1657549 -56.64 0.0005322834    1.201    0.167
       404 -10.2873     13.9807    144.2841   1.1451076527e+02   4.3662186190e+01    0.4128694    0.2446442 -35.14  0.002118187    2.138    0.532
       405 -10.5500     19.1125    140.7726   1.1264808387e+02   4.4112592304e+01    0.4493266    0.2072834  36.27  0.002143452    2.273    0.560
       406 -10.3338      2.0994    139.8926   1.1737343496e+02   4.5580557705e+01    0.4770135    0.2056583 -77.13  0.001711558    1.945    0.486
       407 -10.9646      2.3409    131.4598   1.1644787418e+02   4.7603524782e+01    0.7983807    0.2331083 -69.42  0.003277767    2.567    0.610
       408 -11.0103      7.2362    124.3183   1.1417979035e+02   4.9021700754e+01    0.5528163    0.2718506 -42.48  0.001695503    2.146    0.534
       409 -10.4880     10.0199    130.0414   1.1402708375e+02   4.7441937932e+01    0.4566816    0.2267092 -56.13  0.001242938    1.726    0.420
       410  -9.3773     13.1226    127.1724   1.1273851554e+02   4.7921523225e+01    0.2220405    0.1620401 -83.21 0.0007360505    1.243    0.196
       411  -8.4878     68.4650    140.2845   9.7959266703e+01   3.8691169790e+01    0.2095962    0.1357776 -77.72 0.0009417492    1.737    0.424
       412  -9.7202     41.6135    139.0012   1.0578230240e+02   4.2397240787e+01    0.2533005    0.1948094  46.18 0.0008171087    1.381    0.276
       413  -9.1655    230.7092    137.0020   5.8700706033e+01   8.3103479923e+00    0.1911426    0.1617023 -34.62 0.0007635015    1.051    0.049
       414  -9.1858     75.0063    136.2222   9.5226527912e+01   3.8745792713e+01    0.2618408    0.1888742 -37.03 0.0005614234    1.545    0.353
       415  -8.9529    236.0117    136.5280   5.7758490134e+01   7.4491593757e+00    0.1826601     0.134305  47.95  0.000609007    1.562    0.360
       416  -8.2278     83.2839    135.6861   9.2645849087e+01   3.7585193433e+01    0.1500104    0.1146088  78.01 0.0002642719    1.577    0.366
       417  -7.8617     58.6464    135.6781   1.0007585983e+02   4.1189640614e+01    0.1499335    0.1046914 -30.54 0.0007047069    1.755    0.430
       418  -8.6484     49.7421    135.0675   1.0268631018e+02   4.2455857281e+01    0.1935608     0.162141 -66.26  0.001087248    1.085    0.078
       419  -9.3841     15.8319    135.3764   1.1294869879e+02   4.5705888585e+01    0.1605369    0.1228872  -7.23 0.0009406465    1.684    0.406
       420  -8.7061    248.6362    134.1664   5.5367977311e+01   5.6788466185e+00    0.1876663    0.1065096 -31.86 0.0004760443    1.662    0.398
       421 -10.8716     43.7815    130.6634   1.0377904225e+02   4.4246096185e+01    0.5796596    0.3693663 -27.97  0.002090586    2.048    0.512
       422 -10.6388     28.6833    132.1106   1.0866186628e+02   4.5421574904e+01     0.220441    0.2042892  87.74 0.0003006601    1.096    0.087
       423  -9.6252     61.9398    130.9414   9.8184733668e+01   4.1937221747e+01    0.2137927     0.196991 -71.19 0.0003373085    1.025    0.024
       424  -8.3429     20.4573    131.4515   1.1106930395e+02   4.6302594882e+01    0.1311472    0.1118314 -71.78  0.000370451    1.008    0.008
       425 -10.5580     88.5575    127.9290   8.9408621583e+01   3.8619113731e+01    0.2558444    0.2365844  40.66 0.0002261558    1.114    0.103
       426 -10.4783     34.6968    128.3218   1.0622958220e+02   4.5787192514e+01    0.3837692    0.1751518 -77.59  0.001192186    2.495    0.599
       427  -9.9837     32.5118    122.5101   1.0598411592e+02   4.7440923893e+01    0.4253899    0.2402525  75.78  0.001829688    2.570    0.611
       428  -9.0251     55.8115    125.8207   9.9124878125e+01   4.4018137614e+01    0.2206469    0.1844701 -46.30 0.0009411284    1.167    0.143
       429  -9.2993     59.6534    124.9907   9.7744143550e+01   4.3724338768e+01    0.2119563    0.1713544 -63.06   0.00100257    1.155    0.134
       430  -9.0397    241.1243    123.8778   5.4356865708e+01   8.7155554799e+00    0.2114881     0.165717 -56.13 0.0009123484    1.275    0.216
       431  -9.6735     38.9024    123.1174   1.0403466004e+02   4.6650451969e+01    0.2605754    0.2187482  -7.43 0.0008897191    1.403    0.287
       432  -9.9270    131.0420    122.9857   7.6218723588e+01   3.1636464392e+01    0.2240928    0.2224048  89.24 -0.002661949    1.005    0.005
       433  -8.6558     71.9484    123.5237   9.3554436902e+01   4.2350890057e+01    0.2063279    0.1449124  35.16 0.0003703956    1.493    0.330
       434  -9.2400    221.0145    121.5037   5.6953799461e+01   1.2882470053e+01    0.2141536    0.1689935 -41.42 0.0003516511    1.140    0.122
       435 -11.3688     21.1854    119.6381   1.0917111848e+02   4.9147488807e+01    0.6886614    0.3973671  53.79  0.003432984    2.085    0.520
       436 -10.5578     12.7851    113.5490   1.1099765794e+02   5.1256738435e+01    0.4260718     0.249586   7.01   0.00149199    2.176    0.540
