#   1 NUMBER                 Running object number                                     
#   2 MAG_AUTO               Kron-like elliptical aperture magnitude                    [mag]
#   3 X_IMAGE                Object position along x                                    [pixel]
#   4 Y_IMAGE                Object position along y                                    [pixel]
#   5 X_WORLD                Barycenter position along world x axis                     [deg]
#   6 Y_WORLD                Barycenter position along world y axis                     [deg]
#   7 A_WORLD                Profile RMS along major axis (world units)                 [deg]
#   8 B_WORLD                Profile RMS along minor axis (world units)                 [deg]
#   9 THETA_WORLD            Position angle (CCW/world-x)                               [deg]
#  10 FWHM_WORLD             FWHM assuming a gaussian core                              [deg]
#  11 ELONGATION             A_IMAGE/B_IMAGE                                           
#  12 ELLIPTICITY            1 - B_IMAGE/A_IMAGE                                       
         1 -14.6701    214.9571      6.5866   4.0058750008e+01   2.9102201003e+01     2.647839     1.475509  59.70   0.01069779    1.839    0.456
         2 -15.0273    191.7525     35.5587   5.1924824357e+01   3.2150800389e+01     2.848629     1.542731  23.14   0.01048998    2.653    0.623
         3 -13.3886    176.6878     50.1917   5.9075693749e+01   3.4165941685e+01    0.7976485    0.7230709  17.15 0.0008542231    1.124    0.111
         4 -12.3841    247.6441    248.2484   8.8195050542e+01  -1.9412344446e+00    0.5381345    0.2582188  28.06  0.004002358    1.457    0.314
         5 -17.7298     39.0138    246.0715   1.1936106163e+02   2.4263068873e+01     7.370976      4.34754  29.03   0.05635876    2.193    0.544
         6 -19.2434     12.3465    101.5974   1.1681829561e+02   5.2911350028e+01     15.81727     1.984469 -77.80   0.04312677    7.097    0.859
         7  -9.9952     48.3165    217.2956   1.1659802455e+02   2.7383498007e+01    0.2005183     0.087723  45.78  0.001343676    1.605    0.377
         8  -9.6363     51.4368    215.4618   1.1596833062e+02   2.7322069244e+01    0.1379127    0.1048284  75.78 0.0005920465    1.223    0.182
         9 -12.2386     55.0339    211.8715   1.1514444950e+02   2.7472906508e+01    0.4338954    0.1438402  58.31  0.002247954    2.682    0.627
        10 -10.0959     49.3309    206.0864   1.1581376428e+02   2.9009044601e+01    0.1365112   0.09552868  73.37 0.0005344668    1.203    0.169
        11  99.0000     40.0761    212.4425   1.1776395715e+02   2.9000147155e+01    0.3299375    0.1489712  50.37  0.001729145    1.534    0.348
        12  -9.7275     43.3081    209.6921   1.1706796458e+02   2.9089459963e+01    0.2827624   0.07998484  60.67  0.001344826    3.470    0.712
        13 -11.1435     30.8657    210.7977   1.1927113600e+02   3.0193936419e+01     0.142235   0.07607341  54.15 0.0004566865    1.293    0.226
        14 -11.2559    143.0315    209.4641   9.9514027889e+01   1.6228958924e+01    0.1515135    0.1341938  46.72     0.000517    1.168    0.143
        15 -12.2958     70.1794    206.8838   1.1214902500e+02   2.6485029964e+01    0.4690817    0.2286935  29.01  0.001966098    2.721    0.633
        16 -13.4209     58.4364    201.2687   1.1388251072e+02   2.8756527120e+01    0.4310451    0.2763438 -80.65  0.003201419    1.638    0.390
        17 -10.4986     33.6480    205.7046   1.1856287711e+02   3.0721774518e+01    0.1107575   0.09478885 -64.44 0.0007293497    1.719    0.418
        18 -10.1109     87.5293    202.8981   1.0870948402e+02   2.4928524885e+01    0.1829255    0.1327566  32.57 0.0008508822    1.542    0.351
        19 -11.7522    193.5821    195.7554   8.9181774695e+01   1.0131031625e+01    0.7277068    0.4400651 -63.80  0.003196133    5.372    0.814
        20 -11.9697    203.5650    199.3994   8.8099523768e+01   8.1899922365e+00    0.3941864    0.1826751  40.23  0.002276147    1.680    0.405
        21 -12.4050    151.9499    196.7434   9.6421670422e+01   1.6541481039e+01    0.3253657    0.2563556  55.68   0.00234168    1.257    0.204
        22 -10.1767    161.3116    200.0320   9.5213502224e+01   1.4669060279e+01    0.1446574    0.1281133  40.13 0.0004345016    1.148    0.129
        23 -10.2427     82.4147    195.1900   1.0899114581e+02   2.6804527617e+01    0.2461263    0.1509011  66.73  0.001636283    1.523    0.343
        24 -10.6473     44.6893    195.4630   1.1604169037e+02   3.1242079003e+01    0.1590558    0.1035647  60.22 0.0004049511    1.126    0.112
        25  -9.1885     78.3170    193.2411   1.0959401599e+02   2.7646928625e+01   0.09290075   0.07873252  29.87  0.000234833    1.513    0.339
        26  -9.2273     40.4837    193.4458   1.1670474921e+02   3.2028700463e+01    0.1052644   0.07403655  62.20 0.0002474133    1.023    0.022
        27 -12.2532    141.4574    189.5717   9.7382555383e+01   1.9157726983e+01    0.2601905    0.2222584 -61.85  0.001910074    1.459    0.314
        28 -10.7548     70.8715    178.1407   1.0972438764e+02   3.1154522782e+01    0.3010609    0.1754136  64.40   0.00110391    1.552    0.356
        29 -10.7129     73.6998    189.7176   1.1017381887e+02   2.8813541831e+01    0.1463434    0.1228821  51.26            0    1.215    0.177
        30 -12.9653     68.7815    186.4729   1.1085115380e+02   2.9973487271e+01    0.5538939    0.5033933  60.75  0.003047995    1.291    0.225
        31 -11.4708    153.6223    185.3097   9.4592081013e+01   1.7824265591e+01    0.2406095    0.1896321 -54.59   0.00125845    1.607    0.378
        32 -11.7393     99.3582    180.7917   1.0432649038e+02   2.6857044039e+01    0.2369478    0.1966657  37.21 0.0005958311    1.303    0.232
        33 -10.8576    204.5536    176.2072   8.4312427243e+01   1.0554314849e+01    0.2683618    0.2510929 -18.96  0.001104636    1.352    0.261
        34 -10.2168    197.2049    176.6447   8.5611135582e+01   1.1729991004e+01     0.235294    0.1763833  36.61  0.001025442    1.115    0.104
        35  -9.7812    188.5380    175.0463   8.6826975815e+01   1.3382145574e+01    0.1570145    0.1170385 -30.57 0.0004697594    1.555    0.357
        36  -9.9627     66.0423    174.1507   1.1034482348e+02   3.2468857397e+01    0.2299633    0.1936495 -19.16  0.001410636    2.043    0.511
        37  -9.8163     51.1416    172.8614   1.1327841468e+02   3.4473431284e+01    0.2243988    0.1114371  61.06  0.001019869    1.743    0.426
        38 -10.5967     43.3914    171.6774   1.1477435231e+02   3.5550920910e+01     0.476258    0.1437844  36.17  0.002316259    2.880    0.653
        39  -9.3406    168.9577    234.7420   9.8069347813e+01   9.6041434503e+00    0.1361757   0.09584782  38.76 0.0002898348    1.016    0.016
        40  -9.6290    185.6655    169.3058   8.6374204556e+01   1.4599099732e+01    0.1139825   0.09298501  68.88 0.0007039732    1.667    0.400
        41  -8.9864     32.1714    227.7050   1.1973628149e+02   2.7509727783e+01    0.1961974   0.05728829  48.67  0.001211601    2.073    0.518
        42 -10.2214    161.7783    166.2110   9.0202491811e+01   1.9170857693e+01    0.1789298    0.1539164  58.54 0.0006586974    1.236    0.191
        43 -10.2238     59.1899    163.6226   1.1083060816e+02   3.5246365568e+01    0.2482419    0.1353566  71.79  0.001027206    1.825    0.452
        44  -9.8714     51.8454    163.3245   1.1237007180e+02   3.6167342454e+01    0.1829385    0.1066152  55.02 0.0005930447    1.406    0.289
        45 -11.7594    133.9467    145.8458   9.2323342905e+01   2.7326400863e+01     1.000457    0.2842236 -55.29   0.00308282    5.576    0.821
        46 -10.5051    113.4350    151.1943   9.7577791862e+01   2.9867615979e+01    0.2858084    0.1902628  86.26  0.001160839    2.007    0.502
        47 -10.4647    174.5708    149.1768   8.4814527104e+01   1.9355848228e+01    0.2421573     0.165969  43.86 0.0006931425    1.298    0.230
        48 -11.2434    143.9789    146.4538   9.0338881543e+01   2.5424008302e+01    0.3663795    0.1864787 -56.75  0.001668262    2.572    0.611
        49 -10.0844     50.9283    225.6145   1.1658478593e+02   2.5869418975e+01    0.1356738   0.08474533  66.08  0.001087099    1.258    0.205
        50 -10.9621    107.5214    145.8522   9.8057273533e+01   3.1813946426e+01    0.2406563    0.1545914  57.86 0.0003345525    1.504    0.335
        51 -12.1708    107.7578    138.7433   9.6876323014e+01   3.3125493090e+01    0.5135731    0.3576488 -39.15  0.002819768    1.854    0.461
        52  -9.6305    113.4641    142.9483   9.6277151693e+01   3.1381689719e+01    0.1690646    0.1072483 -88.19 0.0006260791    2.315    0.568
        53 -12.5646     95.7504    138.5405   9.9610874908e+01   3.5090584586e+01    0.2748506    0.2317062  56.02 0.0004775579    1.087    0.080
        54 -11.5323    105.8793    131.0569   9.6017067187e+01   3.4934250612e+01    0.3855459    0.2938069 -59.05  0.001842515    1.367    0.268
        55 -10.5803    136.0000    129.0040   8.8761007502e+01   2.9948667818e+01    0.3686169    0.1624231 -49.59  0.001556285    2.477    0.596
        56 -11.2099    114.8444    129.6315   9.3666903258e+01   3.3680943753e+01      0.29581    0.2723581  -0.48 0.0007439923    1.359    0.264
        57 -10.1768    161.7646    128.7765   8.3267454567e+01   2.4984720076e+01    0.3673393    0.2410178  66.56  0.001747907    2.032    0.508
        58 -11.2877    102.4386    125.5055   9.5860366712e+01   3.6616928036e+01    0.2349512    0.2189256 -12.42 0.0005129714    1.373    0.272
        59 -11.0787    120.0050    123.4235   9.1285526322e+01   3.3964260719e+01    0.3995999    0.2772908  -6.88  0.001755626    2.861    0.650
        60  -9.8101    135.0000    119.9476   8.7126058950e+01   3.1804821031e+01    0.2155563    0.0787075 -46.17 0.0007947207    2.889    0.654
        61 -10.3802    110.0322    118.7608   9.2746901458e+01   3.6674324334e+01    0.2102825    0.1860782 -70.84 0.0003479126    1.133    0.117
        62 -10.2707    167.6620    112.6031   7.8472972428e+01   2.6436998468e+01    0.3390433    0.2521074 -81.09  0.001515971    2.076    0.518
        63 -10.3499    135.0000    112.0211   8.5390136057e+01   3.3289233241e+01       0.3727   0.07987593 -45.09  0.001042049    4.850    0.794
        64 -11.6780    119.0227    110.7758   8.8895012913e+01   3.6633051878e+01    0.5405048     0.328565  59.53   0.00251469    1.843    0.457
        65 -10.2279    205.5694    110.1381   7.0844364904e+01   1.8759694436e+01    0.2582501    0.1856534  38.93 0.0006594629    1.324    0.245
        66 -12.3308     54.0432     91.5106   1.0289619099e+02   5.1163876581e+01    0.4506936    0.3000268  59.76   0.00211516    1.568    0.362
        67 -11.7877     61.1462    234.1449   1.1536091044e+02   2.3539334011e+01    0.1615305    0.1119152  66.77 0.0004270888    1.199    0.166
        68  -9.9418     68.9496     71.9201   9.3798936768e+01   5.3627835365e+01    0.2006927    0.1786325 -76.12 0.0002885098    1.047    0.045
        69 -11.9567    161.8140     62.9769   6.5994068990e+01   3.6011835234e+01     0.565462    0.4203378  84.06 0.0008976386    1.740    0.425
        70  -9.6500     70.3201    247.9997   1.1465271372e+02   2.0671996208e+01    0.1120929   0.08445783  64.55 0.0004603123    1.207    0.172
        71 -11.1615    158.5963    235.6073   9.9782577753e+01   1.0945593123e+01    0.2114101    0.1209143  34.75  0.001333645    1.384    0.277
        72 -10.2587     61.8285    219.9743   1.1445304994e+02   2.5484240901e+01     0.135141    0.1027073  64.34 0.0006668928    1.123    0.109
        73 -11.4465    162.9539     56.1527   6.3560940439e+01   3.6800052537e+01    0.3176921    0.2831326 -85.46 0.0003896625    1.269    0.212
