#   1 NUMBER                 Running object number                                     
#   2 MAG_AUTO               Kron-like elliptical aperture magnitude                    [mag]
#   3 X_IMAGE                Object position along x                                    [pixel]
#   4 Y_IMAGE                Object position along y                                    [pixel]
#   5 X_WORLD                Barycenter position along world x axis                     [deg]
#   6 Y_WORLD                Barycenter position along world y axis                     [deg]
#   7 A_WORLD                Profile RMS along major axis (world units)                 [deg]
#   8 B_WORLD                Profile RMS along minor axis (world units)                 [deg]
#   9 THETA_WORLD            Position angle (CCW/world-x)                               [deg]
#  10 FWHM_WORLD             FWHM assuming a gaussian core                              [deg]
#  11 ELONGATION             A_IMAGE/B_IMAGE                                           
#  12 ELLIPTICITY            1 - B_IMAGE/A_IMAGE                                       
         1 -14.9449      4.3781     92.9591   1.2584134566e+02   5.5298094563e+01     2.029718    0.5563374 -75.59  0.008824924    2.817    0.645
         2 -14.8467      3.5380     24.6833   1.1447455216e+02   7.0135007692e+01     1.506046    0.4612264 -67.66   0.00658944    2.977    0.664
         3 -15.6818     15.3734      8.7784   1.0248482568e+02   7.2492111121e+01     1.693113     1.122255 -46.76   0.01021516    1.211    0.174
         4 -15.3184    198.7980     27.4052   5.4774728893e+01   3.1863006737e+01     1.457075    0.8767738 -25.82   0.00629387    1.669    0.401
         5 -15.3706    211.9675     26.2527   5.2757861887e+01   2.8548294920e+01     1.637471     1.007509 -26.22  0.007655655    1.608    0.378
         6 -13.2701    153.3931     27.7139   6.2202247255e+01   4.3933749546e+01    0.4843004     0.322934  47.70   0.00224141    1.454    0.312
         7 -13.8063    113.1406      9.1469   6.3510817884e+01   5.6290037212e+01    0.7832128    0.4842219  54.87  0.003802325    1.545    0.353
         8 -13.6335     44.0354      6.1874   8.6156879963e+01   6.9874246450e+01     0.401986    0.2971436  31.81  0.002137534    1.487    0.328
         9 -13.1097     39.3590      2.4490   8.6403948995e+01   7.1062670296e+01    0.3227201    0.2654913 -30.17  0.001684536    1.203    0.169
        10 -15.1539    165.0701    201.3097   1.0270048623e+02   1.1754240301e+01    0.9021258    0.6676441 -49.65  0.005748425    1.683    0.406
        11 -17.7905      5.6199    206.0994   1.3255493860e+02   3.2440753449e+01     5.614532     0.854591 -72.90   0.02457841    4.984    0.799
        12 -18.8804     32.6740    193.5425   1.2717609820e+02   3.2094483085e+01     5.977186     4.259464 -39.58    0.0297797    2.625    0.619
        13 -15.0593    177.7766    161.5859   9.3655367149e+01   1.5568477321e+01     1.003327    0.7195862 -52.23  0.005414436    1.691    0.409
        14 -16.1071    162.3046    176.5362   9.9383261015e+01   1.6062840312e+01     1.725091     1.297127  71.29  0.007289526    1.670    0.401
        15 -15.1780     82.8133    209.3348   1.1906098821e+02   2.3274262942e+01    0.9516761    0.8078544  81.40  0.004739779    1.203    0.169
        16 -15.0971    150.1240    188.3071   1.0363719387e+02   1.6330338823e+01     1.089513    0.5938742 -37.12  0.005441649    2.500    0.600
        17 -15.1159    107.6222    167.1613   1.0929529445e+02   2.7309462908e+01      1.37895    0.8024002  22.81  0.006090693    2.940    0.660
        18 -15.6444    137.0337    150.1742   1.0005793864e+02   2.5456488218e+01     1.636664    0.8355731 -52.66  0.007367492    2.152    0.535
        19 -14.9456    114.7419    156.1601   1.0606156891e+02   2.8285703961e+01    0.9800702    0.5615141 -37.44  0.004463965    2.588    0.614
        20 -13.9458    122.7291    156.7704   1.0438149435e+02   2.6783780480e+01    0.6509895    0.5203496 -75.34  0.002597445    1.355    0.262
        21 -14.7035    129.0584    153.7795   1.0246994308e+02   2.6234391340e+01     1.409526    0.5967465 -53.00  0.005902643    2.576    0.612
        22 -15.6060    163.4937    160.3910   9.6307148718e+01   1.8538823221e+01     1.429968      1.11158  30.72  0.007317319    1.281    0.220
        23 -14.0536     74.3569    131.2871   1.1174274233e+02   3.9819639032e+01     0.585136    0.3706535 -70.99  0.002840748    1.509    0.337
        24 -14.6281    139.2504    123.3158   9.4108753016e+01   3.0298467909e+01    0.7397545    0.6890931  12.08  0.004190852    1.193    0.162
        25 -13.8200     62.2808    114.0595   1.1216033745e+02   4.5264342197e+01    0.5845416    0.2145931 -67.31  0.002337215    2.711    0.631
        26 -14.0282    241.4879    114.0300   7.1825242373e+01   9.7413906030e+00    0.4805736    0.2554341 -19.09  0.002135797    2.017    0.504
        27 -14.5658    119.4870    105.5982   9.4879793908e+01   3.7906048415e+01     1.518391     0.965845 -50.37  0.007116544    1.568    0.362
        28 -12.3522      4.2038    113.1085   1.2774186657e+02   5.0891915202e+01    0.3986675    0.1808014  40.27  0.002332247    2.263    0.558
        29 -14.3715    146.4268    216.7861   1.0817925858e+02   1.2593478221e+01     1.974481    0.7684472  59.21  0.006257271    6.152    0.837
        30 -13.9732     47.8700    110.6743   1.1562106636e+02   4.7721391854e+01    0.4288701     0.232052  47.07  0.002266515    1.927    0.481
        31 -12.5704     75.7843    103.5657   1.0642033832e+02   4.5816562064e+01    0.4211531    0.3359555  69.23  0.002420894    1.323    0.244
        32 -15.2342    181.9023    173.6129   9.5057683417e+01   1.2884684226e+01     1.336077     1.105113 -14.77  0.007800526    1.375    0.273
        33 -13.4588    148.8756     87.7700   8.2828164429e+01   3.5209560548e+01    0.6854496     0.470687  56.81  0.003123283    1.519    0.342
        34 -15.5302    175.7891     73.5969   7.2799016686e+01   3.1233482614e+01     1.410843     1.353912  54.10  0.007110833    1.050    0.047
        35 -12.7627      9.0914     88.6425   1.2395645904e+02   5.5976874588e+01    0.2564546    0.1788768  80.06  0.001052034    1.348    0.258
        36 -12.5912    135.2087     71.4302   8.1315365396e+01   4.1454230187e+01    0.4372403    0.2744354  71.85  0.001725845    2.343    0.573
        37 -14.0218    212.2458     63.8352   6.3514548388e+01   2.3580136344e+01     1.440945    0.4234225 -40.66  0.004503212    3.320    0.699
        38 -14.2737    184.6286     46.7633   6.2941048468e+01   3.3101999832e+01    0.8065584    0.3546671 -34.49  0.003032161    2.174    0.540
        39 -12.4903      2.0028     47.0000   1.2028473312e+02   6.5517865618e+01    0.3688284    0.1587168 -71.26  0.001599828    1.835    0.455
        40 -13.2219     74.4277    218.1376   1.2130748855e+02   2.2905232244e+01     1.113154    0.3980607  57.56   0.00547959    2.667    0.625
        41 -14.8808     91.0470    195.7490   1.1619817027e+02   2.4497022098e+01    0.7202718    0.5574886  30.39  0.003669618    1.591    0.371
        42 -15.2758    129.8144    219.1470   1.1145297491e+02   1.4856189618e+01     1.086482    0.7456467 -69.54  0.007177875    1.858    0.462
        43 -16.2250    115.9988    201.9355   1.1205980415e+02   1.9710745277e+01     2.117446     1.517326 -52.52   0.01370928    1.730    0.422
        44 -15.3236     98.3395    209.7394   1.1622555147e+02   2.1044347715e+01     1.218788     1.074757 -48.32  0.009071359    1.593    0.372
        45 -13.6762    143.0517     30.1184   6.5183163384e+01   4.6300367743e+01    0.7488735    0.5844994 -69.53  0.003646542    1.576    0.365
        46 -12.0672    146.9533    225.3500   1.0910692855e+02   1.1303184103e+01     0.189193    0.1529854  16.14  0.001329093    1.553    0.356
        47 -12.9798     45.1773    220.4014   1.2654492229e+02   2.6049130568e+01     0.398055    0.2477033  79.88  0.001913235    1.370    0.270
