#   1 NUMBER                 Running object number                                     
#   2 MAG_AUTO               Kron-like elliptical aperture magnitude                    [mag]
#   3 X_IMAGE                Object position along x                                    [pixel]
#   4 Y_IMAGE                Object position along y                                    [pixel]
#   5 X_WORLD                Barycenter position along world x axis                     [deg]
#   6 Y_WORLD                Barycenter position along world y axis                     [deg]
#   7 A_WORLD                Profile RMS along major axis (world units)                 [deg]
#   8 B_WORLD                Profile RMS along minor axis (world units)                 [deg]
#   9 THETA_WORLD            Position angle (CCW/world-x)                               [deg]
#  10 FWHM_WORLD             FWHM assuming a gaussian core                              [deg]
#  11 ELONGATION             A_IMAGE/B_IMAGE                                           
#  12 ELLIPTICITY            1 - B_IMAGE/A_IMAGE                                       
         1 -11.5818     80.5100     23.3124   8.5498256535e+01   6.1454773300e+01    0.5703487    0.2926242  30.95 0.0001597051    2.145    0.534
         2  -9.3634     27.7502     21.8628   1.0929192408e+02   6.9289960087e+01     0.584794    0.2420017 -31.82  0.002445209    2.563    0.610
         3  -9.3683     63.7659     14.6015   8.7961838869e+01   6.5810534788e+01    0.5689219    0.2979283  11.92   0.00219948    3.178    0.685
         4  -9.5931    133.9772     13.6174   6.5984746272e+01   5.0331313901e+01    0.3442805    0.2312893  44.98 0.0003596844    1.363    0.266
         5  -9.8247     77.6618     13.0990   8.1604788099e+01   6.3464996366e+01    0.7043383    0.2373229  44.41  0.002671575    2.795    0.642
         6  -8.3726     97.0213     12.1623   7.4624326351e+01   5.9491555810e+01    0.2571346    0.1934121  11.17 0.0008381461    1.292    0.226
         7  -9.1344     31.8779      6.2898   9.9537602279e+01   7.1695155425e+01    0.3189357    0.2024878   4.06 0.0005053126    1.653    0.395
         8  -9.3805     32.6967     10.4593   1.0127118812e+02   7.0896096898e+01    0.5612778    0.2808506  -6.17 0.0008744948    3.411    0.707
         9  -9.1385     40.7417      6.3611   9.4633809692e+01   7.0582675702e+01    0.3996141    0.2259704 -12.19  0.001174269    2.029    0.507
        10  -9.3306     46.4771      6.3851   9.1650303888e+01   6.9776890221e+01    0.2926503    0.2021261  12.82  0.001181095    1.400    0.286
        11  -8.9137    125.2231     10.3510   6.6518872784e+01   5.2904429437e+01    0.2722672    0.1920717  30.84 0.0003307835    1.380    0.275
        12  -8.8204    130.1170      9.9096   6.5289558085e+01   5.1699884858e+01    0.2490374    0.2180507 -38.93 0.0003678825    1.279    0.218
        13  -8.4028    129.9776      6.2805   6.3833324901e+01   5.2081627020e+01    0.2452022     0.177787  36.39  0.001244336    1.294    0.227
        14  -8.6926     71.2316      9.0995   8.2007664055e+01   6.5232039772e+01    0.2773227    0.1626503  31.26   0.00133092    1.657    0.396
        15  -7.5158     65.2679      9.3479   8.4569525579e+01   6.6297103882e+01    0.1391308   0.09092891   3.57 0.0001632641    1.617    0.382
        16 -10.3568      7.5492      5.4183   1.1430907880e+02   7.3967670166e+01    0.5856209    0.2531453  -8.40  0.002779489    3.057    0.673
        17  -8.9761    119.2963      6.8156   6.6338569835e+01   5.4744381467e+01    0.2546294    0.2041369  33.28 0.0001709251    1.135    0.119
        18  -9.3322     76.3844      5.8120   7.8305896665e+01   6.4635421707e+01    0.4557817    0.2470064 -21.33  0.001393155    1.798    0.444
        19  -7.9262    100.5077      6.5251   7.0934201424e+01   5.9315552741e+01     0.143448    0.1239072  24.48 -1.969106e-06    1.005    0.005
        20  -8.8965     92.4916      5.2996   7.2668185819e+01   6.1271120692e+01    0.4365298    0.1978115  47.92  0.001890517    1.954    0.488
        21  -9.7087     84.8402      5.4476   7.5167349910e+01   6.2926703994e+01    0.2919868    0.2315134  -5.69  0.001667478    1.182    0.154
        22  -7.4170    179.7284      5.3229   5.5671977547e+01   3.9016410836e+01    0.1441683    0.1000199 -56.80 0.0004768902    1.573    0.364
        23  -8.9848    110.5627      3.0564   6.6709908556e+01   5.7256302172e+01    0.3814245    0.2139543 -35.19  0.001746513    1.975    0.494
        24  -8.0725    156.0455      7.2650   5.9597404938e+01   4.5139569325e+01    0.2006453    0.1716255  59.96  0.000388575    1.085    0.078
        25  -7.3790    153.3752      3.2749   5.8566893422e+01   4.6200095185e+01    0.1585692   0.09224098  41.14 0.0007003337    1.692    0.409
        26  -8.4066    143.1648      2.2843   5.9827988231e+01   4.8990062245e+01    0.2231848    0.1845274  13.35 0.0002626015    1.255    0.203
        27  -8.5874    134.0234      3.2854   6.1834496580e+01   5.1301421662e+01    0.2063874    0.1644835  55.73 0.0004074783    1.142    0.125
        28  -8.3483     56.3368      3.2571   8.5107952014e+01   6.8664342968e+01    0.2822531    0.1650784  33.67  0.001490785    1.642    0.391
        29  -7.7073     32.1514      1.8685   9.6890511205e+01   7.2376774524e+01    0.1707211    0.1190365  -7.49 0.0006927751    1.283    0.221
        30  -8.2640    105.3991      1.8426   6.7422140015e+01   5.8616841812e+01    0.3622619     0.172596  53.10   0.00116815    1.829    0.453
        31  -8.0227      2.8175      1.3792   1.1570320636e+02   7.4993997234e+01    0.1516436   0.08894396 -13.48 0.0005316326    1.683    0.406
        32  -9.1170     14.6976    105.2509   1.3298374726e+02   5.1458706454e+01    0.3412391    0.1661071 -33.76  0.001657182    2.842    0.648
        33 -10.4196    200.2613    250.0836   1.0951099123e+02   7.4634405490e-02    0.4044643     0.156567  37.52   0.00221163    1.896    0.473
        34  -9.9273    188.9915    249.5148   1.1137958626e+02   1.7121327226e+00    0.4148549   0.08148915  37.96  0.001585644    3.750    0.733
        35  -9.0123    247.1874    102.8533   7.3415956197e+01   1.0853710421e+01    0.3016382    0.1929009  76.36  0.001325252    2.956    0.662
        36  -7.6821     68.4804    104.0000   1.1605549191e+02   4.6642910081e+01    0.2920466   0.07841167  31.36 0.0009437333    4.008    0.750
        37  -7.5659     95.0061    103.0000   1.0762847804e+02   4.2926459488e+01     0.239852   0.08229111  37.07 0.0008101856    2.996    0.666
        38  -8.0777    129.6296     97.4049   9.6174804944e+01   3.7596260515e+01    0.2951367    0.2059195   4.12  0.001235607    2.043    0.510
        39  -9.1021    243.5322     97.3482   7.2633117851e+01   1.2324220222e+01    0.2341629    0.1286003  51.44  0.001099886    1.978    0.494
        40  -9.0150      8.0029     96.4814   1.3410338294e+02   5.3866820492e+01    0.2938397    0.1215591 -36.93 0.0009746916    3.161    0.684
        41  -9.6059     16.0702     94.6985   1.3135266420e+02   5.3820650437e+01      0.36482     0.206331 -81.62  0.001296381    1.567    0.362
        42  -8.9143     12.3151     93.8713   1.3245612360e+02   5.4234407762e+01    0.2844934    0.1468101 -60.65 0.0007170069    1.580    0.367
        43  -7.2483    150.6552     95.6840   9.0229749898e+01   3.3360173977e+01    0.1644362    0.1194878  10.42 0.0007048183    1.717    0.418
        44  -7.5823     83.3468     93.3375   1.0891546190e+02   4.6994579392e+01     0.151163    0.1077385 -20.26 0.0007047861    1.780    0.438
        45  -8.8720     43.9461     92.1731   1.2175294647e+02   5.2223073065e+01    0.3359299    0.2070381 -15.40  0.001627716    2.375    0.579
        46  -8.2262    110.3293     90.9156   9.9881548709e+01   4.2840274715e+01     0.273585    0.2093932   9.97  0.001128585    1.579    0.367
        47  -8.5089     96.6907     90.4095   1.0391475166e+02   4.5454935877e+01    0.4153796     0.252514  13.95  0.001638502    2.579    0.612
        48  -7.5277    139.2954     87.3215   9.0716870004e+01   3.7523837817e+01    0.1593672    0.1203381   4.66 0.0003308777    1.616    0.381
        49 -10.2713     37.5244     80.9948   1.2185865156e+02   5.5449492749e+01    0.6297109    0.3343514 -21.98  0.002787439    2.854    0.650
        50  -8.1926     20.5278     84.9606   1.2854901809e+02   5.5814226972e+01    0.1914658   0.06259367 -51.42 0.0008097538    2.552    0.608
        51  -7.7776     65.9836     84.2415   1.1247745135e+02   5.1569975701e+01    0.1875643    0.1726307 -46.67 0.0002261792    1.012    0.012
        52  -9.6088      7.4619     78.0257   1.3213433022e+02   5.8158750469e+01     0.518568    0.2001309 -39.65  0.002396178    2.834    0.647
        53  -7.8283    126.7823     83.4345   9.2946869865e+01   4.1036607472e+01    0.2262637    0.1418959  31.88 0.0009277021    1.745    0.427
        54  -8.7423     88.3432     78.9540   1.0341859971e+02   4.9411404375e+01    0.5305786    0.2928223  14.26  0.001881808    3.314    0.698
        55  -9.4846    232.6613     77.7724   6.9336821053e+01   1.7280766449e+01    0.2632518    0.2290937  -8.47 0.0004261276    1.076    0.071
        56  -8.0078    184.2954     78.0596   7.7637376703e+01   2.8520024626e+01    0.2159422    0.1966655 -14.27 0.0007302381    1.065    0.061
        57  -8.7064     48.8181     77.3679   1.1696923387e+02   5.5201879038e+01    0.3411181    0.1980329 -19.08  0.001511931    2.529    0.605
        58  -7.8749    105.3049     76.3346   9.7137307015e+01   4.6893360178e+01    0.1557721    0.1157694  -6.91 0.0007038939    1.666    0.400
        59  -8.0924     74.6038     74.2288   1.0678975831e+02   5.2636104072e+01    0.2539691    0.1843108 -23.96 0.0008833092    1.534    0.348
        60  -9.5612     28.9888     68.9904   1.2262651025e+02   5.8950409567e+01    0.5328682    0.1973614 -34.44  0.001962839    3.829    0.739
        61  -8.6029     23.4608     74.2440   1.2574420534e+02   5.8125035023e+01    0.3806854    0.1486155 -58.07  0.001189002    1.951    0.488
        62  -8.2667     23.7084     69.5626   1.2478360792e+02   5.9197101613e+01     0.316283    0.1772653  38.03  0.001096372    2.103    0.524
        63  -8.7397    237.0052     73.7414   6.7688575977e+01   1.6875422896e+01    0.1859948    0.1770405  16.91 0.0004027383    1.098    0.089
        64  -7.5248    129.3527     69.3003   8.7787547682e+01   4.3204407881e+01    0.1636162    0.1182166  12.86 0.0003523529    1.698    0.411
        65  -7.1125    116.4605     68.4716   9.1204899403e+01   4.6199914355e+01    0.1566224    0.1407211   0.68 0.0002423415    1.098    0.089
        66  -8.0494    105.6079     67.8910   9.4341423322e+01   4.8556862203e+01    0.3173837    0.1855407   8.94  0.001040342    3.548    0.718
        67  -8.5950     83.3809     64.8136   1.0078743361e+02   5.3287260223e+01    0.5333427    0.3124472  -5.94  0.001869247    3.500    0.714
        68  -7.3115    110.3132     66.6613   9.2463512537e+01   4.7843797438e+01    0.1497771    0.1234457 -79.73 0.0007046577    1.695    0.410
        69  -9.2134     19.3225     61.3270   1.2490354407e+02   6.1380920623e+01    0.4273345    0.1713206 -26.11  0.001691889    3.790    0.736
        70  -8.1421     24.8599     62.6215   1.2292301265e+02   6.0720740951e+01    0.1636037    0.1577493 -36.31   0.00080668    1.177    0.150
        71  -9.2166     27.7760     60.3731   1.2123215870e+02   6.1025150475e+01    0.2090266    0.1466026  36.80  0.001233307    1.704    0.413
        72  -8.4357     57.7969     62.3561   1.0960133780e+02   5.7580907567e+01    0.2850434    0.1815034  27.92  0.001205279    1.731    0.422
        73  -9.5016     62.7825     61.1877   1.0729873728e+02   5.7188569571e+01    0.6200653    0.3511843   9.36  0.001899184    2.691    0.628
        74  -9.5070     36.8784     59.1557   1.1716798765e+02   6.0552477423e+01     0.431812    0.1928961 -34.57  0.001843936    2.584    0.613
        75  -8.6659     97.4942     58.0575   9.3613700844e+01   5.2096668472e+01      0.61454    0.2993509 -18.19  0.001597348    5.651    0.823
        76  -8.1510    111.2585     58.6683   8.9421998640e+01   4.9172596564e+01    0.3111364    0.1717454  25.99  0.001161125    2.463    0.594
        77  -7.5471     88.4870     54.4771   9.5426379269e+01   5.4494289066e+01    0.1491286    0.1313949 -10.46 0.0001187117    1.070    0.066
        78 -10.0063     75.0633     50.0717   9.8766099145e+01   5.7686553122e+01    0.4288697    0.3042206 -17.92 0.0003486553    1.523    0.344
        79  -8.4355    118.3059     51.0594   8.4567652202e+01   4.8984447190e+01    0.2626743     0.204461  41.77 0.0006053018    1.264    0.209
        80  -9.5131     45.4818     48.8976   1.1052938673e+02   6.1964914998e+01    0.4157803    0.2542002 -21.21  0.001385288    1.915    0.478
        81  -7.9195    106.5418     48.7633   8.7261722339e+01   5.1973157853e+01    0.2883622    0.1803951  13.41  0.001153839    2.277    0.561
        82  -9.6106     12.2244     46.1803   1.2472348437e+02   6.5209206581e+01    0.4812567    0.2425923 -28.99  0.001938178    2.119    0.528
        83  -9.0981     55.7777     43.8005   1.0430908770e+02   6.1794959699e+01    0.4492821    0.2167878 -24.87  0.001686629    3.152    0.683
        84  -8.9083      2.7094     45.1726   1.2882849020e+02   6.5847211009e+01     0.311751    0.1130379 -55.08  0.001395187    1.913    0.477
        85  -9.1184      3.6529     40.0355   1.2734678401e+02   6.6952933580e+01     0.287492    0.1379645 -69.35  0.001548476    1.720    0.419
        86  -9.7751      6.4489     33.8072   1.2453011762e+02   6.8204177865e+01    0.3885148    0.2564851 -31.38  0.002077584    1.419    0.295
        87  -9.5549      1.8388     29.9434   1.2592010605e+02   6.9220859113e+01    0.5931404    0.1823985 -65.46  0.002687707    2.450    0.592
        88  -8.4542     92.1211     37.6078   8.7601958640e+01   5.6881558777e+01    0.4770546    0.3178014 -26.23  0.001210274    1.467    0.318
        89  -8.3515     81.3180     44.2884   9.4198085174e+01   5.7737530453e+01    0.2474072    0.1781702 -26.84 0.0005286568    1.324    0.245
        90 -10.7230     83.1995     40.0389   9.1799462441e+01   5.8174685972e+01    0.2720457    0.2342134   4.61 0.0002176321    1.095    0.087
        91  -8.9955     87.3522     38.2838   8.9564061187e+01   5.7702217320e+01    0.2799037    0.2237568   7.76 0.0008346937    1.252    0.201
        92  -7.8437    113.7453     42.2320   8.2554305472e+01   5.1488953040e+01     0.331342    0.1984743  13.89  0.001266351    2.483    0.597
        93  -9.2707     35.7590     38.0055   1.1132052278e+02   6.5275831582e+01    0.7518139    0.1597744 -47.01  0.002612719    3.436    0.709
        94  -8.7177     38.5052     35.5040   1.0911568846e+02   6.5519902157e+01    0.2282508    0.1829271 -24.26 0.0006278922    1.114    0.102
        95  -7.9437    123.7190     39.9991   7.8878517113e+01   4.9515267313e+01    0.3282832    0.1607614  31.26 0.0009352074    2.682    0.627
        96  -9.6992     67.8337     37.5472   9.6785802690e+01   6.1267799168e+01    0.4705139     0.350042 -36.78   0.00198659    1.243    0.195
        97  -7.8977    105.5945     36.9206   8.2898473073e+01   5.4158746528e+01    0.3289248    0.1628106  32.19  0.001239797    2.418    0.586
        98  -8.3860     73.6230     34.2158   9.3046768341e+01   6.0916406300e+01    0.3411481    0.2411223  11.97  0.001728969    1.548    0.354
        99  -9.3903     55.4737     35.1789   1.0111742744e+02   6.3546084652e+01    0.3601281    0.2521796   8.29  0.001137391    1.573    0.364
       100  -9.3721     19.2996     35.7025   1.1860968253e+02   6.7097082104e+01    0.2199468    0.1775197 -45.02 0.0005495033    1.027    0.026
       101  -9.0481     22.9813     35.5414   1.1672945294e+02   6.6876457488e+01    0.2484804    0.2034276  24.71  0.001527341    1.470    0.320
       102  -9.2720     21.9819     32.0783   1.1611898429e+02   6.7682155093e+01    0.3238535    0.2678238 -11.78  0.001377175    1.247    0.198
       103  -8.7073    226.5259     28.9984   5.7235391228e+01   2.4788032110e+01    0.3143973    0.2175749 -30.72   0.00166181    1.357    0.263
       104  -9.3083     41.8967     26.8823   1.0405415820e+02   6.6857317167e+01     0.355121    0.2404552 -48.74 0.0009177069    1.443    0.307
       105  -8.7375     62.2260     26.9137   9.4579074585e+01   6.4071337395e+01    0.2550063    0.1803939  17.24 0.0005993886    1.457    0.314
       106  -7.6451    110.5744     26.2959   7.6981760587e+01   5.4595402098e+01    0.2077803    0.1365739  -9.58 0.0009469837    1.666    0.400
       107  -7.8977    101.5416     25.9554   7.9522300504e+01   5.6697050507e+01     0.322532    0.1531374  24.21   0.00104708    3.541    0.718
       108 -10.0601    189.1976    245.9936   1.1089679886e+02   2.0699655986e+00    0.2500809    0.1692677  55.33  0.001582057    2.166    0.538
       109  -8.7549     69.8238     26.2134   9.1041161890e+01   6.2942124236e+01    0.1943576    0.1459468  -0.14 0.0004714144    1.325    0.245
       110  -9.4050    176.0350    248.2703   1.1348850375e+02   3.6845410175e+00    0.2860488    0.1729216  62.40   0.00145823    3.550    0.718
       111  -8.6580    144.7744     23.2462   6.7498805578e+01   4.6468178303e+01    0.2450609    0.2207602  16.31 0.0003488631    1.093    0.085
       112  -7.7745    199.5038     22.5476   5.8542005183e+01   3.2173222074e+01    0.1396848    0.1345528 -73.85 -2.505663e-06    1.030    0.029
       113  -7.9565    128.7809     22.4444   7.0669786694e+01   5.0666966232e+01    0.2162531    0.1246466  45.81 0.0008144699    1.604    0.376
       114  -8.6215     46.1848     20.7414   9.9184047076e+01   6.7461911599e+01    0.3296627    0.1739317 -48.56  0.001211181    2.006    0.502
       115  -8.1604     92.0371     21.0197   8.0358408267e+01   5.9450749348e+01    0.3295443    0.1621957  29.87  0.001295792    2.425    0.588
       116  -8.1333    140.4664     19.9837   6.7138605790e+01   4.7962509171e+01    0.2152362    0.1891104  48.37 0.0003102039    1.068    0.064
       117  -8.7601      9.2556     19.8146   1.1889041853e+02   7.1027410161e+01    0.3101015    0.1811036 -19.07  0.000992623    1.746    0.427
       118  -8.1909      5.3390     18.7113   1.2078441325e+02   7.1447801866e+01     0.201496      0.12445 -68.87 0.0006285138    1.637    0.389
       119  -7.5419    111.7965     19.4075   7.3681493110e+01   5.5200701449e+01    0.2003682    0.1236125  43.00 0.0002435977    1.499    0.333
       120  -9.2861    155.4786    248.8242   1.1718735412e+02   6.5335250259e+00     0.241416    0.1104464  46.99   0.00134504    1.962    0.490
       121  -8.6611    127.6386     16.8723   6.8674759964e+01   5.1601476855e+01    0.3103759    0.2007817  33.45 0.0003823292    1.542    0.351
       122  -8.1459    236.7514    247.9962   1.0312417172e+02  -4.6671611222e+00    0.1196972   0.08016296 -13.27 0.0003843366    1.552    0.356
       123  -8.2240    189.3020     15.9368   5.7820395079e+01   3.5498098842e+01    0.1971871    0.1849912 -12.20 0.0006014546    1.114    0.103
       124  -7.5126    105.2789    248.3182   1.2606427079e+02   1.3459367599e+01   0.09408844    0.0763994  16.26  0.000203767    1.577    0.366
       125  -7.7707    172.2233     14.0299   5.9515177864e+01   4.0190591508e+01    0.1824708    0.1200451 -19.33 0.0003800565    1.605    0.377
       126 -11.9780    243.7739    240.5973   1.0090788835e+02  -4.9172564822e+00    0.2347097    0.1678497  20.47  0.000486011    1.144    0.126
       127  -8.4489     88.4626     13.0184   7.7752171331e+01   6.1262849780e+01     0.275462    0.1661231  33.76 0.0007949921    1.590    0.371
       128  -7.6998     23.4937    243.5503   1.3971171105e+02   2.3425876483e+01   0.09551142    0.0681462  59.08 5.400895e-05    1.046    0.044
       129  -8.8850      8.8229    236.3067   1.4182585520e+02   2.5885001807e+01    0.1507348    0.1213414  72.28 0.0003180682    1.238    0.192
       130  -9.9860    188.2609    234.4095   1.0953337834e+02   3.5304472457e+00     0.263856    0.1827846 -42.20  0.001247881    1.983    0.496
       131  -7.6279      6.9849    222.5163   1.4169300375e+02   2.8283023587e+01     0.103037   0.08290525  -9.10 0.0005781209    2.312    0.568
       132 -10.0810    156.2660    218.4456   1.1333973091e+02   1.0458734082e+01    0.2091782    0.1718367  33.23 0.0002382327    1.050    0.047
       133  -6.9737     21.3145    209.3437   1.3867223401e+02   2.9294364597e+01   0.08912333   0.07519157 -52.44 0.0007047596    1.710    0.415
       134  -7.7386    157.8453    203.8782   1.1098957528e+02   1.2358956061e+01    0.1641148    0.1304342  50.01   0.00103088    1.309    0.236
       135  -7.0570    150.0000    193.0521   1.1097341242e+02   1.5350930317e+01    0.1751099    0.0750584 -47.50 0.0003693214    2.765    0.638
       136  -8.4769    175.9850    168.7827   1.0135199107e+02   1.4792628154e+01    0.2022523    0.1463259  -3.53 0.0008557243    1.608    0.378
       137  -8.7345    105.0160    160.6406   1.1605202836e+02   2.8695029635e+01    0.2060571    0.1876866 -57.86  0.000384683    1.183    0.154
       138  -8.7003    249.5627    157.9756   8.5329140968e+01   3.1950542821e+00    0.2302363    0.1663595  26.80 0.0004218692    1.265    0.210
       139  -8.2540    249.7095    152.9486   8.4263100412e+01   3.7993273658e+00    0.2091911    0.1621339  24.47 0.0007169957    1.209    0.173
       140 -10.1542    217.4296    151.1995   8.9523945481e+01   9.7799441344e+00    0.2470836    0.2148741  12.31 0.0002429775    1.081    0.075
       141  -9.2182     67.2006    144.6438   1.2318204831e+02   3.7470893122e+01    0.4155545    0.2678796  66.28  0.002051384    1.699    0.411
       142  -8.0423    104.0473    144.8421   1.1368302191e+02   3.2159901166e+01    0.2542014    0.1700026 -29.99 0.0007075554    2.027    0.507
       143  -8.7406    236.4737    133.0937   8.2153110364e+01   8.7767851486e+00    0.2309448     0.172369  23.71 0.0003249412    1.256    0.204
       144  -7.4080    193.7011    126.6845   8.8601305593e+01   1.8304040147e+01    0.1524317    0.1076268   9.19 0.0004297207    1.610    0.379
       145  -7.2681     85.3418    121.3051   1.1441891874e+02   4.0282221326e+01    0.1398978    0.1070965 -20.59  0.000222134    1.683    0.406
       146  -7.6393    120.0093    118.5198   1.0413147280e+02   3.5052059416e+01     0.226837    0.1428427  37.31  0.001022163    1.578    0.366
       147  -7.5499     99.9900    119.0000   1.0978045649e+02   3.8496881892e+01    0.2318365   0.08035585  37.14    0.0007962    2.899    0.655
       148  -8.1987      2.4260    109.8701   1.3697568931e+02   5.1100726651e+01    0.2166947    0.1057396 -45.55  0.001171957    2.281    0.562
       149  -8.4744    133.6705    106.9005   9.7620796988e+01   3.4803355380e+01    0.4106412    0.2576794 -32.81  0.001777496    1.734    0.423
       150  -7.6548    123.0015    107.6421   1.0068820444e+02   3.6799585735e+01    0.2595627    0.1237623  22.80 0.0007021826    4.733    0.789
       151  -8.0119    109.1782    106.7299   1.0435023770e+02   3.9618729369e+01    0.2930039    0.1816413  15.48  0.001161395    2.457    0.593
