#   1 NUMBER                 Running object number                                     
#   2 MAG_AUTO               Kron-like elliptical aperture magnitude                    [mag]
#   3 X_IMAGE                Object position along x                                    [pixel]
#   4 Y_IMAGE                Object position along y                                    [pixel]
#   5 X_WORLD                Barycenter position along world x axis                     [deg]
#   6 Y_WORLD                Barycenter position along world y axis                     [deg]
#   7 A_WORLD                Profile RMS along major axis (world units)                 [deg]
#   8 B_WORLD                Profile RMS along minor axis (world units)                 [deg]
#   9 THETA_WORLD            Position angle (CCW/world-x)                               [deg]
#  10 FWHM_WORLD             FWHM assuming a gaussian core                              [deg]
#  11 ELONGATION             A_IMAGE/B_IMAGE                                           
#  12 ELLIPTICITY            1 - B_IMAGE/A_IMAGE                                       
         1 -14.5429    217.9024      3.9564   4.2771052784e+01   2.8971283882e+01     2.985113     1.490305  50.98   0.01159288    2.266    0.559
         2 -14.0593    190.8755     36.4753   5.5032603609e+01   3.2284038474e+01     1.091443    0.8984368 -24.29   0.00368686    1.179    0.152
         3 -14.4029    196.7817     28.7217   5.1935022262e+01   3.1696775329e+01     1.410751     1.090239  41.74  0.001451931    1.414    0.293
         4 -11.9793     58.3993      3.2209   7.0966006716e+01   6.9193298591e+01    0.2965469    0.2693414  19.07   0.00185682    1.088    0.081
         5 -14.0408    178.0865     47.7165   6.0387335497e+01   3.4085482992e+01      1.98556     1.313467  25.47  0.008790432    1.912    0.477
         6  -9.7428     72.2685    230.4526   1.1860375907e+02   2.1341759790e+01    0.1404296   0.07223141  46.33 0.0003299738    1.414    0.293
         7 -16.8123     70.6410    147.3060   1.1103447871e+02   3.6824146519e+01     13.51418     5.935177  74.68   0.03723809    6.946    0.856
         8 -10.4821     48.9239    217.0840   1.2210696715e+02   2.6135144948e+01    0.2706907    0.1676069  22.60  0.001361941    2.074    0.518
         9 -11.4574     69.6446    208.8277   1.1752020036e+02   2.5129065457e+01    0.2285129    0.1386382  53.43 0.0003318232    1.323    0.244
        10 -10.7170     74.8813    206.9960   1.1633142417e+02   2.4793747834e+01    0.2717356    0.2494389  29.89  0.001434706    1.349    0.259
        11  -9.8502     43.8913    211.5515   1.2275102349e+02   2.7610842601e+01    0.2614208    0.1439892 -82.57  0.001195337    1.913    0.477
        12  -9.2227     61.3813    218.7538   1.1984279977e+02   2.4460211491e+01    0.1255132   0.09365962  83.80 0.0009439336    1.371    0.271
        13 -10.9135     59.0576    214.2559   1.1998659205e+02   2.5469788303e+01    0.3793682    0.3365125  10.86  0.001240551    1.608    0.378
        14 -12.0466     50.2936    208.1247   1.2129421432e+02   2.7501131775e+01    0.4318167    0.2581433  52.67  0.001978171    1.279    0.218
        15 -13.5554     57.8115    203.0328   1.1944915759e+02   2.7534221233e+01    0.4979454    0.3756318  63.87  0.001547318    1.103    0.093
        16 -11.2584     39.2273    211.7264   1.2366056075e+02   2.8073937246e+01    0.2436962    0.1365747  78.04  0.001621424    1.708    0.414
        17 -10.9814     33.1189    206.0731   1.2454935820e+02   2.9679977295e+01    0.1559996    0.1471245 -56.50  0.001301475    1.546    0.353
        18 -12.6683    200.0987    202.9635   9.2090793052e+01   7.2524365525e+00    0.6248876    0.2996108  15.80  0.002733605    3.450    0.710
        19 -16.7462     58.4266    248.1309   1.2211949469e+02   2.0306801712e+01     7.902827       2.4392  27.44   0.02827104    6.691    0.851
        20 -11.4277     96.2495    200.4954   1.1141586611e+02   2.3090829915e+01    0.3079827    0.2560296  18.37  0.001130151    1.463    0.317
        21 -12.8330    135.5728    199.6115   1.0344408343e+02   1.7527708951e+01    0.3344166    0.2719794  61.01  0.002232779    1.343    0.255
        22 -11.6285    192.9372    194.5199   9.2015157414e+01   9.3482027528e+00    0.7171692    0.4182051 -60.83  0.002899014    5.500    0.818
        23 -12.3073     33.4743    198.6288   1.2408487816e+02   3.0969010399e+01    0.2035183    0.1469338  43.75 0.0005299906    1.236    0.191
        24  -9.5533     87.4482    202.8525   1.1343555478e+02   2.3879715018e+01    0.1926401    0.1441759  -1.32  0.001173534    2.241    0.554
        25 -10.7753     80.6087    194.5897   1.1405055428e+02   2.6211146504e+01    0.3708263    0.1704673  44.02  0.001840057    1.733    0.423
        26 -10.8004     44.6950    195.4340   1.2160180927e+02   3.0370914062e+01    0.2001539      0.13095  57.98 0.0002530235    1.207    0.172
        27 -10.1182     39.7955    192.9666   1.2245838693e+02   3.1349510728e+01    0.2307259    0.1329097  43.50 0.0009849244    1.405    0.288
        28 -13.0848     67.6637    189.2588   1.1629242597e+02   2.8829822048e+01    0.7009341    0.6166931  51.25  0.005175936    1.161    0.139
        29 -10.8924     71.7723    179.1307   1.1443459051e+02   3.0211684468e+01    0.2628794    0.1755123  74.30 0.0007651777    1.525    0.344
        30 -12.6105    149.8234    188.9243   9.9170284971e+01   1.6934970744e+01    0.4231943    0.3276464 -85.66  0.001909725    2.004    0.501
        31 -19.4191     11.0859    136.6726   1.2556821726e+02   4.5525905187e+01     17.20154     1.882598 -80.06   0.04030991   10.026    0.900
        32 -10.1496     94.4141    250.2454   1.1607570417e+02   1.5860752803e+01    0.1817005      0.10133  40.44 0.0005660022    1.279    0.218
        33 -10.8650     59.8289    229.1289   1.2079461938e+02   2.2984193278e+01    0.1535094    0.1092513  61.46 0.0004239997    1.159    0.137
        34 -10.3868    155.1514    187.8969   9.7976131098e+01   1.6236782360e+01    0.1968887    0.1659504  32.38   0.00118668    1.013    0.013
        35 -10.0120     42.2796    229.6645   1.2401232975e+02   2.4809463503e+01    0.1077259   0.05312419  58.98 0.0007004195    1.614    0.380
        36 -12.1727     99.4161    180.7343   1.0851875342e+02   2.6097976325e+01    0.2625335    0.2230326 -89.08 0.0006011628    1.271    0.213
        37  -9.4552     65.3224    175.1256   1.1548469316e+02   3.1808049972e+01    0.1634856    0.1343017  72.27 0.0005369932    1.090    0.083
        38 -10.0287     51.1211    172.8975   1.1851017726e+02   3.3955974417e+01    0.2040085    0.1398444  47.45 0.0008550251    1.244    0.196
        39 -10.7890     44.0633    171.8885   1.2003871856e+02   3.4949863277e+01    0.5087572    0.1318454  37.72  0.002209796    2.897    0.655
        40  -2.7982     37.8773    222.4479   1.2446255972e+02   2.6423708785e+01    0.2972127     0.216353  76.10  0.002379778    1.261    0.207
        41 -10.4839    163.8281    169.7580   9.3346640231e+01   1.7549881928e+01    0.2053527    0.1964168 -87.66 0.0004569616    1.320    0.242
        42 -10.5610    203.5995    167.8116   8.5589769876e+01   1.1033217454e+01    0.5052257     0.209567  30.69  0.002162068    2.687    0.628
        43 -10.9157    229.9993    166.0089   8.0867580854e+01   6.9467354131e+00    0.1509023     0.120651   4.56  0.001010475    1.039    0.037
        44 -10.7694    192.9180    165.3098   8.7028650703e+01   1.3181353642e+01    0.2532163    0.2364696  -0.83  0.001033917    1.189    0.159
        45  -9.7114     43.8859    220.0982   1.2322617150e+02   2.6180019357e+01    0.1567617     0.122904 -67.73  0.001239362    1.629    0.386
        46 -10.9059    158.6026    161.8369   9.3003923196e+01   1.9714692787e+01    0.2513514    0.1860321   4.69  0.001191749    1.658    0.397
        47 -12.8940     95.6446    153.9658   1.0576195962e+02   3.1803222663e+01    0.6203924    0.5018238 -19.02  0.002294703    1.741    0.425
        48 -10.8813    188.7018    154.8219   8.5815090312e+01   1.5408362175e+01    0.4427438     0.224065  37.34  0.002129822    1.834    0.455
        49 -11.6789    133.8103    145.1107   9.5263855935e+01   2.7090743657e+01     1.068173    0.2961341 -53.98  0.003079322    5.472    0.817
        50 -10.3563    113.4596    151.4494   1.0111261715e+02   2.9435313787e+01    0.3051728    0.1898339  73.08  0.001373682    2.439    0.590
        51 -10.7247    174.3629    148.8383   8.7380797507e+01   1.8934982888e+01    0.2654119     0.237741  68.04  0.001033952    1.391    0.281
        52 -11.1407    143.8772    146.3771   9.3253297812e+01   2.5016688061e+01    0.4302604     0.205634 -53.85  0.001805199    2.622    0.619
        53 -12.0405    107.0667    139.7489   1.0063959830e+02   3.2852598488e+01    0.5532736    0.3422964 -32.12  0.002525014    2.370    0.578
        54 -12.5653     95.0773    139.6156   1.0363295751e+02   3.4853790474e+01    0.2963737    0.2679039  27.48 0.0004362146    1.228    0.186
        55 -11.3048    106.0563    130.8162   9.9244463482e+01   3.4876443025e+01    0.3934155     0.326535 -74.21   0.00216192    1.282    0.220
        56 -11.1420    102.1634    126.2008   9.9361799608e+01   3.6524390003e+01    0.2751072    0.2377212 -10.57 0.0009870483    1.470    0.320
        57 -11.2748    114.5144    130.2711   9.6994450035e+01   3.3496242917e+01     0.301173    0.2650825 -30.83 0.0007385676    1.293    0.227
        58 -10.9498    135.7204    127.5013   9.1267192238e+01   3.0073141215e+01    0.5158799    0.1246122 -49.46  0.001443409    4.942    0.798
        59 -11.1403    119.8839    123.8556   9.4327730289e+01   3.3821499021e+01    0.4192453    0.2701587 -14.65  0.001660242    2.992    0.666
        60  -9.3599    152.4023    119.8435   8.5738776859e+01   2.8172114004e+01    0.1958905     0.135831 -27.98 0.0005773508    1.614    0.380
        61  -9.7307    135.0000    119.9854   8.9774711006e+01   3.1668533627e+01    0.2289575   0.08202444 -45.23   0.00079597    2.898    0.655
        62 -10.2818    109.9662    119.0540   9.5844542095e+01   3.6655913968e+01      0.20708      0.19598  64.09  0.000321898    1.016    0.015
        63 -10.0399    167.9325    112.8298   8.0744557254e+01   2.6165177266e+01    0.3106005     0.225266 -89.37  0.001378929    2.323    0.570
        64 -10.2990    160.3465    127.2574   8.5704100579e+01   2.5235960563e+01    0.3855791     0.234718 -56.18  0.001430746    2.182    0.542
        65 -11.4260    118.8150    110.4481   9.1591487894e+01   3.6781708731e+01    0.5824979    0.3372453  58.97    0.0024493    2.110    0.526
        66 -10.1910    205.5797    110.1181   7.3052222914e+01   1.8696176898e+01    0.2542944    0.1885495  36.08 0.0006611159    1.341    0.254
        67 -11.7479     52.9705     90.6885   1.0700125912e+02   5.2134774114e+01    0.2893828    0.2664937 -82.31  0.001349068    1.028    0.027
        68 -11.0533     41.7609     91.8678   1.1111530916e+02   5.3174508795e+01     0.218745    0.1958711 -73.48 0.0004515949    1.051    0.048
        69 -10.1207    187.2900     87.0710   7.0359166742e+01   2.6094097878e+01     0.283661    0.2272963  65.90   0.00147098    1.422    0.297
        70 -11.7667    162.2045     63.2703   6.8104851021e+01   3.5796418008e+01    0.3875452    0.3088339 -78.89 0.0005208793    1.541    0.351
        71 -11.7290     62.7767    237.2054   1.2074904718e+02   2.1419220108e+01    0.1876759    0.1225983  57.28 0.0004688812    1.202    0.168
        72 -12.5763     48.8535    233.0991   1.2300535275e+02   2.3576990597e+01    0.2190155    0.1378915  65.46  0.000646735    1.347    0.257
        73 -11.0356     53.5984    231.2814   1.2205355084e+02   2.3343433972e+01       0.1831    0.1375831  73.68  0.000931159    1.265    0.209
        74 -10.2278     52.0353    227.0442   1.2209975949e+02   2.4179029717e+01    0.1785206   0.08730485  53.60  0.001157649    1.557    0.358
