#   1 NUMBER                 Running object number                                     
#   2 MAG_AUTO               Kron-like elliptical aperture magnitude                    [mag]
#   3 X_IMAGE                Object position along x                                    [pixel]
#   4 Y_IMAGE                Object position along y                                    [pixel]
#   5 X_WORLD                Barycenter position along world x axis                     [deg]
#   6 Y_WORLD                Barycenter position along world y axis                     [deg]
#   7 A_WORLD                Profile RMS along major axis (world units)                 [deg]
#   8 B_WORLD                Profile RMS along minor axis (world units)                 [deg]
#   9 THETA_WORLD            Position angle (CCW/world-x)                               [deg]
#  10 FWHM_WORLD             FWHM assuming a gaussian core                              [deg]
#  11 ELONGATION             A_IMAGE/B_IMAGE                                           
#  12 ELLIPTICITY            1 - B_IMAGE/A_IMAGE                                       
         1 -10.9615    172.1073     21.7535   2.1394619912e+01   3.8993327955e+01    0.4012818    0.2284496 -51.94  0.001691703    1.699    0.411
         2 -11.5254     31.1456     15.6035   5.8604792201e+01   7.3208301326e+01    0.3806607    0.1888009 -39.32  0.001750575    2.044    0.511
         3 -10.1097     55.0206     10.9752   4.2038383050e+01   6.9258486175e+01    0.2302798    0.1528797  23.78  0.001139028    1.664    0.399
         4 -11.7784     41.0857     10.0242   4.8559832321e+01   7.2296692981e+01    0.4515252     0.193701  54.92  0.001756377    2.866    0.651
         5  -9.5451    153.9884      9.5125   1.9524270610e+01   4.4543072083e+01    0.1864991    0.1217113  78.77 -7.574066e-05    1.446    0.308
         6 -10.6469     84.3550      8.4660   3.0513309963e+01   6.2517852460e+01    0.2191095    0.1336243 -21.52 0.0006400498    1.805    0.446
         7 -10.7184     92.9512      8.5303   2.8460620582e+01   6.0319197946e+01    0.2230891    0.1275139  67.18  0.001033995    1.602    0.376
         8 -12.4619     21.2717      4.9038   5.8796722091e+01   7.6547356216e+01    0.5763459    0.3357672  36.05  0.003022962    1.641    0.391
         9 -10.9965     88.5103      4.3517   2.7438576584e+01   6.1837653101e+01    0.2831161    0.2203086 -78.64 0.0007522939    1.437    0.304
        10 -11.1127    200.9970      3.7712   1.4278103856e+01   3.4179378337e+01    0.1545077   0.09189937  83.03 0.0006676237    1.676    0.403
        11  -9.9784    101.0230      2.5151   2.4035949504e+01   5.8751198624e+01    0.2175601    0.1233872  69.58  0.001026302    1.572    0.364
        12 -10.2215    116.1766    240.2250   8.0469150754e+01   1.2932863235e+01    0.1675471     0.126284  15.64 0.0003254766    1.101    0.092
        13 -10.3128    245.5154    250.0724   5.8159222564e+01  -1.9224711237e+00    0.1305081   0.07370515 -20.88 0.0005431229    1.499    0.333
        14  -9.7439     85.8101    250.6288   8.7912450548e+01   1.4681336372e+01     0.167706   0.07527895  34.21 0.0006736458    1.631    0.387
        15 -15.1214     13.1840    190.5332   1.0120711513e+02   3.2882022896e+01     3.212918      1.77054  49.57   0.01811167    1.536    0.349
        16 -14.2745     87.9747    206.9636   8.3323496678e+01   2.1933316078e+01       1.1095    0.7623312 -58.31  0.003573096    1.726    0.421
        17 -16.8294     68.1299    194.3557   8.7008030978e+01   2.6782470356e+01      3.73295     3.213427 -39.65   0.02374796    1.347    0.257
        18  -9.7756     95.6435    225.3181   8.3451452058e+01   1.7718258693e+01    0.1880449    0.1164993  48.98 0.0007375727    1.718    0.418
        19 -11.4963    125.1471    221.6111   7.6400465978e+01   1.4773597475e+01    0.2471339    0.1959542  21.19 0.0003479578    1.030    0.029
        20 -10.0750    159.8484    221.9114   6.9119792061e+01   1.0429201052e+01    0.1880821    0.1279145   4.41 0.0005545652    1.321    0.243
        21 -10.1530     89.9465    221.7125   8.4400262173e+01   1.9008266201e+01    0.2142469    0.1424053  17.98 0.0004096596    1.358    0.264
        22 -10.2557     93.1921    218.9192   8.3356860584e+01   1.9120702277e+01    0.1965889    0.1573028  29.72 0.0007542453    1.038    0.037
        23 -11.2919     77.0174    219.9638   8.7267156871e+01   2.0799583980e+01    0.3071868    0.2123695 -27.52  0.001074659    1.869    0.465
        24 -11.1872    223.2866    220.3930   5.7371505354e+01   3.2917623769e+00    0.1921225    0.1457917  -3.77 0.0006056821    1.169    0.145
        25 -11.2010    173.6846    219.9505   6.6111441839e+01   9.0153711911e+00    0.2425092    0.1754165 -33.08  0.001315298    1.538    0.350
        26 -10.8797    212.3840    223.4670   5.9630004455e+01   4.1086715043e+00    0.2874374    0.1515456 -18.97  0.001235767    1.770    0.435
        27 -10.6196    110.4212    214.3641   7.8835524320e+01   1.7818448287e+01    0.3143232    0.1861716 -17.26 0.0005448333    2.415    0.586
        28  -9.4764    150.6362    221.7143   7.0971624699e+01   1.1593200537e+01    0.1258354   0.07790309   2.39 0.0007020998    1.690    0.408
        29 -10.8538    125.1185    212.8943   7.5300043997e+01   1.6204976610e+01     0.315638    0.1552219 -37.89  0.001227077    2.405    0.584
        30 -10.0824    184.4725    213.5065   6.3102397077e+01   8.5784187869e+00    0.1195598   0.08993211   5.42 -3.472351e-06    1.017    0.017
        31 -10.5197    135.6845    212.2885   7.2872288835e+01   1.4943890451e+01      0.26387    0.1689876 -41.99  0.001548023    1.771    0.435
        32 -10.7905    210.1454    211.8588   5.8250598437e+01   5.7481210604e+00    0.1614868    0.1331938   2.79 0.0006893544    1.274    0.215
        33 -11.3420    141.4223    211.0116   7.1445169623e+01   1.4405306411e+01    0.2755193    0.1873975  39.69 0.0003880616    1.524    0.344
        34 -10.2416    227.6950    211.0663   5.5237372788e+01   3.8835888595e+00     0.177671    0.1124548  -2.96 0.0008131915    1.267    0.211
        35 -10.7565    229.4384    207.3862   5.4384799992e+01   4.1177417547e+00    0.2246618    0.1487857 -25.73  0.001603295    1.413    0.292
        36 -11.1372    154.5188    209.9105   6.8502386179e+01   1.2875606115e+01     0.383268    0.2096879  11.58  0.001630329    1.991    0.498
        37 -10.5067    160.2655    206.5568   6.6812703006e+01   1.2636838473e+01    0.2076892    0.1626333 -27.14  0.001196559    1.343    0.255
        38  -9.8962    248.0169    206.0169   5.1354964003e+01   2.3032671948e+00    0.1574449    0.1364409 -71.96 0.0009605566    4.146    0.759
        39 -10.3408    224.0499    205.4825   5.4941930270e+01   4.9380000664e+00    0.1590054   0.09136751  25.67  0.001030678    1.586    0.370
        40 -12.6088    146.2946    203.1087   6.9247308137e+01   1.5029619028e+01    0.4071494    0.3177432  -6.02  0.002587373    1.220    0.180
        41 -10.5128    166.5002    203.5378   6.5078042290e+01   1.2272880663e+01    0.1241709   0.09898886   9.67 0.0001150628    1.021    0.021
        42  -9.9728    130.6381    201.3017   7.2463403640e+01   1.7441077447e+01    0.1272658   0.09103595  49.92 0.0007036466    1.724    0.420
        43 -10.6232    212.1429    199.5884   5.5959583703e+01   7.0425397332e+00    0.2333249    0.1326908 -35.46  0.001427824    1.802    0.445
        44 -11.1795    120.7048    200.1913   7.4603506765e+01   1.8974046074e+01      0.30069    0.1509954  28.89  0.001037591    1.692    0.409
        45 -10.2014    225.0458    199.0577   5.3747991389e+01   5.5926054117e+00    0.1459998     0.134733 -13.98 0.0007778503    1.668    0.401
        46 -11.9027    140.4088    196.8635   6.9602469380e+01   1.6861616616e+01     0.292631    0.2663146  60.43  0.001903962    1.517    0.341
        47 -11.3544    124.3540    195.5777   7.3091049710e+01   1.9301069910e+01    0.3519165    0.2743891  -8.37  0.001679952    1.332    0.249
        48  -9.9547    172.7272    195.9321   6.2618812820e+01   1.2581834551e+01    0.1697353    0.1384708  -7.12 0.0004521996    1.109    0.099
        49 -10.4689    189.1726    194.8422   5.9265141337e+01   1.0555921243e+01    0.2305265    0.1652907 -33.63 0.0009038899    1.488    0.328
        50  -9.7260    123.9952    205.5124   7.4571598526e+01   1.7603501153e+01    0.1918366    0.1073062  27.09 0.0004711838    1.505    0.335
        51  -9.3953    247.4678    193.4218   4.9416962893e+01   3.7488192358e+00    0.1078829   0.07671439  -6.07 0.0001045609    1.011    0.011
        52 -10.3238    211.9226    193.1331   5.4931243115e+01   7.8937197953e+00    0.1688536    0.1436664   3.82  0.001240066    1.276    0.216
        53 -10.1129    163.2971    193.0012   6.4058866712e+01   1.4318806057e+01    0.1758723    0.1473262   2.02 0.0005113919    1.060    0.056
        54 -14.6172     19.9698    213.0943   1.0048261883e+02   2.7708035175e+01     1.181388     0.647085  63.67  0.005149954    1.750    0.428
        55 -11.0856    192.8756    194.6591   5.8548679090e+01   1.0099604299e+01    0.3059436    0.2161026 -26.01  0.001769441    1.349    0.259
        56 -11.2666    135.6733    187.7147   6.9257241229e+01   1.9109170312e+01    0.2509771    0.1519052 -27.45  0.001265804    1.912    0.477
        57 -10.8489    123.1862    187.5331   7.2171127467e+01   2.0927531249e+01    0.2888881    0.1932782  39.88 0.0009598983    1.445    0.308
        58 -10.7949    143.2660    190.6444   6.7996696959e+01   1.7516463074e+01    0.2189269    0.1647293 -54.73  0.001269413    1.740    0.425
        59 -10.4576    248.4299    185.9419   4.8043679150e+01   4.4890155047e+00    0.1668289    0.1387704  18.54 0.0006714801    1.497    0.332
        60 -14.0687     26.5162    224.8230   9.9460097121e+01   2.4911601438e+01    0.5918944    0.4907093   1.28  0.004244331    1.425    0.298
        61 -12.7254    119.3979    179.2455   7.1805703568e+01   2.3036530714e+01    0.5455689    0.3372266 -56.22  0.002754208    1.945    0.486
        62 -10.0029    221.1955    180.6252   5.1260785461e+01   8.3478652824e+00    0.1535774   0.09169525  19.37 0.0005429211    1.598    0.374
        63 -11.0149    190.9080    177.6648   5.5984101258e+01   1.2786805330e+01    0.2672347    0.1834237  47.73  0.001519899    2.036    0.509
        64 -11.3564    154.9067    176.7043   6.3083646519e+01   1.8191958602e+01    0.2335283    0.1912454 -37.27 0.0007744065    1.344    0.256
        65 -11.6259    137.7642    176.3032   6.6890971957e+01   2.0848812987e+01    0.2697277    0.1781454 -32.26  0.001150276    1.610    0.379
        66 -11.0157    113.3757    175.3512   7.2699876649e+01   2.4681471488e+01    0.2672134    0.2172524  15.21 0.0008537939    1.144    0.126
        67 -10.2552      6.8843    175.3012   1.0225219968e+02   3.6685393872e+01    0.1967426     0.149008 -51.72 0.0005657725    1.542    0.351
        68 -11.4885    104.7936    175.0323   7.4867627298e+01   2.5996729588e+01    0.3924377    0.1719241  37.11 0.0009039516    2.017    0.504
        69 -12.0826    105.7060    170.0397   7.3843477055e+01   2.6886646407e+01    0.3815696    0.3036524  65.51   0.00157743    1.588    0.370
        70 -17.1253     15.1698    238.6441   1.0250225743e+02   2.3340080190e+01     2.317351     1.184181  25.10   0.01430062    1.606    0.377
        71 -11.0370     27.5823    171.9119   9.6210986884e+01   3.5866170972e+01    0.2683808    0.2034886 -65.25  0.001051573    1.416    0.294
        72 -12.2025     48.3267    169.5361   8.9966920833e+01   3.4417401679e+01    0.4687071    0.2710368 -52.99  0.001484302    1.891    0.471
        73 -11.2751    194.5052    171.1929   5.4148581371e+01   1.3224102598e+01    0.3592884    0.1430552  29.14  0.001567585    2.723    0.633
        74 -10.3331      2.9979    170.4540   1.0314279224e+02   3.8039114907e+01    0.2203821    0.1528945 -65.29 0.0008257449    1.550    0.355
        75 -11.7416    152.5523    168.8109   6.2184534705e+01   1.9913660214e+01     0.400485    0.1303027 -45.16  0.001496671    3.266    0.694
        76 -12.5087    131.0171    168.4890   6.7141918181e+01   2.3338101137e+01    0.4084918    0.2598175  45.24  0.001936877    1.692    0.409
        77 -15.3001      8.2264    227.4326   1.0368651779e+02   2.5896680123e+01      1.02545    0.4488366  22.09  0.005022638    1.988    0.497
        78  -9.9570     94.1265    240.5285   8.5257039017e+01   1.5373397017e+01    0.1756602   0.09131165  26.69 0.0004802769    1.483    0.326
        79 -10.4492     10.6486    167.1003   1.0081563660e+02   3.8302089038e+01    0.3006118    0.2504568  -4.83  0.001903635    1.400    0.286
        80 -10.7661     28.5279    166.6631   9.5550599294e+01   3.7002350496e+01    0.4313099    0.1108559  28.15    0.0016023    2.985    0.665
        81  -9.8095     19.0387    166.9578   9.8365093573e+01   3.7716333444e+01    0.1893195    0.1440508 -30.46 0.0007165691    1.604    0.377
        82 -10.8555    205.9031    164.6435   5.0916573083e+01   1.2542229095e+01    0.2146259    0.1458175 -15.78  0.000813984    1.319    0.242
        83 -11.3305     45.5260    163.9472   9.0232046688e+01   3.6012356223e+01    0.2382701    0.1767837  13.25 0.0006021304    1.414    0.293
        84 -11.9979     28.0844    160.3435   9.5192843386e+01   3.8534244733e+01    0.3040951    0.2684731  88.41 0.0005202385    1.136    0.119
        85 -10.1458      4.8920    147.1745   1.0155452988e+02   4.3419792872e+01    0.2356453    0.1521297  26.42  0.000653018    1.501    0.334
        86 -11.2677     24.6305    143.8790   9.4910953696e+01   4.2840266339e+01    0.2915109     0.248286  88.72 0.0005986744    1.147    0.128
        87 -11.4651     12.4586    149.2544   9.9268806593e+01   4.2428579840e+01    0.6650436    0.1384649  29.05  0.001298178    3.396    0.706
        88 -10.7827     14.5417    156.5631   9.9071624236e+01   4.0513282749e+01    0.2562129    0.2110843  37.12 0.0004585912    1.139    0.122
        89 -12.8234     21.9645    153.6089   9.6564722783e+01   4.0664184049e+01     0.820735    0.4240505  11.55  0.003807289    2.153    0.535
        90 -12.2014     22.8041    149.2155   9.5956144036e+01   4.1669579568e+01    0.7070142    0.1838881  30.10  0.001461637    2.977    0.664
        91 -15.0209     95.0549    195.7690   8.0253756291e+01   2.3192146019e+01     1.491554     1.068141 -77.83  0.004745033    1.890    0.471
        92  -9.5290     84.8421    237.8916   8.7065610386e+01   1.6822493609e+01    0.1532702    0.1075974  39.99            0    1.239    0.193
        93 -10.1882    117.0978    235.2026   7.9733748450e+01   1.3595907353e+01    0.1811642    0.1319151  11.32 0.0005239792    1.221    0.181
        94 -12.1626    170.6549    159.7649   5.6601248066e+01   1.8600712475e+01    0.3174847    0.2690606 -24.79   0.00195919    1.173    0.148
        95 -11.8967    158.8932    160.4715   5.9220956500e+01   2.0362177093e+01      0.28915     0.200903  16.86 0.0006903159    1.437    0.304
        96 -10.5213     53.5012    167.5034   8.8232871165e+01   3.4323318646e+01    0.2400251    0.1908224   0.17  0.001022886    1.420    0.296
        97 -11.8998     58.6899    158.5625   8.5627185747e+01   3.5812235959e+01     0.478076    0.2320654  48.58  0.001211629    2.126    0.530
        98 -10.8793     46.0613    158.9822   8.9548942680e+01   3.7130438647e+01    0.3012312    0.1777059 -11.44  0.001301305    2.519    0.603
        99  -9.2141    250.2733    158.7119   4.3069096140e+01   7.4490516443e+00   0.09606549   0.07651351 -34.97  0.000188409    1.510    0.338
       100 -10.5965     81.4607    234.0200   8.7487297643e+01   1.7838908560e+01    0.1729342    0.1487479  40.48 0.0006731682    1.163    0.140
       101 -10.5500    141.6621    156.1221   6.2285626830e+01   2.3964583725e+01    0.2613765    0.1298167 -53.51  0.001077924    2.577    0.612
       102 -12.5272    219.9850    230.5761   5.9408524699e+01   2.4962787860e+00    0.2303877    0.1696825  -1.95 0.0004022818    1.131    0.116
       103 -10.9400     39.5787    154.5971   9.1105511084e+01   3.8848070798e+01    0.3333316    0.1733813  15.10  0.001479872    2.098    0.523
       104 -10.7401     32.7725    154.8157   9.3267782583e+01   3.9445283305e+01    0.3721957    0.1585965  12.76  0.001464778    2.792    0.642
       105  -9.3950    104.0222    232.9668   8.2350915668e+01   1.5470803677e+01    0.1430379    0.1097479  24.61 0.0003155661    1.013    0.013
       106 -10.9583     50.8832    153.9653   8.7478997748e+01   3.7806961364e+01    0.2330969    0.1855761  31.72   0.00039294    1.173    0.147
       107 -14.8376     58.8467    235.0233   9.2663577435e+01   2.0041757192e+01     1.832819     1.321568  26.33   0.01242049    1.143    0.125
       108 -11.9754    132.9790    148.4910   6.2880681763e+01   2.6889969443e+01    0.4361992    0.2181413  43.66  0.001850458    2.045    0.511
       109 -11.3575    126.0424    151.7119   6.5268713632e+01   2.7422717827e+01     0.244073    0.2335839  31.94  0.000269384    1.136    0.120
       110 -11.4378    130.1588    151.1925   6.4123916550e+01   2.6835868243e+01    0.2760679    0.2117138  47.02 0.0009625331    1.414    0.293
       111 -10.9732    171.6907    151.3515   5.4722397241e+01   1.9829413494e+01    0.2035551     0.169672  44.30  0.001029814    1.406    0.289
       112 -11.3593    168.9790    148.9937   5.4799048718e+01   2.0674089540e+01    0.2137598    0.1726321   0.56 0.0005127075    1.175    0.149
       113 -11.6848    147.5465    150.1283   5.9718143891e+01   2.4092765932e+01    0.2686593     0.227332  33.82 0.0007650889    1.183    0.155
       114 -10.1378    130.6371    232.2123   7.6498908394e+01   1.2455389592e+01    0.1725836    0.1237584  25.63  0.001134877    1.115    0.103
       115 -12.3925    108.8577    148.5065   6.9224012404e+01   3.0932683198e+01    0.3864785    0.3200093 -40.37  0.001177644    1.268    0.211
       116 -11.8735     84.3093    149.2482   7.6457707700e+01   3.4585842302e+01    0.3990306    0.2949423 -33.38  0.002017006    1.532    0.347
       117  -9.7810    206.6272    149.1658   4.7815744593e+01   1.4641103955e+01    0.1691913    0.1011124 -23.10 0.0002238859    1.553    0.356
       118  -9.8019    223.9961    148.0577   4.4831376263e+01   1.2252636245e+01    0.1487602    0.1144532 -17.12 0.0005219218    1.058    0.055
       119  -9.8069     34.4953    148.5137   9.2112536649e+01   4.0824047485e+01    0.1335773    0.1263393  54.38 0.0008104314    1.020    0.020
       120 -13.4121    102.6172    141.9249   6.9716729054e+01   3.3387188622e+01     1.001019    0.4607785  40.85  0.004000193    2.078    0.519
       121 -11.1082    139.8398    140.8582   5.9615792097e+01   2.7180381516e+01    0.2161585    0.1829861  -2.55 0.0004333284    1.178    0.151
       122 -10.6818    112.8193    228.9124   7.9974812018e+01   1.5094129882e+01    0.2788038    0.1434681 -41.36  0.001508549    2.343    0.573
       123  -9.8965     11.3054    141.6494   9.9154642082e+01   4.4378777085e+01    0.1453337   0.08220711  56.28 0.0007041765    1.705    0.414
       124 -10.0021     30.4489    139.9875   9.2589217751e+01   4.3314320085e+01    0.2574092    0.1473124  45.29 0.0008899257    1.670    0.401
       125 -10.4408     86.7725    229.4439   8.5876507218e+01   1.8028745573e+01     0.526839    0.1050228  30.08  0.001926237    3.428    0.708
       126 -10.7992     36.2000    138.5477   9.0474795995e+01   4.3140785125e+01    0.2223674    0.1551074 -67.03 0.0009077647    1.432    0.302
       127 -12.0356     21.1778    160.2710   9.7289158343e+01   3.9124682300e+01    0.5725686    0.4629292  49.59   0.00232824    1.117    0.105
       128 -12.3996    136.6074    130.7570   5.8195367938e+01   2.9729516701e+01    0.6594366    0.2536027  39.91  0.002431044    2.532    0.605
       129 -13.3361    143.3014    132.5022   5.6962541593e+01   2.8156452798e+01    0.8858789    0.5302306   1.20  0.003305333    3.111    0.679
       130 -13.3607    155.0439    129.7000   5.3632394754e+01   2.6509617185e+01    0.8763137    0.3917769  40.48   0.00360343    2.225    0.551
       131 -10.5480     61.6250    134.2976   8.1204912903e+01   4.1313193704e+01    0.3844959    0.1632711  37.73   0.00150399    2.163    0.538
       132 -10.5011     11.9186    133.1488   9.8355651791e+01   4.6468917744e+01    0.2839414    0.1846059  17.61 0.0008329101    1.592    0.372
       133 -10.8708    126.3661    132.0201   6.1085892237e+01   3.1360609665e+01    0.2571142    0.2027906  40.22 0.0003527716    1.249    0.199
       134 -10.7930     35.9289    131.4976   8.9731780910e+01   4.4950393699e+01    0.2075505    0.1828706 -77.30 0.0004251686    1.131    0.115
       135 -10.5187     31.3213    129.3804   9.1123117928e+01   4.5923830931e+01    0.3808572    0.2218851 -70.81  0.001642454    1.680    0.405
       136  -9.9918     21.1056    128.4678   9.4704576676e+01   4.7012465370e+01     0.186223    0.1300569  23.04 6.045257e-05    1.441    0.306
       137 -10.3185     15.5142    126.9381   9.6583842008e+01   4.7809674147e+01    0.2851642    0.1983439  18.70  0.001528507    1.486    0.327
       138  -9.4341    245.0335    122.9631   3.7021138838e+01   1.2501131669e+01    0.1347211    0.1078226 -18.49 0.0003286085    1.027    0.026
       139 -10.1238     59.9862    125.0534   8.0204069673e+01   4.3824604410e+01    0.1712014     0.168784  84.31 0.0004312141    1.032    0.031
       140 -11.2668    104.5134    121.7153   6.4866180264e+01   3.7542141279e+01    0.3957251    0.3100094  70.67  0.001288782    1.665    0.399
       141 -10.9630     99.3474    118.6777   6.5731881121e+01   3.9151837143e+01    0.2739219    0.2546624  63.64 0.0004098173    1.174    0.148
       142 -11.0504    189.0547    121.0225   4.4911790225e+01   2.1755874210e+01    0.1958674    0.1713358 -14.78            0    1.015    0.015
       143 -11.2934     43.5634    120.5980   8.5439628014e+01   4.6948306012e+01    0.3729382    0.2684825   9.33 0.0005654374    1.533    0.348
       144 -10.9315     48.4707    115.8636   8.2814708783e+01   4.7599303268e+01    0.3382605    0.2703747 -56.47  0.001081764    1.248    0.198
       145 -11.0600     36.1396    120.5505   8.8218808621e+01   4.7736601811e+01    0.3294883    0.2382499  40.18  0.001036128    1.354    0.261
       146 -11.5132    155.2149    117.7263   5.0804891074e+01   2.8641798916e+01    0.3337658    0.1683066  49.99  0.001201175    2.188    0.543
       147 -10.0439    199.5161    120.5154   4.3018989046e+01   1.9997032792e+01     0.129522    0.1127615 -16.26 0.0001175244    1.011    0.011
       148  -9.5656     94.3270    117.3105   6.6986702998e+01   4.0355578266e+01    0.1551172    0.1171201  -9.62 0.0005159815    1.661    0.398
       149 -11.1700     66.3356    116.2159   7.6259574759e+01   4.5146123006e+01    0.3579795    0.2550963  61.11  0.001674512    1.654    0.395
       150 -10.9229     23.7678    115.8468   9.2349511241e+01   5.0064090387e+01    0.2896681    0.2044561 -57.01   0.00107161    1.384    0.278
       151 -10.6724     58.5314    114.0685   7.8693846874e+01   4.6776420373e+01    0.2442652    0.2346941  55.08 -8.075946e-05    1.046    0.044
       152 -12.3766     52.7035    110.3870   8.0191882211e+01   4.8474818225e+01    0.6406089    0.4173593  56.66  0.001911763    1.772    0.436
       153 -10.2917    188.4846    115.4844   4.3757215856e+01   2.2720697007e+01    0.1331905    0.1186417 -14.62 0.0003257007    1.001    0.001
       154 -10.7214    108.0000    112.9958   6.1746531591e+01   3.8811841587e+01    0.3678283    0.1752762 -37.56  0.001359151    2.438    0.590
       155 -10.8180    160.8442    108.7336   4.7409199468e+01   2.9122465010e+01    0.2737571    0.1579641 -46.32  0.000841659    1.831    0.454
       156 -12.8115    152.3942    106.8693   4.8747578317e+01   3.1154564102e+01    0.5262297    0.4042165 -87.24  0.001633418    2.013    0.503
       157 -12.0829    142.6072    109.2820   5.1591599832e+01   3.2700106686e+01    0.4295994    0.1922896  35.06  0.001573528    2.632    0.620
       158 -10.1429     92.0918    108.1901   6.5519328265e+01   4.2845887149e+01    0.2265071    0.2018985  -3.58 0.0003532438    1.192    0.161
       159  -9.6108    178.3642    228.7561   6.6466450599e+01   7.2857125260e+00    0.1420385   0.09078787 -20.06 0.0003164601    1.527    0.345
       160 -10.2757    139.6617    104.3039   5.1011836281e+01   3.4240048347e+01    0.1453168    0.1190533 -88.44 0.0007039333    1.672    0.402
       161  -9.7644    116.4949    103.9351   5.6957738200e+01   3.9071620197e+01    0.2257727    0.1488779 -44.16 0.0007053152    1.546    0.353
       162 -12.4914     56.3981     99.0217   7.6355534465e+01   5.0856883605e+01    0.7631499    0.5356377 -13.26  0.003480723    1.820    0.450
       163 -10.5478     10.0975    100.7530   9.6219228180e+01   5.4944923102e+01    0.2061507    0.1786074 -87.58 0.0003636628    1.098    0.089
       164 -10.2612     79.1490    100.9693   6.8146239930e+01   4.6818700055e+01    0.2352026    0.2077439  75.89 0.0008957727    1.297    0.229
       165  -9.7780     20.0798     99.7640   9.1817200605e+01   5.4553993345e+01    0.1889949    0.1787387  24.94 0.0006131855    1.103    0.093
       166 -10.1556     22.2324     97.2574   9.0527091025e+01   5.5047696704e+01    0.2824153     0.170069  40.61  0.001344238    1.698    0.411
       167 -10.4899    240.1018     95.1068   3.1952974544e+01   1.6699571448e+01     0.193294    0.1369025 -37.96 0.0003181581    1.230    0.187
       168 -11.4188     54.3461     92.7202   7.5729460002e+01   5.2721817018e+01    0.3166515    0.2267339  35.73 0.0007161224    1.384    0.277
       169  -9.6377    195.3056     92.3077   3.7192751845e+01   2.4930285523e+01    0.1305803   0.09784721   7.24 0.0002321277    1.608    0.378
       170 -11.1492     59.6972     91.5274   7.3217900358e+01   5.2243825998e+01    0.3870828    0.2397441  46.51  0.001705805    1.727    0.421
       171 -12.1051     54.0237     86.7392   7.4382767690e+01   5.4254879273e+01    0.3752011    0.3114163  33.75  0.001165186    1.202    0.168
       172 -13.2698     51.3619     80.3046   7.3853730632e+01   5.6218431342e+01     1.049423     0.711924  61.06  0.004727672    1.913    0.477
       173 -10.2019     11.9304     87.9700   9.3898141042e+01   5.8188325270e+01    0.4391695    0.1863321  81.81  0.001499022    3.194    0.687
       174 -10.5377    232.3697     89.1840   3.1573195235e+01   1.8690765945e+01    0.2086614    0.1664653  56.46 0.0004026551    1.526    0.345
       175 -11.1855    125.7394     86.5610   4.9579570112e+01   4.0573190847e+01    0.3373224    0.2494188   7.19  0.001534808    1.807    0.447
       176 -12.1539     45.3450     86.3353   7.8096073256e+01   5.5523762782e+01    0.4120702    0.2254812  54.99   0.00128159    2.421    0.587
       177 -10.5157    170.8335     84.8199   3.9337151942e+01   3.1011557714e+01    0.1876006    0.1588366 -63.18 0.0003790572    1.330    0.248
       178  -9.9643    182.0035     81.0391   3.6465382104e+01   2.9239630278e+01    0.1597386    0.1501464 -29.41            0    1.012    0.012
       179 -11.4767    115.8722     85.5726   5.1954375221e+01   4.2921727775e+01    0.2855631    0.2621601  61.26  0.000245728    1.150    0.130
       180  -9.5183    153.3198     80.3000   4.1424741954e+01   3.5544002479e+01    0.1453193    0.1108406  15.63 0.0002949526    1.622    0.383
       181 -12.4461     28.9155     79.6680   8.4297154924e+01   5.9049241893e+01    0.3745371    0.2861434  59.30  0.001165671    1.485    0.327
       182 -12.8886     30.0019     64.2429   8.0017705291e+01   6.2834520662e+01     1.339029    0.3907908  27.20  0.004601867    3.194    0.687
       183  -9.8744    183.3958     77.1670   3.5247072324e+01   2.9514004050e+01    0.1972429    0.1122121 -42.25 0.0002534918    1.662    0.398
       184 -10.5210    112.0052     76.6443   5.0300400098e+01   4.5507130363e+01    0.2919024    0.2383493   8.73 0.0009405382    1.447    0.309
       185 -10.4238    116.1628     74.3269   4.8393861888e+01   4.5010416603e+01    0.3507173    0.2730648  29.87  0.001250124    1.385    0.278
       186 -10.8281     74.8572     75.6503   6.2528317983e+01   5.3430935192e+01    0.2670285    0.2436247 -25.83 0.0003510877    1.114    0.102
       187 -11.4721     65.9057     74.0619   6.5658148379e+01   5.5403116195e+01    0.2269957    0.2189117   7.82 0.0002746512    1.005    0.005
       188 -11.7665    100.0448     68.0086   5.1045001853e+01   4.9829292169e+01    0.7348279    0.3677554 -32.14  0.002775796    2.369    0.578
       189 -13.2141     32.1032     73.5850   8.1322317029e+01   6.0279707797e+01    0.6902781    0.3692721 -65.11  0.001068601    1.850    0.459
       190 -10.2307     88.5040     78.9809   5.8527026637e+01   5.0049458815e+01    0.2905925    0.2156271  58.60  0.001024624    1.543    0.352
       191  -9.8509     58.2980     69.0419   6.7356777782e+01   5.7840401776e+01    0.2789657    0.1646173  15.04 0.0007285816    2.282    0.562
       192 -10.7191    197.9060     67.0462   3.0617028311e+01   2.7915854559e+01    0.3654744    0.2254635   2.82  0.001653787    2.660    0.624
       193 -10.7951    214.3756     77.7515   3.1138095099e+01   2.3315984805e+01    0.4023047    0.1927058 -21.48  0.001543794    2.335    0.572
       194 -11.3181    178.4471     64.3113   3.2596545606e+01   3.2389899448e+01    0.2425269    0.2293891   9.33 0.0002643173    1.142    0.124
       195 -10.5084    153.6307     65.1528   3.6975908144e+01   3.7868085004e+01    0.2011157    0.1342389 -20.04 0.0005452326    1.710    0.415
       196  -9.6569    188.2677     64.6696   3.1289888177e+01   3.0229441198e+01    0.1354953   0.09188706 -55.88  0.000303897    1.580    0.367
       197  -9.9120    219.1362     78.5103   3.0742687395e+01   2.2344875691e+01    0.1588231     0.123383  59.18 0.0005476277    1.504    0.335
       198 -10.2002    114.1758     61.0969   4.4533662118e+01   4.7842807936e+01    0.2184121    0.1958404  21.25 0.0003216373    1.181    0.153
       199 -11.6871    165.8490     58.3072   3.2861294934e+01   3.6044028124e+01    0.2596262    0.2190235 -52.60 0.0003706337    1.169    0.145
       200 -10.1554      3.5688     59.1532   9.4041598241e+01   6.6056939203e+01    0.2327696    0.1646486 -30.17  0.001275397    1.385    0.278
       201 -10.8837    194.0880     57.4025   2.8651099028e+01   2.9950976434e+01    0.2310049     0.195851 -30.28 0.0003804525    1.115    0.103
       202 -11.6739     52.2483     56.8076   6.5968457906e+01   6.1593196138e+01    0.6757404    0.2945913  50.52  0.002275591    3.350    0.701
       203 -11.1414     50.7996     52.6049   6.5103779638e+01   6.2750559910e+01    0.2876808    0.1799338  39.37  0.001333321    1.598    0.374
       204 -10.5644    108.6857     56.0079   4.4238615602e+01   5.0011094564e+01    0.2031827    0.1870796 -35.08 0.0003643387    1.121    0.108
       205  -9.8636     28.2290     55.3868   7.8450539888e+01   6.5182386330e+01    0.1994008    0.1213247  34.89 0.0005367424    1.699    0.411
       206  -9.8692    115.5684     53.8143   4.1609683161e+01   4.8725663973e+01    0.2093757    0.1354589 -47.55 0.0008934193    1.664    0.399
       207  -9.7681    233.6936     53.0105   2.3507543357e+01   2.2773883464e+01    0.1600949    0.1244078 -36.64 0.0003228375    1.059    0.056
       208  -9.7298    124.4890     52.4853   3.8968853233e+01   4.6768685295e+01     0.146504    0.1400442 -87.44 0.0001218925    1.067    0.063
       209  -9.4341     94.3005     51.3548   4.6794727528e+01   5.4184306235e+01     0.154988    0.1160342  12.16 0.0004040986    1.704    0.413
       210  -9.9546     37.9838     49.6355   7.0849690111e+01   6.5338604902e+01    0.1945642    0.1728657  13.87 0.0007729556    1.101    0.091
       211  -9.7066     31.0031     50.2225   7.5126371162e+01   6.6093745043e+01     0.186903    0.1125759  23.78 0.0008753298    1.672    0.402
       212 -10.2506     18.1968     49.1445   8.2698351608e+01   6.7644581752e+01    0.2171506    0.1688235 -34.24 0.0004642264    1.206    0.171
       213 -10.5623      9.8406     43.8089   8.6732795077e+01   6.9549327545e+01     0.177127    0.1583605  65.58 0.0006917265    1.310    0.237
       214  -9.7944    122.3231     41.6785   3.5620241683e+01   4.8894198746e+01    0.1515104    0.1097807 -69.55 0.0005574602    1.677    0.404
       215 -10.5083    133.5020     39.9176   3.2702706345e+01   4.6339007587e+01    0.2604034    0.1844576  47.63 0.0004747542    1.429    0.300
       216  -9.9641    110.3717     39.2513   3.7501523610e+01   5.2220374884e+01    0.2100214    0.1305916 -42.39    0.0009496    1.688    0.408
       217  -9.9356    104.2773     39.5834   3.9205583032e+01   5.3682168044e+01    0.2797797    0.1420147  62.91 0.0006862732    2.065    0.516
       218 -10.4804     36.2782     39.2725   6.7669057825e+01   6.7847928147e+01    0.2984917    0.1912479  23.05 0.0009652094    1.585    0.369
       219 -10.8894     56.9762     36.9358   5.5277644209e+01   6.4795439886e+01    0.2132944    0.2032092  19.63 0.0004207399    1.059    0.056
       220 -10.8907    213.4128     32.2309   2.0409337898e+01   2.8884094937e+01    0.2131606    0.1858271 -54.64 0.0002877167    1.043    0.041
       221 -11.3725     31.6975     31.5784   6.7051460952e+01   7.0101893616e+01     0.434079    0.2712084 -37.35  0.002159481    1.584    0.369
       222 -10.2188    247.9629     31.9878   1.7921901538e+01   2.2490591096e+01    0.1661687    0.1317756 -39.41 0.0003072987    1.043    0.041
       223 -10.9827    106.2201     31.3955   3.5397889993e+01   5.4339165031e+01    0.3190039    0.2539306  54.98 0.0008457615    1.175    0.149
       224 -11.8002     77.9689     30.9859   4.3620974462e+01   6.1284021248e+01    0.3293078    0.2750892 -87.49 0.0007512491    1.508    0.337
       225  -9.8700    100.9786     26.3544   3.4589884979e+01   5.6309782189e+01      0.20152    0.1790662  57.01 0.0004809884    1.047    0.045
       226 -10.3859    237.9079    248.3510   5.9069780337e+01  -1.0804175718e+00    0.1898974     0.127193 -33.11  0.001471152    2.036    0.509
       227 -11.0168     84.9020     24.0419   3.8018602952e+01   6.0605515438e+01     0.336233    0.2075843  66.18 0.0009814182    1.697    0.411
       228 -10.2023     20.5358     23.2916   7.0936464678e+01   7.3240508177e+01     0.240684      0.15231  -2.26  0.001186344    1.820    0.451
       229  -9.8944    134.5636     22.4641   2.6382139113e+01   4.8168059358e+01    0.1376415    0.1286375  90.00 9.409935e-05    1.010    0.010
       230 -11.0027     45.2671     25.0836   5.5337490497e+01   6.9123933828e+01    0.2660877    0.2364945 -57.49 0.0006151468    1.389    0.280
       231  -9.5683     50.0257     22.0545   5.1062861882e+01   6.8719331038e+01    0.1698302    0.1481044  28.37 0.0004009783    1.054    0.051
       232  -9.9178    189.8537     20.1432   1.9295026639e+01   3.5098421106e+01    0.1910447    0.1467816 -60.92 0.0003993681    1.188    0.158
       233  -9.7610     93.4052    248.9639   8.6158488918e+01   1.4129407856e+01    0.1307521    0.1137541 -56.20 0.0003525906    1.523    0.343
       234 -10.6268    125.0906    248.0250   7.9424997414e+01   1.0775810556e+01    0.1658632    0.1249312  20.14            0    1.019    0.019
       235  -9.1890    144.3112     10.7102   2.0976530200e+01   4.6854591540e+01    0.1407015   0.09118504 -62.95 0.0002391507    1.583    0.368
       236  -9.2019    139.6655    247.7054   7.6428411772e+01   9.1854728622e+00    0.1159485   0.07169338   2.54 0.0005701942    1.643    0.391
       237 -10.5969     83.7648    246.3510   8.8007085351e+01   1.5568577789e+01    0.4383259    0.1106082  34.57  0.001928695    2.626    0.619
       238 -10.1092    179.7848    244.3627   6.8296920164e+01   5.1663532024e+00    0.1585368     0.104959  26.32 0.0005153967    1.339    0.253
       239 -14.7908     11.7844    218.4023   1.0260584607e+02   2.7324986861e+01     1.166255     0.550639  27.61  0.006635937    1.707    0.414
       240 -10.0888     88.9052    240.5533   8.6401318817e+01   1.5943830054e+01    0.2335059    0.1657917 -79.63  0.001396592    2.012    0.503
       241 -10.4464     91.2143    236.3483   8.5515595663e+01   1.6373980137e+01    0.2798731     0.180734  32.19   0.00127971    1.204    0.170
       242 -11.8828    191.6887    225.5772   6.3554576117e+01   6.1591071919e+00     0.214909    0.1574192   4.85  0.000670111    1.014    0.014
