#   1 NUMBER                 Running object number                                     
#   2 MAG_AUTO               Kron-like elliptical aperture magnitude                    [mag]
#   3 X_IMAGE                Object position along x                                    [pixel]
#   4 Y_IMAGE                Object position along y                                    [pixel]
#   5 X_WORLD                Barycenter position along world x axis                     [deg]
#   6 Y_WORLD                Barycenter position along world y axis                     [deg]
#   7 A_WORLD                Profile RMS along major axis (world units)                 [deg]
#   8 B_WORLD                Profile RMS along minor axis (world units)                 [deg]
#   9 THETA_WORLD            Position angle (CCW/world-x)                               [deg]
#  10 FWHM_WORLD             FWHM assuming a gaussian core                              [deg]
#  11 ELONGATION             A_IMAGE/B_IMAGE                                           
#  12 ELLIPTICITY            1 - B_IMAGE/A_IMAGE                                       
         1 -14.8788    158.6554     50.0728   7.9245004589e+01   3.8911586086e+01     1.226979      1.15405 -30.23  0.003533464    1.134    0.118
         2 -14.9932    169.5562     19.2127   6.7892301834e+01   3.9977576561e+01     1.595647     1.023401 -82.92  0.005705391    1.782    0.439
         3 -14.5232    190.3333     14.5879   6.3858643365e+01   3.5087547610e+01     1.017455    0.6663738 -78.05  0.004051105    1.585    0.369
         4 -14.4204    176.0690      4.8385   6.2814122412e+01   3.9720300723e+01     1.624924    0.6074709  85.60  0.005359952    3.719    0.731
         5 -11.1958     37.5977    248.1293   1.4465524130e+02   2.0615656376e+01    0.1467158   0.09479169  77.07 0.0006320814    1.265    0.209
         6 -20.4377     77.4590    180.6965   1.3075068768e+02   2.8588109588e+01     14.97149     6.955854 -66.84   0.06857456    2.199    0.545
         7 -11.7215    238.1150    186.1431   9.7758863698e+01  -1.6410162529e+00    0.2098296    0.1558232   7.59  0.001234168    1.290    0.225
         8 -10.6540    139.9587    248.8975   1.2626065915e+02   5.9051459028e+00    0.3673867    0.2127997 -64.02  0.002071742    2.459    0.593
         9 -11.8700    203.4358    174.2260   1.0179245821e+02   6.5171963641e+00    0.5940025    0.2285841 -51.44  0.001841568    4.735    0.789
        10 -12.9730    189.2383    154.8963   1.0060192825e+02   1.2763018825e+01    0.5637086    0.4789016  22.42  0.001935328    1.183    0.155
        11 -12.2326    194.8001    172.4265   1.0313486885e+02   8.5183189099e+00    0.4626211    0.3429765 -59.55  0.002163205    1.802    0.445
        12 -12.1652    192.1196    164.5124   1.0205426383e+02   1.0438321698e+01     0.633186    0.3377018 -54.44  0.002528639    2.644    0.622
        13 -12.0724    224.8532    174.3289   9.7787015256e+01   2.4405512001e+00    0.2300699    0.1811545 -37.78 0.0008671996    1.374    0.272
        14 -13.0530    236.4643    173.4614   9.5551327773e+01   4.7107303471e-01    0.3162907    0.2471569  52.89  0.001827336    1.567    0.362
        15 -11.2048    207.4096    171.1208   1.0039576715e+02   6.2572851857e+00    0.3276598    0.2193564 -55.97  0.001561876    2.074    0.518
        16 -12.2425    230.0860    166.6838   9.5294321537e+01   2.6475100587e+00    0.3114718    0.1850177 -48.03  0.001479845    2.097    0.523
        17 -12.0864    162.8708    167.9608   1.0894217766e+02   1.5797603870e+01    0.3436307    0.1993426  48.94    0.0014664    1.653    0.395
        18  -9.9728      9.7968    168.3841   1.4480457936e+02   3.9160933756e+01    0.1175028    0.1105292  26.13  0.000318954    1.472    0.321
        19 -12.6137    166.9721    155.3578   1.0544394713e+02   1.7394735663e+01    0.4093088    0.2933093  72.52  0.001281282    1.903    0.475
        20 -10.8190      3.1352    245.7573   1.5017880956e+02   2.4724699886e+01    0.1121255   0.07579133  36.17            0    1.799    0.444
        21 -12.1267     22.7463    155.6649   1.4077112095e+02   4.0803357992e+01    0.2689361    0.2063286 -80.12 0.0009649972    1.110    0.099
        22 -11.5976     27.7530    230.6861   1.4534771661e+02   2.4845713709e+01    0.1913426    0.1248343 -89.36 0.0009026237    1.348    0.258
        23 -13.5090    207.6095    224.0992   1.1005452807e+02  -1.7518034021e+00    0.4781427    0.2354115 -38.36    0.0021511    2.358    0.576
        24 -11.8324    174.0576    148.5123   1.0240724816e+02   1.7207318193e+01    0.4574805     0.339002 -61.98  0.001442873    1.664    0.399
        25 -10.6764      8.5115    148.9895   1.4355905823e+02   4.3506286565e+01    0.1639817     0.140325  82.10 0.0003932536    1.122    0.109
        26 -12.6141     10.9122    144.1747   1.4255089386e+02   4.4390365991e+01    0.3128156     0.234083 -40.41 0.0008551811    1.710    0.415
        27 -10.6096     24.8368    214.1849   1.4488267424e+02   2.8281409146e+01    0.1461381    0.1064336  72.39 0.0003635674    1.016    0.016
        28 -12.8226    160.4352    127.9589   1.0069602878e+02   2.4307357488e+01    0.4911373    0.3896219 -62.28  0.001607379    1.431    0.301
        29 -12.6928    129.3855    241.9062   1.2743098899e+02   8.6852003462e+00    0.2078293    0.1873277  61.25 0.0006167304    1.174    0.148
        30 -10.8508     20.9504    210.0943   1.4535572498e+02   2.9488376409e+01    0.1403214    0.1038411 -74.23 0.0003396737    1.425    0.298
        31 -10.6327     12.9308    121.7709   1.3969673031e+02   4.9297314590e+01    0.1803925    0.1382011 -51.41  0.001196345    1.346    0.257
        32 -11.2538    231.3193    113.7430   8.3415103823e+01   1.0874685254e+01    0.2556392    0.2457982  12.46 0.0008005743    1.069    0.065
        33 -11.2688    167.5031    112.6165   9.5265972381e+01   2.5725934086e+01    0.3373252    0.2643468  88.35  0.001135911    1.639    0.390
        34 -11.0353    205.2309    110.5183   8.7113646250e+01   1.7223284741e+01    0.3653033    0.2662189  24.06  0.001030668    1.692    0.409
        35 -14.0007     11.6473    205.5693   1.4683278359e+02   3.1306942925e+01    0.5295644    0.3324602 -62.93  0.003569095    1.823    0.452
        36 -11.7620     32.4434    104.2543   1.3139192661e+02   5.1701771182e+01    0.3105645    0.2122577   0.87  0.001450939    2.013    0.503
        37 -15.6807     44.5746    150.4117   1.3480715070e+02   3.9743293198e+01     1.426233    0.7066627 -81.32  0.006682549    2.116    0.527
        38 -12.8387     52.0897     91.7729   1.2245993305e+02   5.2460734473e+01    0.3721532    0.3079463 -17.50  0.001091253    1.369    0.269
        39 -11.3587     23.7166    191.1860   1.4354311614e+02   3.3022678794e+01    0.2040248    0.1565277 -57.13  0.001249454    1.631    0.387
        40 -10.6662     23.1445     83.2050   1.3057511267e+02   5.7253499255e+01     0.223816     0.162596 -13.67 0.0009911041    1.659    0.397
        41 -10.5537    158.7465    240.8003   1.2171863776e+02   4.0430486744e+00    0.1738406    0.1417554  30.04 0.0005445985    1.155    0.134
        42 -11.2412    103.4860     81.9782   1.0320565998e+02   4.6305079135e+01    0.2634638    0.2114328  43.34  0.001348622    1.257    0.205
        43 -14.4244    148.0518     64.5522   8.6000039484e+01   3.9348451200e+01     1.117351     1.075952  23.32  0.001244943    1.070    0.066
        44  -9.9581    155.7017    247.9971   1.2322021467e+02   3.4954192587e+00    0.1511916    0.1282206  38.12 0.0004930169    1.103    0.093
        45 -13.5691    162.9454     40.9879   7.5619352269e+01   3.9073160041e+01    0.5316767    0.5014232  71.24 0.0008219641    1.016    0.016
        46 -10.1470     31.3025    247.4455   1.4567466887e+02   2.1460252025e+01    0.1025359   0.07251078  72.02 0.0001847198    1.083    0.077
        47 -11.3422     13.5343     59.8178   1.2912475414e+02   6.2969527381e+01    0.1874196    0.1793683 -78.80 0.0004142394    1.249    0.200
        48 -10.7840     15.7650    187.4009   1.4489634612e+02   3.4593853936e+01    0.2448338    0.1771257 -19.16  0.001486159    2.703    0.630
        49 -10.2486    157.9121    244.9566   1.2241966700e+02   3.5734886524e+00    0.1720461    0.1361423  29.51 0.0003606823    1.191    0.160
        50 -11.7058    116.6282    246.1411   1.3030741223e+02   1.0031656231e+01    0.2094022     0.190153  -8.15  0.001267885    1.595    0.373
