#   1 NUMBER                 Running object number                                     
#   2 MAG_AUTO               Kron-like elliptical aperture magnitude                    [mag]
#   3 X_IMAGE                Object position along x                                    [pixel]
#   4 Y_IMAGE                Object position along y                                    [pixel]
#   5 X_WORLD                Barycenter position along world x axis                     [deg]
#   6 Y_WORLD                Barycenter position along world y axis                     [deg]
#   7 A_WORLD                Profile RMS along major axis (world units)                 [deg]
#   8 B_WORLD                Profile RMS along minor axis (world units)                 [deg]
#   9 THETA_WORLD            Position angle (CCW/world-x)                               [deg]
#  10 FWHM_WORLD             FWHM assuming a gaussian core                              [deg]
#  11 ELONGATION             A_IMAGE/B_IMAGE                                           
#  12 ELLIPTICITY            1 - B_IMAGE/A_IMAGE                                       
         1 -13.3450    153.6891     80.3573   9.2664212634e+01   3.5411655837e+01     3.353761     1.673015  44.23    0.0128537    2.082    0.520
         2 -13.3161    170.8069     60.2575   8.2981912931e+01   3.4600866212e+01     2.844919     1.622583 -64.98   0.01035315    2.784    0.641
         3 -12.6958     66.4477     59.7012   1.1098795579e+02   5.6927164498e+01     1.495315     1.170762  -7.46  0.008550269    1.399    0.285
         4 -10.7879    219.5109     34.0131   6.8112419634e+01   2.5982642742e+01    0.8445735    0.2600448 -49.30  0.002710692    3.750    0.733
         5 -11.8808    129.7692     11.8860   7.4689845957e+01   5.1192987387e+01    0.5941225    0.3560253 -10.76  0.001228589    1.910    0.476
         6  -9.1637    190.0979     15.3885   6.6506435695e+01   3.5534524066e+01     0.304941    0.2602966 -78.42 0.0008704698    1.128    0.114
         7  -9.9257    141.7843     12.2541   7.2589073160e+01   4.8196226566e+01    0.3034602    0.2636144  22.71 0.0006528983    1.188    0.159
         8  -9.6699    191.3536      6.2225   6.3753482272e+01   3.6141018394e+01    0.6913488    0.2701425 -69.78  0.001968064    5.411    0.815
         9 -10.0754    178.9782      2.2439   6.3997196491e+01   3.9661232712e+01    0.3025113    0.2209698 -76.55  0.001642057    1.402    0.287
        10  -9.9627    143.3477      3.0340   6.9089296647e+01   4.8646629110e+01    0.3257794    0.2694755  13.60  0.001321644    1.316    0.240
        11  -9.6383    171.8923      1.7629   6.4694380528e+01   4.1513072739e+01    0.3191639    0.1516573  58.13  0.001435232    1.851    0.460
        12  -9.0464    188.2805    233.4216   1.1827947390e+02   8.3575165028e-01    0.1745243    0.1510388 -83.20  0.001071167    1.732    0.423
        13 -11.7889    140.7016    249.8908   1.2891485836e+02   6.1564544101e+00    0.9120681     0.350316  44.82  0.004584933    2.009    0.502
        14 -11.7068    134.0779    242.4043   1.2923968956e+02   8.2948493733e+00     0.494288    0.3863351  43.36  0.003435696    1.100    0.091
        15  -8.6096    237.6727    222.3367   1.0789432455e+02  -5.6287837464e+00    0.1023627    0.0948424  62.43  0.000705176    1.725    0.420
        16  -9.0636     15.1578    220.6055   1.4844749398e+02   2.7857982016e+01    0.1243933   0.09431592  34.96 0.0009458699    1.746    0.427
        17  -9.7237     10.5273    215.3233   1.4895621065e+02   2.9286836074e+01    0.1937624    0.1747069 -81.97  0.000968892    1.519    0.342
        18  -9.9074    225.9213    214.9088   1.0864608598e+02  -2.8742347999e+00     0.267547    0.1383892  35.75  0.001426149    1.667    0.400
        19  -9.9318     10.6553    206.7260   1.4847949960e+02   3.0897712325e+01    0.2986008    0.2074287  49.75   0.00180089    1.400    0.286
        20 -10.4982    192.5228    197.5113   1.1169676084e+02   5.3175683677e+00    0.5019659    0.3229338 -55.75  0.002540791    2.195    0.544
        21 -10.4443    249.0394    189.5133   1.0008653173e+02  -3.3446632077e+00    0.3614648    0.2559706 -23.16  0.002209287    1.340    0.254
        22  -8.3400    249.4329    174.7627   9.7136039062e+01  -1.4360078430e+00    0.1803599    0.1103262 -17.82 0.0009481802    1.629    0.386
        23  -8.3011    236.0006    145.8803   9.3318055518e+01   5.2313634941e+00    0.2073796    0.1836019  -5.87 0.0005180147    1.018    0.017
        24  -9.7404     67.3795    144.4361   1.3029802624e+02   3.7839111625e+01     0.395543    0.2151181 -86.16   0.00172531    2.387    0.581
        25  -7.5718    244.3650    133.3073   8.9138863422e+01   5.5568183392e+00    0.1443848    0.1001574  10.53   7.6482e-05    1.747    0.427
        26  -7.5288    234.4715    132.5067   9.0575193334e+01   7.6382200585e+00    0.1403385    0.1275259 -13.12 -1.893436e-05    1.007    0.007
        27  -7.9541    250.2820    117.3471   8.4590745649e+01   6.8442652449e+00    0.1396807    0.1010494   1.45  0.000487872    1.643    0.392
        28  -9.0654    203.4814    111.6774   9.1036648666e+01   1.7825645269e+01    0.2975369    0.2470427   9.87 0.0006901819    1.363    0.267
        29 -11.3695    133.4145     80.4021   9.7542369449e+01   4.0148510981e+01    0.6649184    0.3756365 -36.99  0.002762175    1.772    0.436
        30  -9.8250    170.2031    247.4715   1.2342779788e+02   1.8615441637e+00    0.2812646    0.1429345  35.96  0.001562649    1.651    0.394
        31 -10.9479    184.0294     77.5144   8.5539351079e+01   2.8449250535e+01    0.6131529    0.3817158  60.55  0.001635988    1.675    0.403
        32 -10.7993     96.0514    245.0357   1.3625603901e+02   1.3599420555e+01    0.2328466    0.1998727 -62.02 0.0008020508    1.520    0.342
        33  -7.6206    197.7678    245.2909   1.1831574283e+02  -2.1944979988e+00   0.09740277   0.08327457  54.82 0.0006792165    1.456    0.313
        34  -8.8940    206.9767     82.5545   8.2845132843e+01   2.1980677934e+01    0.2746778    0.2150539 -35.37 0.0004441106    1.230    0.187
        35  -8.9252     37.9345     63.7212   1.2258603576e+02   5.9620988642e+01    0.2204663    0.1524507 -67.78 0.0006372097    1.564    0.360
        36 -12.2747     80.6072     47.3050   1.0172358155e+02   5.6950959237e+01     1.220333    0.6639907  19.87  0.004920917    2.881    0.653
        37 -11.8462    140.5165     40.5891   8.2786526311e+01   4.5139457729e+01     1.415797     0.669562  68.74   0.00512469    2.788    0.641
        38 -11.3442     96.5365     52.6189   9.8581230967e+01   5.3083476637e+01    0.6023868    0.3477756  45.59  0.002794647    1.792    0.442
        39 -10.4734    128.0078     47.9243   8.8236344403e+01   4.7062815754e+01    0.4761128     0.340655  38.72 0.0009299083    1.407    0.289
        40 -10.3890    206.9785     19.1715   6.5598934836e+01   3.0849587557e+01    0.8218398    0.3053288 -63.83  0.002195304    5.956    0.832
        41 -12.5237    112.4635    244.3918   1.3330926570e+02   1.1299570433e+01    0.8042114    0.6393837  52.67  0.004658157    1.059    0.056
        42 -10.6657    213.8369     26.6143   6.6817745655e+01   2.8283526195e+01    0.4636058    0.2632995 -71.44   0.00190926    2.103    0.524
        43  -9.8716    189.9413     37.3222   7.2882081228e+01   3.2990340313e+01    0.4522268    0.1618126 -38.85  0.001320804    2.629    0.620
        44  -9.7089    123.3636     82.9158   1.0091604579e+02   4.1878201504e+01    0.2985613    0.2281877 -56.69 0.0007803783    1.428    0.300
        45 -10.1361    108.8996     36.3025   8.8906268638e+01   5.3110196592e+01    0.9494411    0.1499483  45.52  0.002312646    6.172    0.838
        46 -11.4786    101.3865     70.0341   1.0307130463e+02   4.8928344982e+01    0.7581193    0.3602045 -33.14  0.002091024    2.348    0.574
        47 -10.7762    124.1095     67.5591   9.5895051549e+01   4.4644415121e+01    0.4075628    0.3520727 -25.20 0.0007945051    1.156    0.135
        48  -9.0534     19.4061     36.8004   1.2189835413e+02   6.6656277879e+01    0.1773802   0.08101716 -44.40 0.0009482625    1.687    0.407
        49  -9.8971    139.7885     28.9944   7.8889507641e+01   4.6844463871e+01    0.3543208    0.2455703  54.88 0.0006302562    1.351    0.260
        50 -11.1791    134.9296     67.2554   9.3038182047e+01   4.2232954412e+01    0.5452178    0.3402549  54.01  0.001371425    1.643    0.391
        51  -8.2798     81.0601     22.4731   9.1506729020e+01   6.0665916752e+01    0.2767801     0.181771  21.49 0.0009969929    1.604    0.376
        52  -8.1182     84.9256     21.4744   8.9844337757e+01   6.0056576209e+01    0.1846612    0.1248698  47.50  0.000491022    1.497    0.332
        53  -9.2889    158.4967     21.0132   7.2723439225e+01   4.3053200667e+01     0.208723    0.1415922 -24.10 0.0006233468    1.578    0.366
        54 -11.0249    136.0179     60.7359   9.0645052013e+01   4.3107036888e+01    0.5295513    0.3480298 -26.71   0.00204683    1.615    0.381
        55  -7.6655    180.5507    243.0174   1.2101247804e+02   8.0775082818e-01    0.1337249    0.1170935 -30.67 7.275845e-05    1.413    0.292
        56  -9.8951     75.0133     17.2981   9.1200832745e+01   6.2449064799e+01    0.2150033    0.1692514 -22.50 0.0002597239    1.230    0.187
        57  -9.6108     92.0315    233.4808   1.3589045748e+02   1.6102873615e+01    0.2203796    0.1362677 -46.19  0.001283168    2.428    0.588
        58  -7.4289    147.3063    231.2984   1.2547190964e+02   7.8797503562e+00    0.1150305   0.08869794  18.00 0.0004486622    1.590    0.371
        59 -12.1661     74.1428    249.0266   1.4034388984e+02   1.5968339688e+01     1.260158    0.3797743  42.08  0.006164501    2.597    0.615
        60 -11.3799    157.1660    223.1665   1.2252933160e+02   7.5061322928e+00     0.545768    0.3755967 -63.98  0.003176672    1.952    0.488
        61  -9.0046     65.9989    236.2693   1.4075219975e+02   1.9186219341e+01    0.1592746      0.11254  57.96 0.0004649672    1.099    0.090
