#   1 NUMBER                 Running object number                                     
#   2 MAG_AUTO               Kron-like elliptical aperture magnitude                    [mag]
#   3 X_IMAGE                Object position along x                                    [pixel]
#   4 Y_IMAGE                Object position along y                                    [pixel]
#   5 X_WORLD                Barycenter position along world x axis                     [deg]
#   6 Y_WORLD                Barycenter position along world y axis                     [deg]
#   7 A_WORLD                Profile RMS along major axis (world units)                 [deg]
#   8 B_WORLD                Profile RMS along minor axis (world units)                 [deg]
#   9 THETA_WORLD            Position angle (CCW/world-x)                               [deg]
#  10 FWHM_WORLD             FWHM assuming a gaussian core                              [deg]
#  11 ELONGATION             A_IMAGE/B_IMAGE                                           
#  12 ELLIPTICITY            1 - B_IMAGE/A_IMAGE                                       
         1 -10.7327     45.2835     32.0659   5.9580612385e+01   6.4426516419e+01    0.2604556    0.1703164 -39.55  0.001039467    1.363    0.266
         2 -10.1878      8.4565      8.9600   6.6980220997e+01   7.1730895160e+01    0.1774349    0.1514523 -85.55 0.0006238014    2.299    0.565
         3 -11.9759     17.0681     20.6113   6.7502073498e+01   6.9189121587e+01    0.3350978    0.2681388   3.46 0.0009801367    1.303    0.233
         4 -11.5199      2.8232     20.7865   7.4387591024e+01   7.0142108601e+01    0.2692537       0.2354  86.97  0.002065401    1.817    0.450
         5 -12.2988    125.2780     17.3542   2.8460207181e+01   5.1609033012e+01     0.358644    0.2588358  -9.16 0.0003120611    1.546    0.353
         6 -10.3955     12.8421     12.2455   6.6156994665e+01   7.0882053516e+01    0.2261151     0.195829 -61.71  0.001219436    1.754    0.430
         7 -11.5185     35.2855     12.5305   5.5611001244e+01   6.8641032271e+01    0.3469284    0.2309669  46.20  0.002103786    2.270    0.560
         8 -11.2993     29.7854      7.9635   5.5998239345e+01   6.9909760773e+01    0.3380249    0.2374265  32.86  0.001964723    1.673    0.402
         9 -10.3658    207.8599     12.7088   1.4154652044e+01   3.1338671669e+01    0.2048331     0.186004 -25.40  0.000486947    1.298    0.230
        10 -11.8512    203.3584     11.8619   1.4427949028e+01   3.2560827883e+01    0.2586394    0.2331081 -53.33 0.0002162315    1.153    0.133
        11 -10.6594    153.1737     12.5821   2.1473550220e+01   4.5275630890e+01    0.2390684    0.1959928 -67.57 0.0002760987    1.343    0.256
        12 -12.3651     55.4512      9.9480   4.5963683880e+01   6.6265866733e+01    0.3758778    0.2466044  16.83  0.002264385    1.477    0.323
        13 -10.5935    164.9731     11.3246   1.9217705058e+01   4.2408033297e+01    0.2589548    0.1758733 -52.72   0.00108938    1.611    0.379
        14 -12.3037    125.8780     10.5181   2.5832162266e+01   5.2182618561e+01     0.367756    0.2633889 -38.85 -9.144904e-05    1.564    0.361
        15 -10.0126     64.4775     10.7231   4.2947876559e+01   6.4738691375e+01    0.2810086    0.1119018 -26.41  0.001269351    2.513    0.602
        16  -9.9222    176.7576     10.3654   1.7262085668e+01   3.9491487563e+01    0.2300634    0.1668602  14.78 0.0009347334    1.841    0.457
        17  -9.7542    134.8441     11.1471   2.4267549573e+01   4.9968200996e+01     0.191634     0.144239  36.90 0.0003826291    1.302    0.232
        18  -9.9649     90.8609     10.6134   3.4412670635e+01   5.9894258293e+01    0.2045343    0.1352433  34.72 0.0004026779    1.378    0.275
        19  -9.6425     23.5463      9.5303   5.9693712779e+01   7.0342726545e+01     0.225135    0.2127072 -73.98  0.001700805    1.879    0.468
        20  -9.7666     97.2437     10.0706   3.2420977423e+01   5.8639723557e+01    0.2040884     0.141823 -52.26    0.0010746    2.013    0.503
        21  -9.3604     85.9092     10.1738   3.5667075950e+01   6.0924545232e+01    0.1725253    0.1247601  24.93 0.0002784579    1.274    0.215
        22 -10.0856     45.5136      9.5629   4.9788766896e+01   6.7748015387e+01    0.1893502    0.1495138   0.22 0.0006145296    1.042    0.040
        23 -10.2023     42.2179      9.2089   5.1017905280e+01   6.8235048725e+01    0.1797329    0.1316897  11.07 0.0002398984    1.228    0.185
        24 -10.0741     16.4871      8.0124   6.2473487971e+01   7.1227101633e+01    0.2269491    0.1270395 -19.46 0.0008318659    1.659    0.397
        25 -12.8508     20.1474      2.3041   5.7927828282e+01   7.1700393394e+01    0.2591384    0.1905638  -0.58 0.0007085399    1.173    0.147
        26 -10.2949      3.4020      7.2381   6.8880643871e+01   7.2352592839e+01    0.2020044    0.1560708 -45.20  0.001557343    1.382    0.276
        27  -9.9034     88.6811      6.8363   3.3422474550e+01   6.0723428065e+01    0.2001108    0.1384178   7.90  0.001024803    1.480    0.324
        28  -9.9429     69.8422      6.4263   3.9097322896e+01   6.4312713605e+01    0.2341348    0.1287439 -14.92  0.001228472    1.881    0.468
        29 -10.3398    247.1097      5.9511   8.9584251842e+00   2.2727784940e+01    0.1891323     0.148544 -70.41 0.0003629976    1.046    0.044
        30 -11.4293    194.1028      4.7333   1.3562692980e+01   3.5647938980e+01    0.2291677    0.2134779 -60.14 0.0002868109    1.145    0.126
        31 -10.6811    151.6321      5.8857   1.9549106493e+01   4.6322210661e+01     0.226909    0.1628355  56.86 0.0003490984    1.234    0.189
        32 -11.2444    148.4576      2.4385   1.8925235253e+01   4.7430824164e+01    0.2785067    0.2632751  72.20 0.0004533947    1.073    0.068
        33 -10.6654    223.6157      3.8393   1.0413505668e+01   2.8443246638e+01    0.2188863    0.1374804  84.85 0.0005403925    1.451    0.311
        34 -10.2129    104.7150      4.2329   2.8137379209e+01   5.7608802024e+01     0.195991    0.1589717  59.32 0.0003663552    1.248    0.198
        35  -8.8813     48.3268      4.3951   4.6137400708e+01   6.7993437175e+01    0.2446409    0.1582186  28.30 0.0008585369    1.440    0.306
        36 -10.0600     44.1645      4.1497   4.7741347252e+01   6.8611092111e+01    0.1863456    0.1565043  21.25 0.0006023048    1.283    0.221
        37  -9.1276     39.2884      3.6596   4.9594504190e+01   6.9325809402e+01   0.09983629   0.08792435 -39.15 0.0007021599    1.642    0.391
        38 -10.2771     13.3844      2.8971   6.1673335284e+01   7.2244656950e+01    0.2181606     0.162014  32.59  0.001594309    1.831    0.454
        39  -9.8983    111.7789      6.1348   2.7239670720e+01   5.5864223180e+01    0.1791787    0.1747136  67.78 0.0005777962    1.177    0.150
        40  -9.9221    138.1818      2.1219   2.0514446590e+01   4.9997478738e+01    0.2011772    0.1605278  41.08 0.0003548039    1.195    0.163
        41 -10.5078     29.9767      1.3366   5.2659252338e+01   7.0767673926e+01    0.1662641   0.09468592  32.10  0.000426214    1.817    0.450
        42 -10.6566     11.3140    128.5454   9.2567981318e+01   4.6975233190e+01     0.255275    0.1908733 -89.11  0.001010067    1.117    0.105
        43 -10.2920    109.9686    250.5698   8.4755124837e+01   9.2726983140e+00    0.1753071   0.09100284  45.10 0.0003799351    1.521    0.343
        44 -13.0388     19.8889    248.2884   9.9554603193e+01   2.1600812744e+01     1.132406    0.3128196  41.19  0.005969028    2.949    0.661
        45 -12.2353     10.2913    245.1640   1.0087531584e+02   2.3158672756e+01    0.5283316    0.1951182 -69.22  0.003161864    2.686    0.628
        46 -11.3396      2.0477    248.6049   1.0225021376e+02   2.3401357123e+01    0.3305874    0.1883545  75.70  0.001702724    1.210    0.173
        47 -12.8649      4.8795    241.7098   1.0154718001e+02   2.4310050793e+01     0.653285      0.31749  86.13  0.004509043    1.611    0.379
        48  -9.7709     65.0290    125.2633   7.7920014551e+01   4.2224039550e+01    0.1766464     0.162178  89.84 0.0002007137    1.077    0.072
        49  -9.8309    208.6766    123.4330   4.2765790294e+01   1.3705697520e+01    0.1940498    0.1429929  39.66 0.0008262472    1.422    0.297
        50 -11.5653     11.2877    121.0300   9.1729441578e+01   4.8679988250e+01    0.4324479    0.2771663 -26.95 0.0007801232    2.288    0.563
        51  -9.5556     82.5041    118.1045   7.1677031881e+01   4.1386120963e+01    0.2103869     0.130407 -57.58 0.0004306597    1.483    0.326
        52 -11.4514     69.5588    116.2300   7.4931120074e+01   4.3738761335e+01     0.347087    0.2954197 -68.60  0.002030364    1.053    0.050
        53 -12.6645     23.4081    113.3305   8.7474217995e+01   4.9502067743e+01    0.2588183    0.2148743 -73.52 0.0002859102    1.043    0.042
        54  -9.8800     60.0125    114.5579   7.7318545206e+01   4.5402934839e+01    0.1783249    0.1343664  35.60 4.680952e-07    1.509    0.337
        55 -11.3953      2.7505    111.7676   9.2906748974e+01   5.1336461222e+01    0.3479222    0.1806433  88.01   0.00154369    1.906    0.475
        56 -12.3291     14.0035    107.1180   8.9230305025e+01   5.1642060355e+01    0.5662179    0.2211705 -71.62  0.002714263    2.072    0.517
        57 -10.8251      8.1753    110.2457   9.1258487364e+01   5.1333670973e+01    0.1743403     0.132776 -61.26 0.0007512677    1.173    0.147
        58 -10.6627      6.0038    103.9646   9.1062797334e+01   5.2883732092e+01    0.1774182    0.1361563 -73.03 0.0003625952    1.009    0.009
        59  -9.3421      1.2783    103.6827   9.2351170840e+01   5.3227918423e+01    0.1937933    0.0565676 -61.04 0.0008940782    2.335    0.572
        60  -9.5847    112.5596    102.4169   5.9539303314e+01   3.9675207325e+01    0.1480499    0.1434885 -59.96 7.937012e-05    1.008    0.008
        61 -10.6703    247.4985    101.5115   3.1015662181e+01   9.0049963450e+00    0.1409641    0.1276165 -38.28 0.0008105774    1.005    0.005
        62  -9.8031     81.1615    100.5272   6.8069407229e+01   4.5673855762e+01    0.2366408    0.1475348 -49.96 0.0005460575    1.468    0.319
        63 -10.3488     65.1628    100.2088   7.2804645720e+01   4.8072165269e+01    0.1929443    0.1580218  89.11  0.001087278    1.369    0.269
        64 -11.8547     17.8968     96.2607   8.6475564325e+01   5.3817915738e+01    0.5207859    0.3035234 -85.02  0.002876837    1.786    0.440
        65 -11.2582     20.9715     92.4615   8.4900526956e+01   5.4444890817e+01    0.3769502    0.2369818  86.64 0.0003201523    1.880    0.468
        66 -10.3714     56.1703     96.8642   7.4813444684e+01   4.9990104329e+01    0.2286497    0.1670781 -51.29 0.0002649226    1.206    0.171
        67 -10.0106     92.5910     93.4972   6.2879573728e+01   4.5367427656e+01    0.3665888    0.2456321 -81.98  0.001338977    2.350    0.574
        68  -9.7821     81.5335     94.6623   6.6498226188e+01   4.6943641294e+01    0.2358123    0.1655158  61.22 0.0009582333    1.798    0.444
        69 -10.7561     43.7635     94.3977   7.8149334847e+01   5.1957913125e+01    0.2873962    0.1757842 -32.57  0.001243403    1.965    0.491
        70 -10.7710     10.7622     93.9558   8.8268522225e+01   5.4822942534e+01    0.2171355    0.1515045 -64.25 0.0003681472    1.107    0.097
        71 -10.1452      7.7834     90.1093   8.8587278067e+01   5.5863073992e+01    0.3375413    0.1473991 -74.67   0.00169578    2.004    0.501
        72 -11.0090    125.2926     92.9942   5.3519892407e+01   3.9090163023e+01    0.2577713    0.2211592  46.82 0.0002200214    1.188    0.158
        73 -10.8413    105.8472     92.0040   5.8610945720e+01   4.3266475548e+01    0.2743087    0.2165112  56.73 0.0002847742    1.394    0.282
        74 -12.3296     66.6864     91.6208   7.0314432393e+01   4.9820008714e+01    0.2447314    0.2207663 -58.43 0.0002675836    1.041    0.040
        75 -11.4056     58.0732     91.4753   7.2992898286e+01   5.0980608399e+01    0.2682067    0.1988975 -29.36 0.0007531134    1.512    0.338
        76  -9.9426    217.8768     98.5004   3.4978234202e+01   1.6097663952e+01    0.2126889    0.1483911  55.35  0.000543093    1.497    0.332
        77 -12.3095    159.6632     89.3297   4.4002279005e+01   3.1916590707e+01    0.4870384    0.3212423  34.08 0.0001605216    1.800    0.444
        78  -9.3810     79.6818     89.3586   6.5688569582e+01   4.8417287992e+01    0.1436275    0.1097028  89.07  0.000704418    1.759    0.431
        79  -9.4671     95.8199     87.3751   6.0244386065e+01   4.6133928960e+01    0.1813417    0.1392282  28.31 0.0002845834    1.457    0.313
        80 -13.6394     65.5569     81.8774   6.8189011961e+01   5.2134246330e+01    0.4176721    0.3783506 -52.21 0.0007663243    1.053    0.050
        81  -9.3744     26.4834     85.5946   8.1884421351e+01   5.5548440138e+01     0.121958    0.1006847 -60.39 0.0001352646    1.024    0.023
        82  -9.9604     17.3973     84.9064   8.4694758978e+01   5.6389935594e+01    0.1755477    0.1187199 -61.58 0.0004533738    1.155    0.134
        83  -9.8809     31.2000     87.2104   8.0677802783e+01   5.4788840844e+01    0.1522452    0.1270388 -82.64 0.0002694169    1.242    0.195
        84 -10.4409      7.3088     83.9859   8.7767679862e+01   5.7240326698e+01    0.2468667     0.156205 -56.50 0.0007854229    1.239    0.193
        85 -10.7076      8.9743     80.4893   8.6644152610e+01   5.7906814689e+01    0.2336257    0.1948058  52.55 0.0009244316    1.486    0.327
        86 -10.7296      3.1977     81.0632   8.8608758790e+01   5.8107704439e+01    0.2396559    0.1273128 -50.99  0.001435952    1.532    0.347
        87 -11.5442      4.9883     75.6032   8.7110006565e+01   5.9193170198e+01    0.3086553     0.172979 -57.33  0.001217377    1.333    0.250
        88  -9.9530     86.8603     78.6454   6.0470894222e+01   4.9559600454e+01    0.2659413     0.178941  20.39  0.001251942    1.889    0.471
        89 -10.3349     47.9877     79.0473   7.3289235063e+01   5.4931785937e+01    0.2007326     0.163345 -46.86 0.0004849792    1.058    0.055
        90  -9.7187    176.8213     76.8266   3.6780512520e+01   3.0001524635e+01    0.3010383    0.1912431  65.19  0.001272548    1.702    0.412
        91  -9.8551    180.4882     76.4011   3.5934005623e+01   2.9154146407e+01    0.2223677    0.1461111  66.07 0.0001040459    1.635    0.388
        92  -9.5558     74.8764     76.7639   6.3739851289e+01   5.1885635568e+01    0.1727486    0.1560822 -85.17  0.001006308    1.305    0.234
        93 -11.1183     11.9322     76.7265   8.4989320171e+01   5.8544686060e+01    0.2303009     0.130472 -40.73  0.001013163    1.677    0.404
        94  -9.8721    116.4620     72.2465   4.9748085036e+01   4.5181490063e+01    0.2930079    0.1892255  24.23  0.001030325    2.060    0.514
        95  -9.6421    105.8547     71.8555   5.2648153174e+01   4.7437641852e+01    0.1923485    0.1645876  63.71  0.000744902    1.344    0.256
        96 -10.4373     45.8081     70.6003   7.1868679632e+01   5.6989789366e+01    0.4375265    0.1715389 -58.22  0.001853424    2.395    0.583
        97  -9.4334    142.5097     71.5139   4.2759955608e+01   3.9430609207e+01    0.1537718    0.1474703  18.05  0.000809382    1.073    0.068
        98 -13.1003     80.9216     67.3103   5.8923273854e+01   5.2873314437e+01    0.4446927    0.3749102 -10.46 0.0006872278    1.242    0.195
        99 -10.0973     38.5916     69.6441   7.4166138095e+01   5.7941554078e+01     0.309919    0.1860229  63.35  0.001435042    3.066    0.674
       100 -10.1263      1.7577     70.5819   8.7316985020e+01   6.0436378710e+01    0.1315473    0.1050211  38.13 0.0009484528    1.614    0.381
       101 -11.8889    211.9847     67.3880   2.7957421393e+01   2.2780364820e+01     0.264047    0.2410391 -51.60  0.000326365    1.054    0.051
       102 -10.2500     63.7952     66.3661   6.4383871172e+01   5.5652152960e+01    0.2905324    0.1431853 -51.31  0.001083391    1.882    0.469
       103 -11.4958     17.2301     63.4067   8.0362812818e+01   6.1039847893e+01    0.3219196    0.2627721 -37.17  0.001149553    1.158    0.136
       104 -13.6458     20.9342     58.6089   7.7826507082e+01   6.1770086241e+01    0.5542334    0.3307135 -65.73 0.0008221073    1.615    0.381
       105 -11.5473    128.5131     63.5193   4.3729810875e+01   4.4147272756e+01    0.2898662    0.2582182  54.12 0.0005769084    1.140    0.123
       106 -11.1871     51.2036     62.4706   6.7659647488e+01   5.8062811991e+01    0.4605196    0.2440256 -65.58  0.001801618    2.649    0.622
       107 -11.1243      7.4585     63.3146   8.3908557083e+01   6.1668797274e+01    0.2180035    0.1117496 -58.94 0.0007820606    1.452    0.311
       108  -9.7939    119.9281     62.6089   4.5701857462e+01   4.6232831775e+01    0.1937544    0.1792902  39.46  0.001057734    1.079    0.073
       109  -9.9649     98.3660     60.9877   5.1357803815e+01   5.0977471424e+01    0.2027173    0.1680733 -37.39 0.0004609641    1.167    0.143
       110  -9.9822     38.6837     60.2852   7.1610484291e+01   5.9880579473e+01    0.2003007    0.1788767 -61.22  0.001351342    1.224    0.183
       111 -11.6637     11.6668     59.6671   8.1565543345e+01   6.2180505588e+01    0.2147358    0.1875709 -28.84 0.0002322569    1.216    0.177
       112 -10.0509    229.1626     56.4985   2.2712393112e+01   2.0299733857e+01    0.2081887    0.1785323 -48.41 0.0007238706    1.094    0.086
       113  -9.4921    130.7317     57.3045   4.1135933986e+01   4.4716957419e+01    0.1442227    0.1165668 -70.58 0.0002540458    1.532    0.347
       114 -10.1471     71.7758     56.8968   5.8610671120e+01   5.6354505896e+01    0.2159545    0.1735491  72.30 0.0006349561    1.864    0.464
       115 -11.1724     58.5789     58.9691   6.3931561794e+01   5.7837992031e+01    0.2380545    0.1833605  25.97 0.0006384164    1.421    0.296
       116 -13.2734    114.7825     53.4910   4.4047688817e+01   4.8945336651e+01    0.3559532    0.3279798  34.74  0.000630941    1.070    0.065
       117 -12.0548     86.0383     54.0703   5.2869996796e+01   5.4518909046e+01    0.3190374    0.2433619  22.12            0    1.394    0.282
       118 -10.0106     81.3039     52.0780   5.3728492196e+01   5.5699696992e+01    0.1921277    0.1807366 -57.77 0.0003636109    1.263    0.208
       119 -12.0514     65.8990     52.5193   5.9188355529e+01   5.8058072044e+01    0.5233964    0.2603872  31.93  0.001962526    2.228    0.551
       120 -11.0223     61.9850     49.9423   5.9709734265e+01   5.9096750771e+01     0.206157    0.1784057 -26.67 0.0003666384    1.025    0.024
       121  -9.5893     33.7985     55.1983   7.1996785421e+01   6.1382327606e+01    0.1729775   0.09374708   9.32 0.0008666108    2.501    0.600
       122 -10.2633    225.3221     52.6756   2.2260338857e+01   2.1790034245e+01    0.2762543    0.1728204 -32.96 0.0009447203    1.600    0.375
       123 -10.1660    222.3446     50.8892   2.2201474550e+01   2.2775188718e+01    0.2537414    0.1965969  83.73 0.0003456209    1.301    0.231
       124 -12.2431    105.8204     49.5620   4.5207999744e+01   5.1499592497e+01    0.5659356    0.3679538 -54.80 0.0006003165    1.982    0.495
       125 -10.4235     98.1958     52.1981   4.8397370993e+01   5.2585368264e+01    0.3722117    0.2759893 -59.49  0.001437108    1.743    0.426
       126  -9.6997    148.7097     52.0022   3.5180821208e+01   4.1258198101e+01    0.1985576    0.1912346 -35.91 0.0003299569    1.070    0.066
       127 -10.3139    138.1767     50.2089   3.6983373631e+01   4.4114980202e+01     0.224455    0.1939292  28.56 0.0005514488    1.196    0.164
       128  -9.8056    121.1489     47.5471   4.0288015282e+01   4.8510460717e+01    0.5038099    0.2567155  23.19  0.001557256    4.215    0.763
       129 -10.0297     54.2517     48.1224   6.1941298051e+01   6.0475533162e+01     0.323238    0.1474894 -58.08 0.0008881674    3.294    0.696
       130  -9.9716    156.0934     46.7122   3.1932839784e+01   4.0222814609e+01    0.3707935    0.1596949  53.08  0.001057053    2.157    0.536
       131 -10.6101     67.1874     45.1279   5.6120189125e+01   5.9203837564e+01    0.2263268    0.1821592  -4.47 0.0008216681    1.227    0.185
       132 -11.3642     36.8536     41.7439   6.6553336228e+01   6.3671082400e+01     0.484392    0.2301836  24.27  0.002024458    2.424    0.588
       133 -10.5173     25.3179     43.7695   7.1931004744e+01   6.4369337057e+01    0.3990723    0.2324974  -5.64  0.001793032    2.171    0.539
       134 -10.1937     17.1385     44.0414   7.5382956170e+01   6.4952203384e+01    0.2538196    0.2053716  84.81   0.00170637    1.828    0.453
       135  -9.4190      2.0696     45.5291   8.1964721650e+01   6.5570969490e+01    0.1399276    0.1061551   1.27  0.001020302    1.558    0.358
       136  -9.9136    117.6070     44.5000   4.0151094452e+01   4.9780250527e+01    0.2553792     0.214898   7.96 0.0005605067    1.254    0.202
       137  -9.8374    116.9925     41.2479   3.9157110545e+01   5.0411909137e+01    0.1941053     0.178134  44.66 0.0002261602    1.088    0.080
       138 -12.8325    141.5080     40.5464   3.3009019220e+01   4.4758792636e+01    0.3103049    0.2915384 -80.39 0.0005900048    1.146    0.128
       139 -11.3488    183.5397     40.0336   2.4919125455e+01   3.4140061448e+01    0.5477598    0.3146283  81.69  0.002263163    2.110    0.526
       140 -10.1091    110.4900     40.8855   4.0776585722e+01   5.1891106599e+01    0.2235015     0.197321  89.25 0.0008668379    1.434    0.303
       141  -9.7338     57.9982     40.3570   5.7747523375e+01   6.1365190608e+01    0.1724671     0.151683  -6.93 0.0007354338    1.074    0.069
       142 -10.3522     18.2277     39.3809   7.3526166022e+01   6.5762096484e+01     0.230067    0.1027679 -46.04 0.0008855007    1.698    0.411
       143 -12.0511    121.5445     37.1345   3.6515201069e+01   4.9984345503e+01     0.447476    0.3110744 -36.39 0.0007828663    1.493    0.330
       144  -9.6525    116.9879     32.7969   3.6097074135e+01   5.1621887062e+01    0.1995502    0.1640665  47.51 0.0004003978    1.163    0.140
       145 -10.6056     81.3127     38.8162   4.8862876845e+01   5.7946133206e+01     0.236829     0.204495  -1.87  0.000529509    1.062    0.058
       146 -10.5262     82.0559     35.2733   4.7248635773e+01   5.8367420830e+01    0.2480431    0.2402223  28.03  0.001420935    1.224    0.183
       147 -10.4290     51.5947     38.9238   5.9671097891e+01   6.2468710289e+01    0.2087788    0.1728984  30.09 0.0005881447    1.367    0.269
       148  -9.6242     29.7742     45.6550   7.0704073154e+01   6.3620861778e+01    0.2023285    0.1412009  23.16 0.0006601186    1.643    0.391
       149  -9.7027    191.8253     38.1922   2.3105769056e+01   3.2258027577e+01      0.18591    0.1598261  44.66  0.000243799    1.267    0.211
       150 -10.4818    177.2065     35.9454   2.4749273859e+01   3.6334861193e+01    0.2084237    0.1974314 -89.32 0.0004662453    1.026    0.025
       151  -9.8059    101.9381     35.5898   4.1223519486e+01   5.4480924627e+01     0.286714    0.2011028 -89.12 0.0007331712    2.767    0.639
       152 -10.0193     14.3822     34.7969   7.3739420516e+01   6.6894442522e+01    0.2223947    0.1205224  -3.27  0.001262662    2.297    0.565
       153  -9.9061      2.8205     35.6216   7.9042127793e+01   6.7446642942e+01    0.1235655   0.09929102  24.41 0.0003350139    1.603    0.376
       154 -10.0160     49.6101     33.3312   5.8329339941e+01   6.3675019650e+01    0.2200606    0.1066606 -45.22 0.0006295842    1.976    0.494
       155  -9.8469     28.1647     33.6676   6.7367410218e+01   6.5981755638e+01    0.1625028    0.1015754 -30.06 0.0005447763    1.383    0.277
       156 -12.4435    144.4691     31.0631   2.9202157817e+01   4.5318868709e+01    0.3284438    0.2839847 -47.67 0.0003936298    1.246    0.198
       157  -9.8566    128.1288     32.8742   3.3401828841e+01   4.9042352898e+01    0.2026929    0.1887219  81.39 0.0006306382    1.184    0.156
       158  -9.5190    230.2123    247.3881   6.3021998665e+01  -9.4174816094e+00    0.1506275   0.09035636  41.14 0.0004104198    1.513    0.339
       159 -12.6321     11.1192     29.7825   7.3561175424e+01   6.8033049959e+01    0.2429959     0.212006 -35.86  0.000899682    1.199    0.166
       160 -10.7779     90.6552     30.6789   4.2694764706e+01   5.7442639048e+01    0.2770922    0.1939638  29.21  0.001494168    1.413    0.292
       161 -11.7789     91.0757     26.6923   4.0981325174e+01   5.7911567888e+01    0.2805461    0.2146529 -27.52 0.0002530316    1.303    0.233
       162 -11.0217    135.7087     29.1242   3.0380811742e+01   4.7717629620e+01    0.2349731    0.2003124  50.05 0.0002887247    1.091    0.083
       163  -9.6409     39.1679     29.8993   6.1269735255e+01   6.5504728243e+01    0.1673215    0.1178491 -15.78 0.0005077644    1.323    0.244
       164 -10.7213     67.7983     26.9666   4.8832777573e+01   6.2036318944e+01    0.2656286    0.2623724   4.37  0.001818021    1.343    0.255
       165  -9.3160    131.7393     26.3222   3.0264883669e+01   4.9025927562e+01     0.135687    0.1070063 -63.15 0.0002508052    1.552    0.356
       166 -10.0103     80.2926     26.4528   4.4304794759e+01   5.9973117903e+01    0.2771823    0.1271236  54.79  0.001096298    2.914    0.657
       167 -10.8061     60.0834     24.1807   5.0520426964e+01   6.3646187752e+01    0.3289884    0.2026234 -48.96  0.001732255    2.140    0.533
       168  -9.7874     51.7085     24.4282   5.3887581267e+01   6.4812814970e+01    0.2520141    0.1376036 -47.79   0.00128452    2.215    0.549
       169 -10.4742    212.9865     31.9701   1.8542793521e+01   2.7717189991e+01    0.2063732    0.1864835 -79.48  0.001207566    1.017    0.016
       170 -10.6971     33.0856     24.2577   6.1646104171e+01   6.7097319293e+01    0.2022799    0.1636183 -13.75 0.0003798748    1.069    0.065
       171 -10.2425     31.3916     20.8073   6.0981151959e+01   6.7828425659e+01      0.17995     0.143579 -12.75 0.0006053626    1.068    0.064
       172 -10.0027     25.8062     23.4268   6.4564622253e+01   6.7959255678e+01    0.2834969    0.1182358 -43.50  0.001484897    1.957    0.489
       173  -9.5623    100.8499     22.8016   3.6585607834e+01   5.6433612968e+01    0.1756551    0.1639042 -76.87 0.0006957172    1.367    0.268
       174 -10.2363    131.3691    247.0639   8.0572694918e+01   6.4652216210e+00     0.160077    0.1347619  61.49  0.000563854    1.116    0.104
       175 -10.2240     21.5515     21.9385   6.5926320445e+01   6.8591398879e+01    0.2092228    0.1259096 -15.62 0.0009652328    1.675    0.403
       176 -10.2999    115.9741    246.6913   8.3297079594e+01   8.9689112224e+00    0.1660882    0.1260755  54.34   0.00058399    1.023    0.023
       177  -9.2085    170.4983    246.5069   7.3427967790e+01   1.4841144796e-01    0.1222356   0.09614664  37.26 0.0008099704    1.058    0.055
       178  -9.7802     83.9845     22.3054   4.1398344545e+01   5.9851298284e+01    0.1837717    0.1580519  15.21 0.0008988105    1.032    0.031
       179 -10.7336     52.2230    244.6801   9.4176435174e+01   1.8422770439e+01    0.2089383    0.1615195  52.98  0.001382231    1.325    0.245
       180 -10.8812    204.1589     18.6226   1.6114563214e+01   3.1590529002e+01    0.3305916    0.1491103 -34.30  0.001428575    2.181    0.541
       181  -9.6833    190.6846     20.7003   1.8358231946e+01   3.4775485043e+01    0.1407335    0.1017867  39.87 0.0004720575    1.612    0.380
       182  -9.9775    163.4906     19.9522   2.2123287607e+01   4.1853745447e+01    0.1926982    0.1420156 -25.87  0.000348318    1.493    0.330
       183  -9.9181    147.3910    243.7595   7.7275178978e+01   4.3652033618e+00    0.1416271    0.1165099 -36.84 0.0006434594    1.616    0.381
       184  -9.8398    238.3058     19.5858   1.2777489654e+01   2.3151990787e+01    0.1782335    0.1132498  63.95 0.0009453306    1.593    0.372
       185 -10.6430     70.9215     18.7908   4.4256431298e+01   6.2649367286e+01    0.2041255    0.1593321 -12.17 0.0003811982    1.164    0.141
       186 -11.0971    139.9025     18.0190   2.5679564648e+01   4.8008719996e+01    0.2535943    0.1800433  54.78 0.0002736839    1.268    0.212
       187 -10.1275    134.9661     18.0896   2.6683142205e+01   4.9208243020e+01    0.2045368    0.1858236  54.07  0.000366045    1.029    0.028
       188  -9.0263     37.6592     18.2935   5.7133745928e+01   6.7520452462e+01   0.09854092   0.09534181 -69.30 0.0004768554    1.654    0.396
       189 -10.3868     14.2543     15.9893   6.7012175125e+01   7.0172609066e+01    0.1829523    0.1444151  -2.16 0.0003871464    1.253    0.202
       190  -9.5124    215.3749     16.1704   1.4231392172e+01   2.9076535945e+01    0.1920258    0.1088293 -45.02 0.0004266363    1.672    0.402
       191  -9.7573    159.7221     15.9855   2.1488849354e+01   4.3256060685e+01     0.181454    0.1792102  23.59  0.000379499    1.113    0.102
       192 -11.5135      2.5660    233.0464   1.0153161955e+02   2.6074912521e+01    0.2992479    0.1949958  43.98  0.001586563    1.653    0.395
       193  -9.0916    194.5098    242.5575   6.8552081466e+01  -3.2508891672e+00    0.1216836   0.09607227  33.92 0.0008077206    1.017    0.016
       194  -8.9981    202.6518    241.6824   6.6967361282e+01  -4.4555931440e+00    0.1246642   0.08017836  16.51 0.0007048227    1.730    0.422
       195  -9.7353     72.3438    238.3263   9.0261491462e+01   1.6878754097e+01   0.09612595   0.09242803   3.38 0.0007050801    1.741    0.426
       196 -11.3781     26.7212    237.0273   9.7890727514e+01   2.2831856201e+01    0.1529303     0.102876  77.45 0.0004646518    1.096    0.087
       197  -9.4340     59.0227    236.0102   9.2400987431e+01   1.9092300311e+01    0.1359746   0.09972911  69.67 0.0003269874    1.017    0.017
       198  -8.9544    204.2611    235.6364   6.5765490764e+01  -3.9283923129e+00     0.107266   0.09331416  70.82 0.0006500788    1.637    0.389
       199  -9.4687    174.0000    234.9883   7.1204086247e+01   1.2200258006e+00     0.167414   0.07247706 -45.61 0.0004083324    2.838    0.648
       200 -10.0547     32.3410    233.1479   9.6741404933e+01   2.2899483116e+01    0.1619109    0.1189861  58.33 0.0004108809    1.234    0.190
       201 -10.6720     56.7975    229.1072   9.2260119172e+01   2.0652726256e+01    0.2467649    0.1671137 -70.75  0.001110919    1.570    0.363
       202 -10.1341    246.0418    230.3539   5.7603438858e+01  -9.8155454288e+00    0.2294379    0.1186141  35.68 0.0004931783    1.652    0.395
       203  -9.8872    140.0714    227.8600   7.6622690541e+01   8.1442694767e+00     0.221279    0.1252124  62.44  0.001090566    2.057    0.514
       204 -10.6938      1.3760    227.2434   1.0146387410e+02   2.7242503468e+01    0.1651634   0.09254649 -82.49 0.0004384799    1.496    0.331
       205  -9.8168    230.9184     10.5184   1.1340068457e+01   2.5961060603e+01    0.1866392    0.1170214  77.44 0.0003503647    1.478    0.324
       206 -11.8490      3.4283    221.5265   1.0087291336e+02   2.8103170728e+01    0.4981783    0.1715129  83.31  0.002391919    2.760    0.638
       207 -10.8714      7.6831    221.4590   1.0017447148e+02   2.7702938834e+01     0.248343   0.09708054 -82.92  0.001433384    2.129    0.530
       208  -9.7939    223.4590    226.4976   6.0873748131e+01  -5.8516731813e+00    0.1227804   0.09947684  21.11 7.441137e-05    1.007    0.007
       209 -10.5314    247.4931    127.0144   3.6868452610e+01   4.8238319985e+00     0.205653    0.1056638 -53.12 0.0008102544    2.599    0.615
       210  -9.5118     85.7397    215.0202   8.5595717168e+01   1.9298945556e+01    0.1618354    0.1330828  80.37            0    1.099    0.090
       211  -8.8330    244.3140    214.3609   5.5148179403e+01  -7.6075019644e+00    0.1296866   0.08084443   7.02 0.0007042173    1.754    0.430
       212  -9.7005    111.3160    214.6698   8.0537038811e+01   1.5342927967e+01    0.1352658   0.08565579  69.83  0.000423647    1.681    0.405
       213 -10.4125     39.2625    207.1955   9.3741431811e+01   2.7083802533e+01    0.1707605    0.1381702  60.41  0.000442334    1.244    0.196
       214 -11.0568      5.4547    207.2125   9.9813423434e+01   3.0646107887e+01    0.1752205    0.1631298  36.57   0.00146302    1.699    0.411
       215  -9.5950     21.5175    180.0001   9.5043710719e+01   3.4668272186e+01    0.1974699   0.09796084  45.99  0.001141219    1.901    0.474
       216  -9.3784    229.3118    165.3541   4.8356301879e+01   2.0851932609e+00    0.1452719    0.1013693   4.06 0.0007044544    1.730    0.422
       217  -9.6829     15.6950    163.2841   9.4882678443e+01   3.8841801239e+01    0.1192016   0.06916618  71.02  0.000220344    1.561    0.359
       218  -9.4314     10.4991    161.4929   9.5839317903e+01   3.9687606505e+01    0.1163424   0.08792039 -87.83 -0.0002056897    1.045    0.043
       219  -9.6144     20.6962    152.7015   9.2823024173e+01   4.0740382101e+01    0.1125182   0.07942324 -53.85 0.0002021564    1.586    0.369
       220 -10.1274      7.1239    147.6890   9.5420670628e+01   4.3001029230e+01    0.2103318    0.1237105 -88.20 0.0007767402    1.362    0.266
       221 -10.3252     28.8161    139.9709   8.9539204239e+01   4.2881199073e+01     0.344385    0.1286056 -67.45 0.0009343025    2.125    0.529
       222  -9.3873    235.6837    138.3298   4.1367158517e+01   5.3102018128e+00      0.13965    0.1107006 -67.66 0.0007046101    1.681    0.405
       223 -10.0950     95.9799    133.7780   7.1272452373e+01   3.5501006124e+01    0.2555365    0.1958867 -60.37 0.0005723886    1.235    0.190
       224  -9.8438      1.5032    132.5238   9.5360922824e+01   4.6778343871e+01    0.1164107   0.08708442 -81.32 8.153571e-05    1.020    0.020
       225  -9.5390     21.9998    131.2504   9.0194889422e+01   4.5501201901e+01    0.1295232    0.1039663  37.58 0.0003509346    1.502    0.334
       226  -9.8351     52.9027    129.8950   8.1979106861e+01   4.2661652873e+01    0.1911184    0.1588674 -55.60 0.0004571757    1.216    0.177
       227  -9.0231    109.2907     12.6676   3.0383337050e+01   5.5771925952e+01    0.1267945    0.1028073 -62.86 0.0007020464    1.630    0.386
