#   1 NUMBER                 Running object number                                     
#   2 MAG_AUTO               Kron-like elliptical aperture magnitude                    [mag]
#   3 X_IMAGE                Object position along x                                    [pixel]
#   4 Y_IMAGE                Object position along y                                    [pixel]
#   5 X_WORLD                Barycenter position along world x axis                     [deg]
#   6 Y_WORLD                Barycenter position along world y axis                     [deg]
#   7 A_WORLD                Profile RMS along major axis (world units)                 [deg]
#   8 B_WORLD                Profile RMS along minor axis (world units)                 [deg]
#   9 THETA_WORLD            Position angle (CCW/world-x)                               [deg]
#  10 FWHM_WORLD             FWHM assuming a gaussian core                              [deg]
#  11 ELONGATION             A_IMAGE/B_IMAGE                                           
#  12 ELLIPTICITY            1 - B_IMAGE/A_IMAGE                                       
         1 -14.3082    164.2132     47.6664   7.8215434496e+01   3.8307904617e+01     1.652667     1.259481  21.40  0.005819732    1.663    0.399
         2 -14.3679    177.6545     32.2698   7.1563354913e+01   3.7026902599e+01    0.9841119    0.9028765 -30.39   0.00385097    1.242    0.195
         3 -13.6615    181.7036     25.5495   6.9139294779e+01   3.6838252862e+01    0.5999461    0.4761097  65.42  0.001152514    1.133    0.117
         4 -13.5152    191.0819     15.1132   6.5166967823e+01   3.5712177146e+01    0.5659156    0.3749801  89.40  0.002627949    1.470    0.320
         5 -13.9883    195.6755      3.7105   6.1814844124e+01   3.5777893667e+01     1.205095    0.5614537  66.07  0.004488319    1.792    0.442
         6 -11.3861    157.1604    218.8927   1.2011741816e+02   5.9521739245e+00    0.2144225    0.1778437  67.51 0.0008722111    1.267    0.211
         7 -19.7305     48.2627    162.9654   1.3581552574e+02   3.6012972409e+01      19.8374     5.618861 -69.21   0.06928647    3.494    0.714
         8 -10.9415    133.0595    213.5131   1.2426420440e+02   1.1422894543e+01    0.2123051    0.1233497  44.25 0.0005859241    1.548    0.354
         9 -11.0442    157.2781    192.2728   1.1552724869e+02   1.1128039549e+01    0.2273842    0.2032697 -63.14 0.0003814935    1.192    0.161
        10 -10.5475     24.5597    213.1040   1.4580878410e+02   2.7589147965e+01    0.1067976   0.05311714  50.63 0.0006034442    1.793    0.442
        11 -10.7021     10.2766    213.8327   1.4839349298e+02   2.8924214952e+01    0.1192398    0.1001372  43.18 0.0005714456    1.593    0.372
        12 -11.9483    207.5988    183.7633   1.0333381139e+02   2.7514820204e+00    0.3648727    0.3575297  -0.55  0.001139471    1.083    0.077
        13 -11.9929    210.7859    181.2394   1.0218724287e+02   2.5882384555e+00    0.4791127    0.3124982 -27.64  0.001978738    1.677    0.404
        14 -11.6909    197.9185    175.6923   1.0362647454e+02   6.2016017431e+00    0.4146999    0.3124896 -51.96  0.001020546    1.450    0.310
        15 -10.7156    145.5821    178.2947   1.1550107595e+02   1.6409400325e+01    0.2425342    0.1806822  23.46 0.0002402033    1.673    0.402
        16 -11.9232    128.6293    206.3665   1.2410234107e+02   1.3680249861e+01    0.3161145    0.2263985  24.80  0.001575543    1.813    0.448
        17 -12.8806    136.4398    171.1073   1.1621271677e+02   1.9820953781e+01    0.9106945    0.5119861  59.35  0.003660335    2.116    0.527
        18 -11.7256    203.9315    168.2435   1.0083196415e+02   6.4012361792e+00    0.4999767    0.4788853  40.57  0.002097549    1.069    0.065
        19 -10.1051    211.1480    202.8087   1.0638097932e+02  -1.2805300397e+00    0.1887562    0.1829471  43.79 0.0006266704    1.188    0.158
        20 -11.1666    145.9260    168.4666   1.1349138057e+02   1.8496822526e+01    0.2341497    0.2057763 -57.16 0.0005334472    1.160    0.138
        21 -11.1559    230.0060    165.9873   9.5312284537e+01   1.5957050015e+00    0.2179169    0.1778354 -74.45 0.0008449627    1.687    0.407
        22  -9.9308    122.0616    165.3170   1.1848429300e+02   2.3940479685e+01    0.2057971    0.1786029  61.35 0.0003416585    1.117    0.104
        23 -10.4414     13.8518    160.5927   1.4335017407e+02   4.0055402512e+01    0.2553352    0.1474439  84.97 0.0006789219    1.609    0.378
        24 -13.3438    103.5002    154.7075   1.2097790931e+02   2.9836473023e+01    0.8785301    0.5630195 -33.00  0.003783155    2.198    0.545
        25 -10.8580    139.6882    156.2321   1.1242666892e+02   2.2521619673e+01    0.2595106    0.2336438  51.76 0.0003767639    1.097    0.088
        26 -13.7627     11.8583    206.1552   1.4758971029e+02   3.0344588582e+01    0.5207191    0.2500054  36.60  0.003059658    2.337    0.572
        27 -13.2660    194.0331    193.9564   1.0809382686e+02   3.5321573614e+00     1.152694    0.7806044 -68.60  0.005179036    2.319    0.569
        28 -11.1767    161.9857    153.9647   1.0672406762e+02   1.8301561948e+01    0.2425506    0.2361456  67.35  0.000868431    1.006    0.006
        29 -10.2828      9.7773    153.4124   1.4352544098e+02   4.2004013957e+01    0.2065638    0.1749353 -13.73  0.001467273    1.742    0.426
        30 -12.2213    134.0560    145.5011   1.1146517491e+02   2.6131400115e+01     1.128064    0.3045793 -54.44  0.002868104    4.759    0.790
        31 -11.1383    174.5527    148.6598   1.0270638923e+02   1.6688546950e+01     0.364078    0.2664066 -50.57  0.001021834    1.394    0.282
        32 -12.0854    145.1064    146.4274   1.0898995754e+02   2.3606218268e+01    0.4622613    0.3433548 -82.75  0.002052799    1.730    0.422
        33 -11.4833     90.1484    147.6751   1.2300843241e+02   3.3773636276e+01    0.3376516    0.2418124  48.96 0.0003934891    1.445    0.308
        34 -12.0514    139.5136    198.9421   1.2055974170e+02   1.3195203533e+01    0.5857766    0.2979306  57.56  0.002360549    2.287    0.563
        35 -12.5884    111.4134    140.9373   1.1616585215e+02   3.1650386563e+01    0.6818433    0.5075618  -8.83  0.003030211    2.110    0.526
        36 -12.7364    101.3982    140.5363   1.1867399632e+02   3.3562992177e+01    0.2810194    0.2784136 -12.76 0.0009741414    1.137    0.121
        37 -11.7840    204.4371    198.5068   1.0687877683e+02   7.1382685492e-01    0.3486789    0.2419568 -19.85  0.001742292    1.699    0.411
        38 -12.0109      4.6257    139.6168   1.4325734540e+02   4.5481092247e+01    0.2567424    0.1711862 -51.34  0.001674931    1.517    0.341
        39 -11.1685    165.0366    205.3352   1.1621322582e+02   7.0247682771e+00     0.515951    0.2614068 -65.14  0.001858017    3.535    0.717
        40 -12.0416     17.3997    136.1489   1.3975874401e+02   4.5299174992e+01    0.2158225    0.1899789 -66.41 0.0004463934    1.174    0.148
        41  -9.6263    170.3188    136.6723   1.0085580265e+02   2.0195927358e+01      0.16239    0.1249675 -85.97 0.0002944406    1.682    0.406
        42 -11.3619    106.0000    131.0063   1.1539642178e+02   3.4979737438e+01    0.3539161      0.29598 -73.12  0.001203615    1.225    0.184
        43 -11.5560    106.0580    126.9496   1.1445698778e+02   3.5914340485e+01     0.518813    0.3273222 -41.52  0.001220637    1.650    0.394
        44 -11.7673    118.3909    130.2909   1.1197154106e+02   3.2796063134e+01    0.4006463    0.3623735 -11.18  0.001095425    1.292    0.226
        45 -11.1802    160.4779    128.2566   1.0106738898e+02   2.4243182871e+01    0.4550402    0.2777325 -34.64  0.001844557    1.839    0.456
        46 -11.9613    135.4580    122.6818   1.0575096643e+02   3.1017475802e+01    0.5995715    0.2272573 -51.75  0.001929194    2.851    0.649
        47 -11.1428    141.7743    126.8192   1.0519604560e+02   2.8730631473e+01    0.4175619    0.2924137  75.51  0.001280535    1.948    0.487
        48 -11.2988    125.4901    127.3133   1.0942722530e+02   3.2058146179e+01    0.3753168    0.2594584  80.74  0.001315292    2.130    0.531
        49 -10.7873    112.4226    119.4048   1.1095247386e+02   3.6452994819e+01    0.2684072    0.2493431 -87.55 0.0002905428    1.115    0.103
        50 -11.0025    168.8727    113.6135   9.5467686684e+01   2.5399650263e+01    0.3692846    0.2873321 -84.27 0.0009019278    1.605    0.377
        51 -10.6571    164.0754    111.1234   9.5904714565e+01   2.7043939921e+01    0.3343936    0.2744863  89.20 0.0006154599    1.428    0.300
        52 -11.4052      2.7014    112.6621   1.4048153184e+02   5.1592048606e+01    0.2864513    0.2092128 -23.64  0.001820754    1.729    0.422
        53 -10.5426    205.4977    110.1722   8.7088198167e+01   1.7414503749e+01    0.3258782    0.2204448  45.15  0.001095586    1.573    0.364
        54 -10.8763     85.9501    107.6606   1.1547793190e+02   4.3803728836e+01    0.3685483    0.2343739  59.35  0.001236482    2.107    0.525
        55 -10.9432    134.5703    104.1881   1.0118336604e+02   3.5234556463e+01    0.5521487    0.1471367 -45.89   0.00154323    3.769    0.735
        56 -10.1866    177.9641    196.9381   1.1198269860e+02   6.1202025200e+00    0.2599461    0.2091564 -81.89  0.001339711    1.632    0.387
        57 -10.6286     85.2927     77.0267   1.0734921352e+02   5.0374804885e+01    0.2191598    0.1934837  30.07 0.0004808551    1.184    0.156
        58 -10.9578    179.8063    192.8611   1.1082597580e+02   6.5392484192e+00    0.5105793    0.2691739 -61.96  0.001896671    3.083    0.676
        59 -10.2098     13.5552     59.9662   1.2720751671e+02   6.1938067522e+01    0.1612926     0.128707 -39.02 0.0004072444    1.050    0.048
        60  -9.7030    168.4418    248.4672   1.2236401057e+02  -1.1199346002e+00    0.1272857    0.1051891  45.29 3.464848e-05    1.050    0.048
        61  -9.2039    218.7114    241.7037   1.1185268327e+02  -8.5723516230e+00    0.1232295   0.08440255  10.38 0.0002162864    1.552    0.356
        62 -10.9382    195.0134    224.5124   1.1346344485e+02  -1.9591912692e+00    0.2135466    0.1170852  40.70  0.001040744    1.614    0.380
        63 -11.6248     21.8702     36.8790   1.1719942466e+02   6.5465475732e+01    0.3682235    0.1693907  20.92    0.0020622    2.392    0.582
        64 -11.5016    185.9900    221.1437   1.1466738682e+02   2.2969095410e-01    0.2621107    0.1781459  23.94   0.00135465    1.596    0.374
