#   1 NUMBER                 Running object number                                     
#   2 MAG_AUTO               Kron-like elliptical aperture magnitude                    [mag]
#   3 X_IMAGE                Object position along x                                    [pixel]
#   4 Y_IMAGE                Object position along y                                    [pixel]
#   5 X_WORLD                Barycenter position along world x axis                     [deg]
#   6 Y_WORLD                Barycenter position along world y axis                     [deg]
#   7 A_WORLD                Profile RMS along major axis (world units)                 [deg]
#   8 B_WORLD                Profile RMS along minor axis (world units)                 [deg]
#   9 THETA_WORLD            Position angle (CCW/world-x)                               [deg]
#  10 FWHM_WORLD             FWHM assuming a gaussian core                              [deg]
#  11 ELONGATION             A_IMAGE/B_IMAGE                                           
#  12 ELLIPTICITY            1 - B_IMAGE/A_IMAGE                                       
         1 -10.7937    224.9833     21.8945   4.4212180347e+01   2.5806764583e+01    0.7962251    0.3754529 -69.51  0.003095055    2.827    0.646
         2 -10.8523     87.9565     18.7206   6.6912490463e+01   6.0572004840e+01    0.5406855    0.3425834 -57.70  0.002402376    2.521    0.603
         3 -10.2112    149.7463     18.3331   5.2553336083e+01   4.5658793657e+01    0.3916637    0.3153675 -38.31  0.001157895    1.266    0.210
         4  -9.8774    155.2990     16.6600   5.1043033804e+01   4.4379353624e+01    0.3730752    0.2424444   3.62  0.001122162    1.916    0.478
         5  -9.5080    102.3902     16.1513   6.1607086583e+01   5.7704872863e+01    0.3785207    0.2097523 -21.14  0.001722491    1.808    0.447
         6 -10.4635     57.0359     13.2696   7.5177687748e+01   6.7181744532e+01    0.4619838    0.3487945  42.16  0.002764414    1.488    0.328
         7  -8.3495      5.8992      3.3018   9.6558798961e+01   7.5073668580e+01    0.2226023    0.1204749  45.13 0.0007149795    3.537    0.717
         8  -9.6320     10.1587     16.0811   1.0025183718e+02   7.2445811444e+01      0.27823    0.1418547 -44.37   0.00101723    1.466    0.318
         9 -10.8123      9.9238      9.3024   9.7177737387e+01   7.3707775401e+01    0.6494183    0.3102424 -39.76  0.003017315    1.599    0.375
        10 -10.7885    181.8570     13.9135   4.6454944381e+01   3.7646060192e+01       0.5316    0.4025107  71.37  0.002784216    1.285    0.222
        11  -9.5084    144.1088     14.7263   5.2158574006e+01   4.7522923622e+01    0.2608906    0.2073159  -8.84 0.0003979699    1.334    0.251
        12  -8.9449     34.6878     14.0104   8.5838619407e+01   7.0356031288e+01    0.3083572    0.1314119 -28.96  0.001360702    2.477    0.596
        13 -10.4877    123.6844     11.5749   5.4692389302e+01   5.3078629928e+01    0.5851376     0.268696  65.53  0.002372529    2.204    0.546
        14 -10.0377    209.7448      9.6423   4.2242835068e+01   3.0898346248e+01    0.3277864    0.2711867 -32.75 0.0009398658    1.193    0.162
        15  -9.7033     19.0706     10.9740   9.2639499658e+01   7.2606572754e+01     0.177601    0.1488973 -11.78 0.0003877121    1.168    0.144
        16  -8.8598     22.8035     10.4622   9.0256106778e+01   7.2315937576e+01     0.161854    0.1335065 -15.75 0.0004015543    1.110    0.099
        17  -9.1695    187.5346     10.2257   4.4639705122e+01   3.6535780376e+01    0.2791384    0.1691223 -79.12 0.0008760326    1.858    0.462
        18  -9.0174     93.0905     10.2919   6.1346475228e+01   6.0469263682e+01    0.1825388    0.1649131  41.06 0.0003564754    1.132    0.117
        19  -9.0553     72.7901      9.9120   6.7421529765e+01   6.4755727440e+01    0.2145445    0.1572897  10.43 0.0009805099    1.330    0.248
        20  -8.9979     41.9356     10.2427   8.0206877717e+01   6.9967249267e+01     0.168333    0.1492792  -9.57 0.0003602153    1.180    0.152
        21  -8.6918    226.8806      7.8413   4.0304447454e+01   2.6876831824e+01    0.1938776    0.1360776 -62.79 0.0004322295    1.329    0.248
        22  -8.9365    215.8729      8.5191   4.1388075408e+01   2.9487128468e+01    0.1928649    0.1281629  75.48 0.0009974168    1.496    0.331
        23  -9.2800     79.0213      7.5329   6.4113563408e+01   6.3781627568e+01    0.2715563    0.1910446 -18.42   0.00138052    1.341    0.254
        24  -9.0392     25.6836      5.6993   8.5970027625e+01   7.2766790844e+01    0.2150942    0.1262904 -29.41  0.000494714    1.403    0.287
        25 -10.7556     22.2649      3.8158   8.6793089638e+01   7.3447832169e+01    0.2299983    0.1693813   9.30 0.0002563695    1.362    0.266
        26  -9.7762     17.1395      3.5998   8.9684603635e+01   7.4025489460e+01    0.3220696    0.2147349 -38.02  0.002098291    1.269    0.212
        27  -8.6261    175.2025      4.6293   4.4237542619e+01   4.0311307121e+01     0.198833    0.1185335  61.18 0.0002612158    1.582    0.368
        28  -9.1863     89.3298      3.5899   5.9062115792e+01   6.1991569010e+01    0.2980167    0.2117342  31.95  0.001633076    1.314    0.239
        29  -8.7148    127.9100      5.4972   5.1360392859e+01   5.2598959767e+01    0.2154453     0.129821  61.67  0.001015235    1.553    0.356
        30  -9.1836    103.0902      1.9983   5.4860129219e+01   5.8997278158e+01    0.3052323    0.1671078 -15.14  0.001263517    1.869    0.465
        31  -8.5619     48.0204      3.5582   7.3514655724e+01   6.9958916325e+01    0.1644231    0.1135492  33.72 0.0004270308    1.458    0.314
        32  -9.6527    243.0697      1.7635   3.7616761486e+01   2.3714957214e+01    0.4122312    0.1563487  78.96  0.001544643    2.760    0.638
        33  -9.1791      2.3997    122.9042   1.2494871490e+02   4.8889148779e+01    0.1988653     0.144654 -30.21 0.0008560425    1.972    0.493
        34 -10.0721    101.6736    249.3701   1.1529953167e+02   1.2236558047e+01    0.2761323    0.1696521  60.73  0.001874189    1.442    0.307
        35  -8.8219     20.0048    121.2493   1.2009468440e+02   4.7975129829e+01    0.1729391    0.1313481 -80.99 0.0007645483    1.038    0.037
        36 -10.0708     69.4887    118.3804   1.0576456937e+02   4.3194320078e+01    0.3438754    0.2350335  85.16 0.0008191303    1.695    0.410
        37  -9.2383     98.2394    118.0103   9.7670317983e+01   3.8739676451e+01    0.2985687    0.2097712  20.81 0.0008616286    1.957    0.489
        38 -10.3132     57.8876    117.0595   1.0883111823e+02   4.5058694903e+01    0.3293638    0.2095719 -55.77 0.0004133106    1.440    0.306
        39 -10.6499     25.0271    116.0973   1.1808201265e+02   4.8775545224e+01    0.3690079    0.2877912  15.86 0.0008446424    1.734    0.423
        40 -10.1822     39.8327    114.9958   1.1369261876e+02   4.7631553952e+01    0.2774708    0.1966799  53.77  0.001202803    1.504    0.335
        41 -10.9508     22.1025    109.5882   1.1807806475e+02   5.0579323968e+01    0.5072682    0.4350006 -53.48  0.003436575    1.288    0.224
        42  -9.1971      8.2522    103.6233   1.2141686252e+02   5.3019202710e+01    0.2082638    0.1745426 -72.12   0.00145842    1.141    0.124
        43  -9.8137      7.8181    100.0391   1.2112528339e+02   5.3895040614e+01    0.1764093    0.1501125 -86.33  0.000315839    1.125    0.111
        44 -10.7026     11.6182    114.8099   1.2169508903e+02   5.0145055527e+01    0.2949498    0.2033066 -57.85  0.000750071    1.406    0.289
        45 -10.2563     14.1447    110.1302   1.2045488173e+02   5.1068604236e+01    0.4290634    0.2031144  74.94  0.001424364    2.485    0.598
        46 -10.3260      7.1491    108.2773   1.2225701744e+02   5.1992718277e+01    0.3002534    0.2403178  16.72 0.0009947533    1.690    0.408
        47  -9.5950     92.2685    122.5219   1.0026999771e+02   3.8703067011e+01    0.4006675    0.2406764  45.76  0.001858826    1.725    0.420
        48  -8.0843     35.6113    115.7313   1.1501728981e+02   4.7881811305e+01    0.1258625    0.0893415 -40.05 0.0006987238    1.710    0.415
        49  -9.8061      1.5489    112.6443   1.2426954288e+02   5.1324259235e+01    0.3627063    0.1238437 -85.21  0.000803258    2.650    0.623
        50  -9.4621     11.5147    122.9175   1.2255397482e+02   4.8248119617e+01    0.2698031   0.09558665  44.16  0.001269759    2.827    0.646
        51  -8.7778     62.4209    111.7622   1.0653361560e+02   4.5754287747e+01    0.1960113     0.113218 -54.07 0.0005872222    1.570    0.363
        52  -9.1973     49.8565    112.1221   1.1029790967e+02   4.7225925594e+01    0.1994012    0.1599561  89.75 0.0003666999    1.180    0.153
        53  -9.2323     66.5394    111.1061   1.0519392213e+02   4.5357224665e+01    0.3234037     0.199225  71.58  0.001453959    2.181    0.541
        54 -10.0964     71.9513    107.8042   1.0291029360e+02   4.5387162937e+01    0.3098664    0.2049733 -60.59 0.0004561516    1.352    0.261
        55  -8.6578    124.6234    113.0414   8.9479467174e+01   3.4858205769e+01    0.2073195    0.1808991 -49.70  0.001067151    1.113    0.101
        56  -8.8210     35.0351    107.2586   1.1390095451e+02   4.9982755768e+01    0.2511046    0.1536763 -70.54  0.001360864    1.350    0.259
        57  -9.6475    123.2638    105.6752   8.7932047448e+01   3.6764891203e+01     0.485546    0.2393974 -35.43  0.001689021    2.447    0.591
        58 -10.1875     80.1078    103.9992   9.9634001208e+01   4.5064797670e+01    0.3255528    0.2817253 -17.46  0.001200693    1.422    0.297
        59 -10.1284     16.0400    104.5650   1.1921511285e+02   5.2253055948e+01    0.2511606    0.2057606  54.16  0.001693914    1.369    0.269
        60  -9.4563    107.3849    103.5796   9.1664843036e+01   4.0399681661e+01    0.4269367    0.2300724  34.49  0.001708808    2.212    0.548
        61  -8.4211     46.6535    102.8428   1.0959152187e+02   4.9839883416e+01     0.184618    0.1103622 -75.57 0.0009107497    1.593    0.372
        62  -8.6548     95.4192    101.9978   9.4650169989e+01   4.2972698717e+01    0.2124478    0.1793281  44.15  0.001119538    1.270    0.213
        63 -10.4340     53.1648     99.1147   1.0682622113e+02   4.9985238169e+01    0.3859025     0.273145 -61.12  0.001048423    1.206    0.171
        64  -9.0625     42.6263    100.9383   1.1049137968e+02   5.0740590608e+01    0.1945512    0.1749661 -43.34 0.0004670964    1.249    0.200
        65  -9.2698    102.1616     98.1818   9.1715083207e+01   4.2620275787e+01    0.2094153    0.1755581 -82.31 0.0005373742    1.331    0.249
        66  -9.6585     69.3265     96.4171   1.0114380148e+02   4.8495410517e+01    0.3621963    0.2381096  60.91  0.001035528    1.897    0.473
        67  -9.4803    147.4843     95.9343   7.9177845769e+01   3.3519195437e+01    0.2460651    0.1506831 -42.72  0.001024502    1.583    0.368
        68  -8.9536     79.1786     95.2259   9.7787833972e+01   4.7289227719e+01    0.3041123     0.188286 -65.76  0.001384567    1.683    0.406
        69  -9.9514     36.9099     94.4053   1.1110044192e+02   5.2905414749e+01    0.5036138    0.2712088 -12.60  0.001945862    4.228    0.763
        70  -9.6681    132.3436     93.8822   8.2313983040e+01   3.7366410088e+01    0.2959302    0.2262852  34.84 0.0006712809    1.435    0.303
        71  -9.0435      9.1830     93.7905   1.1991714046e+02   5.5288063749e+01    0.1860265    0.1362379  86.58 0.0005496784    1.251    0.201
        72  -9.4302      2.2977     91.9198   1.2185550992e+02   5.6139500443e+01    0.3954924    0.1488198 -54.93   0.00193508    2.207    0.547
        73  -9.7679     52.1244     92.1990   1.0568815630e+02   5.1776740175e+01    0.2474443     0.194508  71.39 0.0006856894    1.450    0.310
        74  -9.6636     16.5812     96.7713   1.1799481903e+02   5.4073630051e+01    0.3518567    0.2117118  62.45  0.001954072    1.883    0.469
        75  -8.8609     89.9659     92.4841   9.3771879942e+01   4.6135646989e+01    0.2155241    0.1471017  43.76  0.001025542    1.586    0.370
        76  -9.4869     32.1579     91.1810   1.1205627272e+02   5.4134483005e+01    0.2732266    0.2172295  29.88 0.0009101659    1.532    0.347
        77  -9.1708    130.5421     87.9840   8.1039822784e+01   3.9000501102e+01    0.2390458    0.2087122  46.79 0.0005666624    1.191    0.160
        78 -10.1558    127.0000     90.0372   8.2572563601e+01   3.9352752256e+01    0.4535821    0.2550693 -37.21  0.001406402    1.804    0.446
        79 -10.9240    121.3709     87.8333   8.3414792011e+01   4.1039486924e+01    0.5855735    0.4313806 -76.02  0.001437068    1.825    0.452
        80 -10.2458    124.6858     85.9696   8.1966029382e+01   4.0714948555e+01     0.404734    0.3241825  -1.51  0.001899997    1.584    0.369
        81  -8.6056     62.2020     89.8461   1.0184768491e+02   5.1054922852e+01    0.1861062      0.14938 -38.33 0.0003366821    1.299    0.230
        82  -8.9910     16.0017     88.5617   1.1695800871e+02   5.6073352149e+01    0.2991611    0.1119307 -65.24 0.0009629457    1.970    0.492
        83  -8.5556     84.7361     87.3765   9.3979173112e+01   4.8208618620e+01    0.1839333    0.1428978  27.45 0.0006433631    1.505    0.335
        84  -8.8525      5.8842     86.5926   1.2001321347e+02   5.7190492537e+01    0.2461898    0.1040047 -54.96  0.001246211    1.939    0.484
        85  -8.5745     82.9143     91.5341   9.5676471440e+01   4.7550723829e+01    0.2053958    0.1473342  34.91  0.001014999    1.570    0.363
        86  -8.7662     56.7240     89.9241   1.0366278908e+02   5.1753867688e+01    0.2021035    0.1607437 -63.83 0.0006096437    1.099    0.090
        87 -10.2266     26.4346     84.8545   1.1280455227e+02   5.6153173713e+01    0.3158832    0.2017891 -45.22 0.0007857994    1.537    0.350
        88  -9.0980    173.9572     84.7313   7.0087366315e+01   2.9351151732e+01    0.2890798    0.2198502  -5.15 0.0007531629    1.608    0.378
        89 -10.1753    135.0248     83.2408   7.8453729494e+01   3.8957840543e+01    0.3095483     0.250598 -41.56            0    1.189    0.159
        90 -10.8621    144.3943     81.0776   7.5485564122e+01   3.7199643333e+01    0.5390502    0.3428018  27.98  0.001368614    2.112    0.526
        91  -9.8771     75.6819     83.1844   9.5700334812e+01   5.0649371210e+01    0.3922445    0.2724327 -70.09  0.001360732    1.621    0.383
        92  -8.8417     80.2974     81.7132   9.3784836917e+01   5.0244434070e+01     0.313331    0.1656249 -39.58  0.001306464    1.963    0.491
        93 -10.5894     46.2828     83.6663   1.0572069234e+02   5.4494803118e+01     0.408902    0.1911481 -45.81  0.001819454    2.044    0.511
        94  -9.4840      1.7518     83.7487   1.2099953387e+02   5.8087533198e+01    0.2135666    0.1530811 -63.03  0.001146129    1.155    0.134
        95 -11.1799      6.4709     80.1227   1.1888428304e+02   5.8679595700e+01      0.41001    0.2649911  80.06   0.00120254    1.627    0.385
        96 -10.6874     51.4781     81.5836   1.0342890512e+02   5.4383668630e+01      0.30115    0.2474548  39.38   0.00023023    1.410    0.291
        97  -9.6890     38.4256     80.6894   1.0777771230e+02   5.6039631047e+01    0.2892668    0.2115285  83.27  0.001172137    1.608    0.378
        98  -9.7499     21.6114     81.1604   1.1378722221e+02   5.7420249256e+01    0.2222181    0.1982873  50.89 0.0007923778    1.342    0.255
        99 -10.2270    154.0036     79.7326   7.2840420244e+01   3.5149362441e+01    0.2494764    0.2175587 -71.53 0.0008839731    1.283    0.220
       100  -9.6634    109.6111     89.7823   8.7244819134e+01   4.3059446797e+01    0.4444019    0.1806322 -42.74  0.001563588    2.393    0.582
       101 -10.0661    108.9888     81.0031   8.4785266392e+01   4.5092934647e+01     0.321056    0.2027994  29.30 0.0006169807    2.008    0.502
       102 -10.0723    109.5265     72.4878   8.1902662101e+01   4.6769607338e+01     0.322154    0.2591355  -5.07  0.001037599    1.504    0.335
       103 -10.7270    104.1347     78.8417   8.5526701046e+01   4.6535692231e+01    0.4003454    0.2798255 -58.21  0.000399726    1.538    0.350
       104  -9.8148    107.5216     76.4855   8.3785685471e+01   4.6352540792e+01    0.2839049     0.252032  -2.66 0.0009001027    1.251    0.201
       105  -9.4579    128.9839     75.7022   7.7619501930e+01   4.1850354562e+01    0.2970282     0.214787 -57.91 0.0004054819    1.558    0.358
       106 -10.7336     98.6576     76.3181   8.6372339958e+01   4.8153140340e+01     0.390509    0.2903422 -38.88  0.001581767    1.279    0.218
       107 -11.6377     97.1544     69.8910   8.4741552656e+01   4.9808746924e+01    0.8386254    0.5490975 -51.09 0.0004196506    1.512    0.338
       108  -9.4259     28.0352     78.2922   1.1095003523e+02   5.7577740918e+01    0.2106021    0.1490598 -63.47 0.0003083777    1.134    0.118
       109 -11.0733     78.6553     74.9399   9.2308879386e+01   5.2042185481e+01    0.6987588    0.3231108  26.94 0.0002646203    3.370    0.703
       110 -10.6412     85.3492     72.3922   8.9309719119e+01   5.1462982627e+01    0.3720764    0.2966053  13.34  0.001912335    1.525    0.344
       111  -9.6096     15.6347     80.0168   1.1567625168e+02   5.8127005539e+01    0.3498406    0.1737444  77.89  0.001521139    3.002    0.667
       112  -8.6226     52.3384     76.2911   1.0177450879e+02   5.5520164133e+01    0.1384485   0.09580764 -30.84 0.0003614273    1.644    0.392
       113  -9.9183     20.3593     75.1658   1.1308908763e+02   5.8932501033e+01    0.2568592    0.2246171  81.84 0.0008026889    1.256    0.204
       114 -10.4490    157.9148     74.5250   7.0353337772e+01   3.5154445830e+01    0.3077102    0.2305874 -22.69   0.00107872    1.417    0.294
       115  -8.8640     92.0841     75.5009   8.8145092681e+01   4.9571862912e+01    0.1987872    0.1492576  40.65 0.0003094165    1.447    0.309
       116  -8.7945    129.9977     79.2453   7.8489135224e+01   4.0911336684e+01    0.2135236    0.1510559  62.07 0.0004377723    1.635    0.388
       117  -9.5535     57.3928     71.8371   9.8740382671e+01   5.5903392672e+01    0.3452654    0.2099948 -32.85  0.001635441    1.880    0.468
       118 -10.0511     62.6957     70.6975   9.6510419925e+01   5.5437500396e+01    0.4865349    0.2800406  40.79  0.001806105    1.983    0.496
       119  -8.9273     99.9990     82.5445   8.7897492769e+01   4.6540477163e+01    0.2253212    0.1506479  42.25  0.000771795    1.608    0.378
       120  -8.5829    176.9931     72.2577   6.5760300017e+01   3.0789534303e+01    0.2069714     0.136408  57.23 0.0008958166    1.580    0.367
       121  -9.6202    131.6897     68.7147   7.4625591067e+01   4.2579868988e+01    0.2861946    0.2183462  35.39  0.001339046    1.421    0.296
       122  -9.2675    138.5257     72.5095   7.4178807838e+01   4.0243797890e+01    0.2582583     0.156352  53.12 0.0007181314    1.724    0.420
       123 -10.6539    135.8915     69.8564   7.3954288704e+01   4.1372264521e+01    0.4789517    0.3403145  20.80  0.001414799    1.845    0.458
       124 -11.4648    142.9574     69.2405   7.2043409292e+01   3.9790511653e+01    0.6159562    0.4490761  67.69  0.002096528    1.597    0.374
       125  -8.7431     75.0620     71.2471   9.2372453853e+01   5.3447523281e+01    0.1802278    0.1769175 -28.75            0    1.103    0.093
       126  -8.9865    196.9216     68.1637   6.1000635788e+01   2.6471466061e+01    0.2475233    0.1998081 -58.71  0.001223044    1.314    0.239
       127 -10.6713    163.0674     67.4047   6.7009752704e+01   3.5128892158e+01      0.40003    0.2317225  50.34  0.001643474    1.757    0.431
       128 -10.5702    152.1960     66.8489   6.9147993796e+01   3.7950950260e+01    0.3565316    0.3388907 -52.25  0.001870712    1.062    0.058
       129 -10.8896    152.2015     74.3115   7.1550022504e+01   3.6599712771e+01    0.3704406    0.3401607 -80.88 0.0009831069    1.190    0.160
       130  -9.0103     70.9237     67.0730   9.2475152254e+01   5.5021721764e+01    0.3289728    0.1732556  49.74  0.001398512    2.421    0.587
       131  -9.6046    126.8385     64.4771   7.4429979176e+01   4.4511346028e+01     0.376455    0.2140142 -31.08 0.0008524734    1.811    0.448
       132  -9.9646    110.9533     64.6469   7.8829378150e+01   4.8041221908e+01    0.3376935    0.3258675  -4.75 0.0009328335    1.047    0.045
       133  -9.5206     42.9799     72.4670   1.0415904960e+02   5.7494982668e+01    0.2666122    0.1711346 -74.69  0.001357525    1.694    0.410
       134  -9.7830     43.3067     63.6732   1.0163592523e+02   5.9476477188e+01    0.4386874    0.3049718 -86.62  0.002255802    1.975    0.494
       135 -10.6638     33.4662     63.8280   1.0551150592e+02   6.0459246729e+01    0.3866371    0.2885336  12.04  0.002035291    1.665    0.399
       136 -10.5500      3.2879     61.8185   1.1699616492e+02   6.3102987793e+01    0.5271156    0.1778148 -58.41  0.001979292    2.022    0.505
       137  -8.3504     79.6407     64.6911   8.8675308696e+01   5.4110423827e+01    0.1490717     0.109473 -11.77 5.067569e-05    1.736    0.424
       138  -8.5294    147.2774     63.3077   6.9074807554e+01   3.9797572453e+01     0.155568    0.1219276  11.51 0.0002275152    1.553    0.356
       139  -8.0496     70.4405     63.4246   9.1448960650e+01   5.5889732740e+01    0.2006139    0.1251546 -55.57 0.0003190074    1.584    0.369
       140  -9.2162     66.6665     60.8031   9.1925126010e+01   5.7035241950e+01    0.5363513    0.2649008 -63.95  0.001941991    3.198    0.687
       141  -8.9271    220.1343     62.3839   5.5872851922e+01   2.1684645862e+01    0.2031019    0.1408678  83.36 0.0009505301    1.776    0.437
       142  -9.4541    171.9818     62.2047   6.3594840925e+01   3.3737571100e+01    0.2585267    0.1704786  30.16 0.0006944092    1.911    0.477
       143  -9.2511     86.3426     55.0097   8.2966884490e+01   5.4893368517e+01    0.3523397    0.2868296 -31.27  0.001480028    1.139    0.122
       144  -9.8735     81.1514     59.8359   8.6476618314e+01   5.4863611914e+01    0.4283074    0.3082365 -69.34   0.00203139    1.889    0.470
       145 -10.5114     79.1386     56.3829   8.5925267291e+01   5.5920772988e+01    0.4627247    0.3423325   2.78  0.001890664    1.731    0.422
       146 -11.0933    160.8178     56.0611   6.3774629969e+01   3.7595079187e+01    0.7957013    0.4244565  -9.84  0.002594026    3.248    0.692
       147  -9.5408    110.8929     57.7384   7.6383491369e+01   4.9376051291e+01     0.769181    0.3891104 -15.82  0.002120628    4.817    0.792
       148 -10.0374     87.8957     60.1921   8.4344729275e+01   5.3569935294e+01    0.3616531     0.188186  41.99  0.001534066    2.085    0.520
       149  -9.4572     50.2831     60.0968   9.7854397168e+01   5.9452737120e+01    0.1978798    0.1657915 -30.73 0.0003102292    1.166    0.142
       150  -8.5630     26.4471     60.4520   1.0741665101e+02   6.1861664649e+01    0.1293863    0.1025671 -54.01  0.000164301    1.016    0.016
       151  -9.1585    200.6451     50.4400   5.5208650335e+01   2.8204734606e+01    0.3732826    0.2336278 -39.14  0.001695934    1.483    0.326
       152 -10.5993    200.6506     55.9563   5.6834844475e+01   2.7404014344e+01    0.6442102     0.286006  47.15 0.0003441377    2.510    0.602
       153  -9.6951    204.6889     51.6892   5.4996531563e+01   2.7008324316e+01    0.2806666    0.2658623 -11.97 0.0007316063    1.107    0.097
       154  -9.8943    207.4298     50.1807   5.4175930355e+01   2.6536222201e+01    0.4450242    0.2719048 -32.53  0.002026522    1.514    0.339
       155  -9.8852     96.5356     55.9622   8.0026027752e+01   5.2731308598e+01    0.4912625    0.3092716   1.92  0.001855531    2.888    0.654
       156  -8.9148     70.3336     57.8367   8.9567925230e+01   5.7092334009e+01    0.3199807     0.214294  66.64  0.001429212    2.489    0.598
       157  -9.6083     34.0042     57.9491   1.0367029054e+02   6.1737992480e+01    0.1943046    0.1818179 -22.23 0.0008155293    1.194    0.162
       158  -8.8320    151.0707     57.5021   6.6280170646e+01   3.9841503249e+01    0.2359153    0.1535267  55.00 0.0006223162    1.562    0.360
       159  -8.9714     66.9582     46.4589   8.6576098909e+01   5.9932510309e+01    0.3629757    0.1377522  39.42    0.0010832    2.931    0.659
       160  -9.4342     63.8460     43.1256   8.6439487728e+01   6.1070924909e+01     0.249158    0.2412907 -38.09 0.0002490591    1.193    0.162
       161  -9.9786     61.9519     56.8010   9.2297985836e+01   5.8589501031e+01     0.405622    0.2675036  27.42  0.002075659    1.770    0.435
       162 -10.4007     58.5316     53.4244   9.2415788156e+01   5.9792365711e+01    0.3600494    0.2833369   7.13  0.001373745    1.481    0.325
       163 -11.0545     55.0015     50.8557   9.2876675759e+01   6.0820059298e+01    0.3927655      0.24283  37.66 0.0002798569    1.861    0.463
       164 -11.7876     59.1393     47.8719   9.0138212620e+01   6.0847428467e+01    0.3337443    0.2862701 -18.59 0.0003694875    1.134    0.118
       165  -8.5942    223.5652     55.7723   5.3606902160e+01   2.1813323580e+01    0.2172247    0.1175916 -40.52 0.0009477303    1.656    0.396
       166  -9.0127     26.7346     56.5306   1.0625320271e+02   6.2723750795e+01     0.152232    0.1183056  44.33 0.0009366286    1.614    0.380
       167  -9.6485    134.6214     54.3041   6.8908097347e+01   4.4472483085e+01    0.3189832    0.2751689 -84.61  0.001493714    1.368    0.269
       168  -9.5194    134.6703     51.3046   6.7818871584e+01   4.4963841822e+01    0.2472303      0.22225 -63.75  0.001273173    1.218    0.179
       169  -8.5149    120.6548     60.2367   7.4578771975e+01   4.6726242194e+01    0.4026488     0.144158 -28.82  0.001113427    4.028    0.752
       170 -10.2510    174.5696     53.5853   6.0371453263e+01   3.4436811350e+01    0.2973806    0.2633384 -58.82  0.001081172    1.156    0.135
       171  -8.9771     18.8229     51.3238   1.0817594016e+02   6.4521039780e+01    0.2090473    0.1427971 -66.71 0.0006799262    1.309    0.236
       172  -8.8386    233.8273     51.2047   5.1129917147e+01   2.0033161432e+01    0.1896348    0.1629189   6.07 0.0005478542    1.354    0.261
       173  -9.0401     43.1297     54.5463   9.8915709606e+01   6.1523491096e+01    0.3828229     0.147983 -38.03  0.001457501    2.945    0.660
       174  -8.4626    126.0000     50.9752   6.9823596568e+01   4.7118118379e+01    0.2598241   0.08486526 -33.94 0.0008066815    2.972    0.664
       175  -9.2063    115.9910     50.9651   7.2448397426e+01   4.9457620198e+01    0.2193325    0.2103579 -27.95  0.000341555    1.043    0.041
       176  -9.1800     23.4882     51.0906   1.0609686743e+02   6.4208737863e+01    0.1989393    0.1006678 -57.85  0.001021985    1.562    0.360
       177  -9.4327     42.8250     48.6261   9.7052230034e+01   6.2829564118e+01    0.3292504    0.1913252 -63.07  0.001605147    1.925    0.481
       178  -8.7052    230.7476     48.8215   5.0852435010e+01   2.1070727485e+01    0.2378774    0.1434168  18.89 0.0009494337    2.810    0.644
       179  -8.8703     35.3819     52.6412   1.0150478172e+02   6.2776230516e+01    0.1826877    0.1442681 -86.98  0.000704857    1.630    0.386
       180  -9.2776     84.5161     47.0027   8.0496070561e+01   5.6765145456e+01     0.378882    0.2013965 -33.30  0.001614289    1.831    0.454
       181  -9.3496    133.0189     63.7215   7.2598481523e+01   4.3196029774e+01    0.2194329    0.2044935  55.51 0.0004837797    1.122    0.109
       182 -11.0368     36.1094     45.2696   9.8754058208e+01   6.4284752548e+01    0.2520855    0.2329163 -40.07 0.0004007031    1.147    0.128
       183 -10.6801    167.0550     43.8736   5.8529745625e+01   3.7838297606e+01    0.4086124    0.3461799  42.85  0.001241308    1.224    0.183
       184  -8.5994    100.5229     46.5118   7.5169940674e+01   5.3644830834e+01    0.1476075    0.1372184 -17.43 -2.55059e-05    1.008    0.008
       185  -9.7419     20.9602     44.7825   1.0533863536e+02   6.5792258040e+01     0.415938    0.1334166 -63.27  0.001610599    3.051    0.672
       186  -8.8711    175.4149     45.4694   5.7607768027e+01   3.5423178441e+01    0.1515675    0.1437925 -48.98 4.114207e-05    1.029    0.029
       187  -8.9640    108.9835     44.7375   7.1993180428e+01   5.2106144439e+01    0.2083738    0.1941478   6.80  0.001003704    1.052    0.049
       188  -9.2747     53.6094     42.7951   9.0395471469e+01   6.2649018682e+01    0.4070015    0.1159262 -45.96  0.001445578    2.988    0.665
       189  -9.3574     56.7126     42.0060   8.8815532076e+01   6.2363653485e+01    0.2712404    0.2279366  44.08  0.001243519    1.447    0.309
       190  -8.5264    160.4647     44.0486   5.9792738062e+01   3.9533398188e+01    0.2232427    0.1502464 -25.52 0.0004850969    1.506    0.336
       191 -10.0588    144.2787     42.8322   6.2591365663e+01   4.3891577055e+01    0.4223562    0.3490463 -42.99  0.002131084    1.222    0.182
       192  -9.6727    102.7787     41.0101   7.2287142433e+01   5.4095525467e+01    0.4570071    0.3230762  33.96  0.001761644    1.499    0.333
       193  -9.3054    102.0410     37.3280   7.0986004954e+01   5.4851974147e+01    0.2157322    0.1883097 -22.70 0.0003757736    1.085    0.079
       194  -8.8236     74.9364     42.8217   8.2158103404e+01   5.9283402965e+01    0.3374549    0.1823812 -17.54  0.001253198    3.039    0.671
       195 -10.1686     31.6975     40.5965   9.9060423664e+01   6.5716629370e+01    0.4507419    0.2062027 -45.08  0.001742279    1.760    0.432
       196  -8.5803    205.3968     42.2165   5.2133469887e+01   2.8140652480e+01    0.2730663     0.111439  61.59  0.001025573    2.446    0.591
       197 -10.2740     45.8257     40.5929   9.2800547917e+01   6.4118094355e+01    0.5189775    0.2648437 -36.07  0.002471033    1.840    0.457
       198  -9.8208     44.1914     35.4703   9.1443647299e+01   6.5329810095e+01    0.2678973    0.1777957 -45.83 0.0006309926    1.322    0.244
       199  -8.7942    196.9822     41.3317   5.3007854886e+01   3.0401614864e+01    0.2070543    0.1893777  69.41 0.0008447285    1.128    0.113
       200  -8.6041      4.2754     41.6543   1.1212980606e+02   6.7569538006e+01    0.1115529   0.08275067  87.70 0.0003969466    1.627    0.385
       201  -8.8957    241.3544     39.3287   4.7219591317e+01   1.9853789096e+01    0.3546908    0.1725531 -61.21  0.001191803    2.554    0.609
       202  -9.3367    149.1401     38.6223   6.0074729583e+01   4.3255928601e+01    0.3190353    0.2002232 -36.05 0.0005930311    1.558    0.358
       203  -9.2252    150.1376     34.1798   5.8278245076e+01   4.3611609178e+01    0.2484517    0.2038141  -9.98  0.000505529    1.294    0.227
       204  -8.5626    228.5299     39.5172   4.8605009822e+01   2.2814633160e+01    0.1407619    0.1272234 -45.06 -2.412515e-06    1.020    0.020
       205  -8.3782    157.5047     38.5298   5.8437464907e+01   4.1093817767e+01    0.1511956    0.1454668  23.90  5.21471e-05    1.060    0.057
       206 -10.4340    126.5946     37.1863   6.4439156670e+01   4.9156833346e+01    0.4929667    0.2944668  41.99  0.002145107    1.733    0.423
       207  -9.3733     80.8209     37.5400   7.7850006590e+01   5.9152047685e+01    0.2385378    0.2124674  88.35  0.001330867    1.530    0.346
       208  -9.3718     66.5968     37.1909   8.2899585538e+01   6.1733748199e+01     0.252661    0.1981856   8.03  0.001359401    1.377    0.274
       209 -10.5565     62.2828     36.3235   8.4209601927e+01   6.2589754608e+01    0.3409619    0.2345206  17.60  0.001127231    1.702    0.413
       210  -9.0300     16.8973     37.5249   1.0492024185e+02   6.7655347290e+01    0.1986828     0.153053 -68.92 0.0008285182    1.371    0.271
       211  -8.2220      7.4663     38.5102   1.0975712480e+02   6.8073140950e+01    0.1230763   0.09046289 -50.28   0.00016892    1.041    0.039
       212  -9.6800    190.0341     35.7529   5.2271102899e+01   3.2935535354e+01    0.3763069    0.2710784  58.03  0.001302402    1.408    0.290
       213  -9.6241    173.9566     36.8023   5.5015041648e+01   3.7008555977e+01    0.2443859    0.2116448 -30.25 0.0002800278    1.143    0.125
       214  -7.9848     96.6838     36.2848   7.2147247299e+01   5.6173782775e+01    0.1376114    0.1144405 -68.65 0.0002513887    1.584    0.369
       215  -8.9512    228.6742     35.4021   4.7482846899e+01   2.3301098646e+01    0.2446185    0.1368184  78.43 0.0008133547    2.034    0.508
       216  -8.6791     86.7031     35.3431   7.4910091027e+01   5.8380496612e+01    0.2121121    0.1700759 -70.89   0.00108211    1.793    0.442
       217  -9.5516     34.3502     34.9436   9.5696274499e+01   6.6588106059e+01    0.2123903     0.170774  44.13 0.0008938472    1.636    0.389
       218 -10.6083    237.0207     31.9026   4.5721231434e+01   2.1769824659e+01    0.6127607    0.3283246 -34.67  0.002516512    1.607    0.378
       219 -10.5564    238.5061     22.9055   4.3260802949e+01   2.2490444708e+01     0.372547    0.3388251  51.48  0.001002598    1.288    0.223
       220  -9.0248     51.8379     33.5896   8.7316403688e+01   6.4659790677e+01    0.2288196    0.1262322  28.99  0.001119159    2.088    0.521
       221  -8.8709    203.7864     31.8514   4.9295534923e+01   2.9889275664e+01    0.2052875    0.1927724  24.63 0.0004898518    1.192    0.161
       222  -8.9692    107.1989     29.1586   6.6079704136e+01   5.4919114518e+01    0.2523344    0.2105222 -82.54 0.0008408994    1.577    0.366
       223  -8.6700     58.2243     31.9440   8.3915095650e+01   6.4011376939e+01    0.1805945   0.09809709 -40.36 0.0004246387    1.637    0.389
       224  -8.7589     10.8207     32.7201   1.0631250146e+02   6.9090067814e+01     0.231872    0.1008693  22.92   0.00119794    2.755    0.637
       225  -8.6783    221.4860     30.9965   4.7042346289e+01   2.5578791367e+01    0.2140256     0.130197 -28.86 0.0004969834    1.545    0.353
       226  -9.6387     21.8397     29.9643   9.9768568822e+01   6.8806523788e+01    0.3773261    0.1857564 -38.17  0.001974287    1.746    0.427
       227  -8.1752    197.4694     30.4947   4.9673956363e+01   3.1675967908e+01    0.1476823    0.1338613 -58.48 0.0001302646    1.049    0.047
       228  -9.9541    180.9685     28.6724   5.1309483265e+01   3.6203645688e+01    0.3693122    0.2528045  49.06  0.001757717    1.516    0.340
       229  -9.5371    184.2481     26.0015   5.0003420899e+01   3.5664399480e+01    0.4989747    0.3157908   6.27  0.002124769    2.212    0.548
       230  -9.0747    125.6881     30.0250   6.1823759408e+01   5.0389712954e+01    0.3626988     0.185992  35.54  0.001125884    2.337    0.572
       231  -9.4728    110.6122     29.7985   6.5440948926e+01   5.4040652328e+01    0.2601711    0.2259936  81.92 0.0007463074    1.394    0.283
       232  -9.3941     46.7574     28.4640   8.7242201775e+01   6.6299608005e+01    0.2427844    0.2079072 -89.66  0.001439972    1.891    0.471
       233  -9.9582     16.6596     27.6218   1.0149428502e+02   6.9706901973e+01     0.355905    0.2099763 -16.97  0.001225853    1.964    0.491
       234  -8.6057    215.5190     28.4864   4.6982039343e+01   2.7351042511e+01     0.137734    0.1331506 -45.47  0.000808826    1.085    0.078
       235  -9.5130     81.6070     26.4682   7.2625022983e+01   6.0782987125e+01    0.3175945    0.2714764 -85.73  0.001757379    1.705    0.414
       236  -9.0289     75.8234     27.6754   7.5194387801e+01   6.1709843812e+01    0.1802947    0.1280102  53.51 0.0004070272    1.690    0.408
       237  -8.9254     51.1846     26.7617   8.4501196247e+01   6.5975790148e+01    0.2219513    0.1364018 -33.29 0.0009442553    1.416    0.294
       238  -9.3483     51.8342     21.0260   8.1429314586e+01   6.6839351148e+01    0.3616176    0.2572176  -5.74  0.002053966    1.456    0.313
       239  -8.4736    196.8131     26.3987   4.8519089779e+01   3.2342432014e+01    0.2027005     0.127075  56.96 0.0009181634    1.618    0.382
       240  -9.5905    151.9181     25.2183   5.4701589405e+01   4.4292224946e+01    0.3280374    0.2296076  45.25 0.0006491769    1.439    0.305
       241  -8.6996    121.0179     25.9953   6.1271791803e+01   5.2069412091e+01    0.2344108    0.1655005  17.32  0.001102063    1.628    0.386
       242  -9.0877     55.4814     26.3177   8.2452823813e+01   6.5407955877e+01    0.2120913    0.1193707  37.66  0.001064441    1.943    0.485
       243  -8.4573     30.7015     26.3708   9.3852936300e+01   6.8640740902e+01    0.1713199    0.1442349 -44.02 0.0005262155    1.200    0.167
       244  -9.5941     29.6061     23.2578   9.3000154873e+01   6.9338505653e+01    0.3406541    0.2017898 -10.28  0.001771388    2.158    0.537
       245 -12.9545     76.5309    219.2162   1.1716432198e+02   2.0563412090e+01     1.708787    0.5452147  47.01  0.002975404    2.432    0.589
       246 -11.0062    163.6939     22.4648   5.1786821325e+01   4.1511161356e+01    0.6009999    0.2689585  50.43  0.001210041    2.202    0.546
       247  -8.5120     59.4594     24.5202   7.9939549112e+01   6.5076482734e+01    0.1346982    0.1130418 -14.62 8.229451e-05    1.022    0.022
       248  -8.8035     22.3127     23.9197   9.7037005474e+01   6.9944230232e+01    0.1739365    0.1202914 -40.54            0    1.134    0.118
       249  -9.2753      7.8523     23.5110   1.0459980869e+02   7.1162864929e+01    0.2465476    0.1915388  47.09  0.001661657    1.851    0.460
       250  -9.3462    142.7890     32.6409   5.9154474139e+01   4.5720227851e+01    0.3731652    0.2348437  24.60  0.001561282    2.038    0.509
       251  -9.2484    178.6921     22.5211   4.9635103624e+01   3.7535359552e+01    0.3288461    0.2261755 -52.10  0.001579219    1.491    0.329
       252  -8.0326    170.2510     23.3248   5.1093509766e+01   3.9674738316e+01    0.1452849    0.1097657  24.97 0.0003058483    1.541    0.351
       253  -9.4946    118.9288     20.7209   5.9560685919e+01   5.3238341932e+01    0.4422639    0.2527592   7.35  0.001541703    2.480    0.597
       254  -9.3217      1.6679     22.5175   1.0764023262e+02   7.1729305179e+01    0.2184981    0.1196172 -55.99 0.0007479877    1.384    0.278
       255  -9.3078    141.4280     21.9575   5.5388741585e+01   4.7415969613e+01     0.281524    0.1979108  51.13 0.0006677853    1.371    0.271
       256  -9.0682    132.3615     20.7704   5.6689507941e+01   4.9881654858e+01    0.3187377    0.1572019 -36.90 0.0007725222    2.036    0.509
       257 -11.0854     69.1844    218.4512   1.1846024492e+02   2.1665054591e+01    0.3717487    0.2488996  82.20   0.00139526    1.402    0.287
       258  -9.0463    207.0456     21.0637   4.5774821483e+01   3.0344975545e+01    0.2029615     0.186506 -60.39  0.001180048    1.001    0.001
       259  -9.1560    133.6865    206.3199   1.0476919936e+02   1.4315970396e+01     0.126233   0.08778124  67.40 0.0003523284    1.652    0.395
       260  -9.7135    110.5148     19.3651   6.0980615829e+01   5.5426394890e+01    0.3117677    0.2584964  60.02  0.001004141    1.265    0.210
       261  -9.4100     74.1418     18.7439   7.1486121058e+01   6.3347837782e+01    0.3697775    0.1501594 -21.45  0.001355225    3.057    0.673
       262 -10.0440     27.3937     17.8860   9.1588586703e+01   7.0547114942e+01    0.4138568    0.2279012  44.37  0.002147125    2.711    0.631
       263  -9.2249     20.7553     15.4517   9.3964684687e+01   7.1657260798e+01    0.2472876    0.1601414  -0.43   0.00148774    1.741    0.426
       264  -9.5825      1.4447    185.4794   1.2906928400e+02   3.5355271594e+01    0.3042079    0.0824016 -80.28  0.001255984    3.000    0.667
       265 -10.9493      6.1794    169.2259   1.2729275442e+02   3.8307040665e+01    0.2389696    0.1823533  65.26 0.0009521911    1.175    0.149
       266  -9.1185     60.4345     18.2505   7.6413238682e+01   6.5889572175e+01    0.1853915    0.1124522 -40.29 0.0009495313    1.668    0.401
       267  -8.8577     25.0151    164.1999   1.2293471033e+02   3.7694310982e+01    0.1427517    0.0872473  37.17 0.0005141211    1.764    0.433
       268  -8.5531    235.3965     17.2128   4.2059030261e+01   2.3857265893e+01    0.1870574    0.1060194 -39.50 0.0004085484    1.514    0.340
       269 -10.7790     18.9726    159.7794   1.2392460946e+02   3.9231575470e+01    0.2653404     0.199051  59.35   0.00183852    1.245    0.197
       270  -9.0600     12.4917    158.4768   1.2526268046e+02   4.0088990421e+01    0.1179211   0.08787107  82.90 6.537651e-05    1.006    0.006
       271  -9.7514      7.6886    157.0688   1.2622390714e+02   4.0796888828e+01    0.1843571    0.1255647  60.43 0.0006405424    1.305    0.233
       272 -10.5314      2.0945    153.9200   1.2725397723e+02   4.1923931284e+01    0.3549637    0.1558813 -78.39  0.001005928    1.777    0.437
       273  -9.2936    123.7561     15.8464   5.6459876559e+01   5.2607651437e+01    0.2042223    0.1776443  27.70 0.0003573287    1.117    0.105
       274  -9.5604      4.5484    150.5202   1.2649035514e+02   4.2483836516e+01    0.1986176    0.1461042 -79.23 0.0006971727    1.196    0.164
       275  -9.3357     22.3177    150.7803   1.2243199150e+02   4.0930443768e+01    0.2444289   0.09128974 -84.72  0.001071949    2.568    0.611
       276  -9.4322     67.5257     12.8682   7.0864089694e+01   6.5385416415e+01    0.2761233     0.167281  41.64 0.0009243235    1.660    0.398
       277  -9.9629     19.7066    154.5852   1.2335243175e+02   4.0315197351e+01    0.1880431    0.1182861  24.16  0.001127053    2.119    0.528
       278  -8.5621     36.2144    147.6385   1.1882250054e+02   4.0285238416e+01    0.1478819    0.1205168  21.68 0.0009428822    1.660    0.397
       279 -10.4883      5.6180    141.1696   1.2558922122e+02   4.4490486973e+01    0.4395602    0.1895685 -48.69  0.001969658    3.112    0.679
       280  -9.9188      3.6448    133.7110   1.2550344209e+02   4.6324628642e+01    0.4287063    0.1476708 -72.64  0.001697286    2.179    0.541
       281  -9.3344     36.9859    142.2538   1.1804412574e+02   4.1449315961e+01    0.3060082    0.2065028 -34.85  0.001673143    2.247    0.555
       282 -10.0303     21.5817    142.1989   1.2183660717e+02   4.2949935984e+01    0.2538264    0.1532879  61.05  0.001498658    1.561    0.359
       283  -9.5053     15.5851    142.2340   1.2329217344e+02   4.3460312342e+01    0.2475304   0.09561455 -82.55  0.001153069    2.241    0.554
       284  -9.2909     38.6204     17.9899   8.5967419029e+01   6.9197310612e+01    0.2301765    0.1568493  10.18 0.0006952247    1.618    0.382
       285 -12.2168    227.7862    136.0989   7.3426458770e+01   8.5756064627e+00     0.801698    0.5107386  30.59  0.003973546    1.677    0.404
       286 -12.9412    233.0546    126.7485   7.0392399394e+01   8.9710372496e+00    0.9577922     0.828712 -38.95  0.005586228    1.235    0.191
       287 -11.6159    212.8219    130.8123   7.4798569244e+01   1.2416960663e+01    0.8182616     0.453468 -35.83  0.003689049    1.715    0.417
       288 -10.2763      2.0041    139.9582   1.2635771721e+02   4.5026781187e+01    0.4646501    0.1664399 -85.55  0.002198451    2.334    0.572
       289  -8.8747     71.1656    131.7531   1.0770937760e+02   3.9760406609e+01    0.2040531    0.1629325 -85.20 0.0007102207    1.163    0.140
       290 -10.2256     32.1346    129.2923   1.1777695536e+02   4.4980771145e+01    0.2588818    0.1560959 -79.00  0.001438192    1.392    0.281
       291  -9.7193     37.8558    126.9709   1.1595131490e+02   4.4960686558e+01    0.1988162    0.1557401 -85.34   0.00065599    1.061    0.058
       292  -8.8115     51.9836    126.0291   1.1196918662e+02   4.3620426569e+01    0.2937711    0.1331726  57.12  0.001214407    2.746    0.636
       293  -9.6747     12.2444    128.1890   1.2286795874e+02   4.6963786033e+01    0.1808609    0.1353129 -75.39  0.001202367    1.138    0.121
       294  -8.6483     23.5068    125.4878   1.1962874598e+02   4.6675665842e+01    0.1261132   0.09934416 -85.03 9.756982e-05    1.001    0.001
       295  -9.7694     75.6009    120.3700   1.0442721382e+02   4.1836521881e+01    0.6046796    0.2220308 -58.63   0.00229586    2.448    0.591
       296  -9.0185     28.0716    138.4355   1.1985838543e+02   4.3223311371e+01    0.1597731    0.1185511  37.97   0.00047074    1.545    0.353
