#   1 NUMBER                 Running object number                                     
#   2 MAG_AUTO               Kron-like elliptical aperture magnitude                    [mag]
#   3 X_IMAGE                Object position along x                                    [pixel]
#   4 Y_IMAGE                Object position along y                                    [pixel]
#   5 X_WORLD                Barycenter position along world x axis                     [deg]
#   6 Y_WORLD                Barycenter position along world y axis                     [deg]
#   7 A_WORLD                Profile RMS along major axis (world units)                 [deg]
#   8 B_WORLD                Profile RMS along minor axis (world units)                 [deg]
#   9 THETA_WORLD            Position angle (CCW/world-x)                               [deg]
#  10 FWHM_WORLD             FWHM assuming a gaussian core                              [deg]
#  11 ELONGATION             A_IMAGE/B_IMAGE                                           
#  12 ELLIPTICITY            1 - B_IMAGE/A_IMAGE                                       
         1 -13.0242    198.8755     36.3973   5.8959313719e+01   3.0627870678e+01     1.125171    0.8320741  58.46   0.00658235    1.506    0.336
         2 -14.0449    213.2410     20.7870   5.3944206694e+01   2.9244014045e+01      1.42308     1.078342  22.55  0.008462546    2.045    0.511
         3 -11.5115      1.9023      5.1981   1.1317815340e+02   7.8703733728e+01    0.7674171    0.1849404 -58.59  0.002684714    4.683    0.786
         4 -10.7960    236.8104      1.7020   4.8397339312e+01   2.6353953438e+01    0.4022703    0.1419198  80.04  0.001580436    2.854    0.650
         5 -11.4174     88.6575    243.3315   1.2415688883e+02   1.3812392387e+01    0.2647642    0.1529619  51.73 0.0009497703    1.710    0.415
         6 -13.8640    135.3860    249.0298   1.1471662624e+02   6.9431063144e+00     1.966612    0.3121811  33.07  0.006471394    4.405    0.773
         7 -15.1024     10.6612    207.0528   1.3994561101e+02   2.9519650177e+01     10.34874      1.76486 -84.35   0.01086369    6.967    0.856
         8 -12.6320      4.7286    248.7738   1.4255646896e+02   2.1856137732e+01     1.186857    0.6037478  86.77  0.005937079    2.035    0.509
         9 -11.8001     12.6025    246.9116   1.4088800821e+02   2.1491147311e+01     0.556029    0.2752987  88.00 0.0005170453    2.152    0.535
        10 -15.4282     42.3704    199.1015   1.3153093933e+02   2.8134014640e+01     11.39653     3.809752  67.43   0.03243999    6.098    0.836
        11 -14.0414     38.4382    210.8812   1.3335749299e+02   2.6015508570e+01     1.164941    0.8492438  40.98  0.005894714    1.126    0.112
        12  -9.7280     73.8868    206.4170   1.2410224114e+02   2.2728944704e+01    0.2888673    0.2089813 -16.45   0.00143318    1.967    0.492
        13 -10.0802    192.7288    193.9682   9.5133075031e+01   7.4270197127e+00    0.4838265    0.2615441 -60.36  0.001514277    7.283    0.863
        14 -11.0809    103.3334    236.8914   1.2027518058e+02   1.3042795067e+01    0.2092249     0.180981  22.14    0.0010973    1.131    0.116
        15 -11.6566     58.8083    188.8143   1.2624963386e+02   2.8507852529e+01    0.3765322    0.2936046 -29.50  0.001368815    1.674    0.403
        16 -10.9748     53.0978    241.8392   1.3193238326e+02   1.8305406395e+01    0.4170497    0.1761352  62.17  0.001518232    2.784    0.641
        17 -11.7124     64.8928    181.8673   1.2382534044e+02   2.9321026492e+01    0.3051482    0.2615543 -34.24 0.0006456811    1.413    0.292
        18  -9.2996     41.1977    178.8456   1.3018304023e+02   3.2909448643e+01    0.2057832    0.1585754  58.87 0.0003616341    1.165    0.142
        19  -9.9884    113.3226    174.3362   1.0954903671e+02   2.3728589206e+01    0.2222627      0.11533  36.10  0.000949096    1.725    0.420
        20 -11.0099     75.1561    170.7274   1.1951395460e+02   3.0515339755e+01    0.2662908    0.2518875  28.55 0.0004071068    1.103    0.093
        21 -10.0169    228.4171    171.2136   8.4848647980e+01   5.6704770332e+00    0.1687963   0.09971974 -40.66 0.0009568229    1.746    0.427
        22 -13.2243     61.8332    167.9081   1.2303258866e+02   3.3033062602e+01    0.5254165    0.3112059 -42.54   0.00140021    2.112    0.526
        23 -12.1657     82.7142    162.6639   1.1613852787e+02   3.1305031631e+01     0.888029    0.5432421  49.01  0.002219331    1.602    0.376
        24 -12.9630     67.7756    144.4293   1.1783124210e+02   3.8031587138e+01     1.302982    0.7709568  81.70  0.003568603    2.422    0.587
        25 -12.0762     58.0530    132.7726   1.1915924895e+02   4.2392496043e+01     3.038038     1.006073 -78.17  0.005433667   11.471    0.913
        26  -9.8984     96.8748    147.3517   1.0931934092e+02   3.2639669377e+01    0.2851786    0.2818176  -2.09 0.0008653261    1.073    0.068
        27  -9.3978     99.3690    144.2797   1.0798826892e+02   3.2930714255e+01    0.2740319     0.205658 -18.06 0.0008247456    1.752    0.429
        28 -11.9858     84.9202    146.4503   1.1276198462e+02   3.4871807882e+01    0.3047572    0.2737629 -40.43 0.0004276694    1.216    0.177
        29 -11.2618     70.6214    250.0137   1.2865049687e+02   1.4847300015e+01    0.3311953    0.1746073  29.89  0.001143793    1.495    0.331
        30 -10.6017     31.8838    142.8418   1.2951542729e+02   4.2864083322e+01    0.2163721    0.1878977 -43.32  0.001231938    1.295    0.228
        31  -9.6942    108.6909    134.1058   1.0313774297e+02   3.3602633150e+01    0.3587528    0.2464834 -17.11  0.001127406    2.165    0.538
        32 -10.5277     95.8508    130.8191   1.0628381199e+02   3.6780244257e+01    0.3161038     0.261338  -2.42 0.0005907008    1.471    0.320
        33  -8.7470    115.2950    127.3577   9.9713740571e+01   3.3863434068e+01    0.1586549    0.1224593 -10.54 0.0007032222    1.698    0.411
        34  -9.4541    106.0564    121.6910   1.0108704522e+02   3.7001853959e+01    0.2146451    0.1868313  38.04 0.0002806731    1.115    0.103
        35 -10.5947     52.1592    227.5755   1.3119631587e+02   2.1103299748e+01    0.4708762    0.1934823  69.88  0.001315254    3.658    0.727
        36 -10.4310    168.1673    112.9733   8.3306665157e+01   2.5716793139e+01    0.3638664    0.2768754 -77.52  0.001094122    1.804    0.446
        37  -9.4084    205.0526    110.2176   7.6080585860e+01   1.8728530163e+01    0.2804295    0.1765495  37.09  0.001420091    1.859    0.462
        38 -10.9745    149.4998    228.2056   1.0917116781e+02   8.2458253662e+00    0.2526178     0.149274  29.38   0.00142729    1.372    0.271
        39 -11.5059    242.4357    102.2098   6.9285989301e+01   1.3246106073e+01    0.2224066    0.1887983 -36.20  0.001537186    1.045    0.043
        40 -10.7918    241.8617     92.7072   6.7375431433e+01   1.4639678681e+01    0.1795299    0.1515431  18.21  0.001205176    1.466    0.318
        41  -9.0404    159.6827     79.3074   7.6164301773e+01   3.3628360137e+01    0.1523243     0.112043 -73.11 0.0002614449    1.632    0.387
        42  -8.7365    184.3566     77.3173   7.1345996022e+01   2.8246720117e+01    0.1414138    0.1088256  20.26 0.0007045129    1.751    0.429
        43 -10.2611     13.5022     60.0328   1.2458461738e+02   6.5897752572e+01    0.2067381    0.1231426 -66.69 0.0007466222    1.573    0.364
        44 -11.0257      2.0000     43.6106   1.2795508020e+02   7.0482115145e+01    0.5629447   0.06651478 -71.45  0.001335107    7.857    0.873
        45 -11.9169     83.5684    247.1029   1.2560254849e+02   1.3795609159e+01    0.3592053    0.2815731   9.94  0.001297037    1.418    0.295
        46 -12.8982     30.8520    219.7554   1.3571714606e+02   2.4964040071e+01    0.4724672    0.3907519 -41.05  0.000805826    1.642    0.391
        47 -14.3848     34.5166    245.8022   1.3621113769e+02   1.9573718909e+01     12.17764     3.382865  19.42   0.03217437    8.663    0.885
        48 -10.1787    189.7106     15.0241   5.4278332771e+01   3.5130702675e+01    0.1829761     0.153117 -56.89 0.0006798885    1.083    0.077
