#   1 NUMBER                 Running object number                                     
#   2 MAG_AUTO               Kron-like elliptical aperture magnitude                    [mag]
#   3 X_IMAGE                Object position along x                                    [pixel]
#   4 Y_IMAGE                Object position along y                                    [pixel]
#   5 X_WORLD                Barycenter position along world x axis                     [deg]
#   6 Y_WORLD                Barycenter position along world y axis                     [deg]
#   7 A_WORLD                Profile RMS along major axis (world units)                 [deg]
#   8 B_WORLD                Profile RMS along minor axis (world units)                 [deg]
#   9 THETA_WORLD            Position angle (CCW/world-x)                               [deg]
#  10 FWHM_WORLD             FWHM assuming a gaussian core                              [deg]
#  11 ELONGATION             A_IMAGE/B_IMAGE                                           
#  12 ELLIPTICITY            1 - B_IMAGE/A_IMAGE                                       
         1 -11.9016    207.4047     36.5995   3.3838682133e+01   2.9815977852e+01    0.6333578    0.5786258 -74.04   0.00158873    1.204    0.169
         2 -11.2082    234.9316     10.4127   2.6433302630e+01   2.7377510694e+01    0.7766172    0.4769242 -48.46  0.005313077    1.419    0.295
         3 -10.7924    230.1743     10.6560   2.6790448479e+01   2.8260083323e+01    0.4810478    0.3455911 -68.56   0.00264808    1.062    0.058
         4  -8.5375    115.7867     12.6279   4.0125990098e+01   5.3103629333e+01    0.2441573    0.1614453  67.07  0.001001154    1.304    0.233
         5  -9.8858    120.2211      8.9420   3.8179450676e+01   5.2416177822e+01    0.4264544    0.2971798  49.89  0.001418423    1.312    0.238
         6  -8.6781      3.0395     10.8918   8.1185778295e+01   7.3233821594e+01    0.1915398    0.1601901 -78.45  0.001224209    2.857    0.650
         7  -9.0474      8.7370      8.7480   7.6632527184e+01   7.2973700628e+01    0.1666929   0.07654344  35.96 0.0009013283    2.425    0.588
         8  -8.2317    109.5926      7.2308   3.9531380439e+01   5.4966942610e+01     0.154808    0.1149003   9.77 0.0009411471    1.695    0.410
         9  -8.0249    237.3130    244.6855   7.0484315898e+01  -9.4602501398e+00    0.0958993   0.09156733  -8.45 0.0007033321    1.639    0.390
        10  -9.4032    248.4736    249.8148   6.9386161613e+01  -1.1348436353e+01    0.2060237    0.1538303   3.61  0.001034878    1.164    0.141
        11  -9.2590    140.1414    249.2843   9.0599912754e+01   2.4163375772e+00    0.2668574     0.227902 -30.77  0.001677409    1.274    0.215
        12  -9.9475    104.9158    249.4439   9.8405620853e+01   7.4237607481e+00    0.5406702    0.2449976  37.19  0.002504325    1.860    0.462
        13  -7.2361     80.3038    250.6860   1.0399345973e+02   1.0569638433e+01    0.1334707   0.08481552  59.26 0.0003380077    1.617    0.382
        14  -8.0136     62.4939    250.6623   1.0787429621e+02   1.2894689554e+01    0.1935896    0.1022518  35.15 0.0001412905    1.653    0.395
        15 -13.6442     42.6901    195.1947   1.0706919672e+02   2.7969939616e+01     6.595737     2.402639  57.61   0.01752649    4.069    0.754
        16 -12.8193     54.3644    233.3386   1.0809329579e+02   1.7593930134e+01    0.8128569    0.7682549  54.00  0.003015233    1.143    0.125
        17 -16.5248      9.2112    242.1752   1.1843408514e+02   2.0658466057e+01     4.819337     4.532239  84.21   0.03642083    1.285    0.222
        18 -10.6896    142.5264    229.4461   8.7166439756e+01   5.8196950756e+00     0.449328    0.3466811  26.94  0.002524772    1.178    0.151
        19  -7.5815    194.9952    231.0054   7.6170804587e+01  -2.1275707194e+00    0.1540403    0.1257089 -18.49 0.0003336459    1.115    0.104
        20  -9.6507    152.2560    226.7647   8.4554185000e+01   4.8616103982e+00    0.3243241    0.1973915 -12.11  0.001411629    2.420    0.587
        21  -8.9749     55.0025    222.4359   1.0688999992e+02   1.9965908343e+01    0.2306626    0.1828725 -82.70 0.0005491253    1.247    0.198
        22 -14.6258      6.1460    207.8077   1.1703910286e+02   2.8595800463e+01     3.137382     1.273156 -73.37   0.01134995    2.149    0.535
        23  -8.7612    157.0844    212.3846   8.1076176600e+01   6.9563299489e+00    0.2180935    0.1967282 -46.52 0.0002002892    1.223    0.182
        24  -8.1976     87.6284    211.9212   9.7708484656e+01   1.7970529911e+01    0.3627178    0.1495704  46.53 0.0009320523    2.460    0.594
        25  -9.8297    142.5653    208.7449   8.3798127844e+01   1.0048724406e+01    0.5108054    0.2011718 -53.68   0.00188706    2.817    0.645
        26  -8.5400     73.9229    207.0995   1.0050951636e+02   2.1067462439e+01    0.5055972    0.2635957  84.92  0.001826579    3.309    0.698
        27  -8.9348    166.0141    237.6747   8.3273434866e+01   7.8840950436e-01    0.2601702    0.1856551 -22.65  0.000346878    1.459    0.315
        28  -7.7179    187.0017    204.2510   7.3118970939e+01   3.8387528018e+00    0.1834236    0.1476526 -60.45 0.0009499402    1.620    0.383
        29  -7.3888     90.4750    201.5250   9.5521834550e+01   1.9999675969e+01    0.1434002    0.1362904  55.83 0.0008096243    1.003    0.003
        30  -9.1600     58.9645    196.9935   1.0306767433e+02   2.5536858202e+01    0.2573526    0.2147454 -79.77 0.0003860549    1.160    0.138
        31  -9.4882     22.0265    194.3945   1.1222824673e+02   3.0356170860e+01    0.4272972     0.309707  72.88  0.002453235    1.281    0.219
        32  -7.9063     84.3404    195.5312   9.6230619136e+01   2.2368048782e+01    0.1892462    0.1418637  17.83 0.0009285588    1.512    0.339
        33 -10.2135    197.7196    242.9726   7.7590437343e+01  -4.4579599900e+00    0.2272502    0.1866141 -12.53 0.0004045392    1.099    0.090
        34  -7.7460    158.1738    193.2688   7.7385064821e+01   1.0736708208e+01    0.1874966    0.1716632  87.78 0.0004695936    1.367    0.269
        35  -8.3563    191.1902    191.5950   6.9887121773e+01   5.6039719386e+00    0.2836453    0.1731746 -71.90 0.0009538413    4.566    0.781
        36  -7.4619     97.3317    192.6506   9.2378885785e+01   2.1078996007e+01    0.1583861     0.110756  67.92 0.0007048243    1.771    0.435
        37  -7.2788     90.3312    192.2666   9.4159440515e+01   2.2261807638e+01    0.1442585    0.1145403 -14.50 0.0003142242    1.580    0.367
        38  -8.9979     70.9700    191.3861   9.9168492578e+01   2.5319639114e+01    0.3060677    0.1999727 -61.35 0.0004626832    1.507    0.336
        39  -7.2967    179.5512    191.4650   7.2297098652e+01   7.5212928682e+00     0.140523    0.1297064 -13.74 0.0008070422    1.041    0.040
        40  -7.5934    181.5282    195.4903   7.2640356216e+01   6.3986444023e+00    0.1416511    0.1262768 -10.92 -3.306957e-06    1.013    0.013
        41  -8.3036    146.8668    187.5388   7.8954708617e+01   1.3926007786e+01    0.5055252    0.2496301 -69.82   0.00127062    6.413    0.844
        42  -7.3642    117.3122    189.6346   8.6682371923e+01   1.8537509640e+01     0.156225    0.1164975  73.11 0.0002675976    1.761    0.432
        43 -11.3159     61.5220    155.4613   9.6307739250e+01   3.5842459783e+01     1.720761    0.6901079  57.67  0.004352695    5.939    0.832
        44 -10.8738     82.5726    158.7759   9.0612692656e+01   3.1916435003e+01    0.7415422    0.6446335  -1.29 0.0008241413    1.309    0.236
        45 -11.7577     56.7864    183.7413   1.0194434613e+02   2.9143558526e+01     1.826975     1.211812 -86.84  0.008771899    1.638    0.389
        46 -10.2065     44.7629    177.7996   1.0447175973e+02   3.2127316370e+01    0.6629403    0.5709316 -17.28   0.00374597    1.411    0.291
        47 -13.0058     58.9513    132.9559   9.2975610356e+01   4.2026711657e+01     2.037538     1.197884  34.30  0.009116157    1.764    0.433
        48  -8.3433    125.7571    185.2685   8.3738288505e+01   1.8120811808e+01      0.24368    0.1110393 -42.34 0.0008861313    2.393    0.582
        49  -7.6541    126.2651    180.6752   8.2750157035e+01   1.9109344717e+01    0.1479809    0.1200005  80.29 0.0004266159    1.565    0.361
        50  -8.8489    118.1814    179.3066   8.4582481933e+01   2.0845885395e+01    0.2819604    0.2232476 -23.16 0.0008432258    1.452    0.311
        51 -10.3764    104.4773    177.4243   8.7876858128e+01   2.3643128435e+01    0.6256185    0.3222314 -59.71  0.002473872    2.046    0.511
        52  -8.4604     70.7355    177.5386   9.7200154189e+01   2.8853026590e+01    0.2640004    0.1783788  84.25  0.001183619    1.819    0.450
        53  -7.7737    180.6133    176.2574   6.9086859990e+01   1.0423427999e+01    0.2840036    0.1329632 -48.60   0.00113517    2.142    0.533
        54  -8.2328     90.5786    176.7951   9.1560964225e+01   2.6066072093e+01    0.2090842     0.145522 -74.55 0.0007617699    1.624    0.384
        55  -8.6182    220.8225    175.7800   6.1167179733e+01   3.9240682323e+00    0.1770243    0.1459815 -51.16 0.0005431975    1.342    0.255
        56  -8.8277    117.6579    174.4792   8.3806224873e+01   2.2098669179e+01    0.2624339    0.2439678 -74.73 0.0006306701    1.139    0.122
        57  -9.5114    110.7142    168.9447   8.4597401189e+01   2.4664071707e+01    0.3264852    0.2044633 -54.06 0.0005092481    1.595    0.373
        58  -8.4698    166.9589    233.0851   8.2342899868e+01   1.4790160848e+00    0.1961113    0.1699981   3.29 0.0003078858    1.022    0.022
        59  -8.7460    191.7266    168.9393   6.5304034214e+01   9.9737650092e+00    0.2085304    0.1777821 -36.54  0.001130004    1.085    0.078
        60  -9.6157     90.2214    167.3878   8.9994819693e+01   2.8501403670e+01    0.3543458    0.1716476  44.01  0.001354701    2.125    0.529
        61  -9.8103     52.6334    164.7591   1.0043892911e+02   3.4562144713e+01    0.5103325    0.2965387  67.70  0.001256556    2.271    0.560
        62  -8.5293     56.8168    158.4262   9.8217395367e+01   3.5686957653e+01     0.330158    0.2109859  62.28  0.001147351    1.886    0.470
        63  -9.8645    166.1739    160.0193   6.8876878267e+01   1.6461725906e+01    0.3155728    0.2399682 -40.63 0.0003281442    1.259    0.206
        64  -8.2558    171.7286    156.9483   6.6988216091e+01   1.6072340763e+01    0.2057798    0.1892909 -41.36 0.0002808226    1.055    0.052
        65  -9.3623    109.7535    154.1474   8.1871659651e+01   2.8484784628e+01    0.2987272    0.2403538  39.34 0.0003557123    1.253    0.202
        66  -8.6369    111.8370    150.6251   8.0539684869e+01   2.8972008502e+01    0.3026071    0.2064036  62.33 0.0006308287    1.890    0.471
        67 -10.5321     89.9205    151.5988   8.7053269494e+01   3.2569086434e+01    0.6573251    0.4934477  -6.75  0.002977473    1.742    0.426
        68  -8.1589     99.1121    152.2067   8.4491173440e+01   3.0855248850e+01    0.3454512    0.1943333 -79.80  0.001104646    3.417    0.707
        69  -8.7781     35.3460    151.1137   1.0361610482e+02   4.0087884986e+01    0.2346169    0.2000381  -3.07  0.001316897    1.374    0.272
        70  -9.4664    133.8357    145.8221   7.3550865919e+01   2.5926952772e+01     1.061323    0.2861327 -55.17  0.002409124    5.877    0.830
        71  -9.7611    102.6222    138.5949   8.0521245735e+01   3.3617846068e+01    0.5071338    0.3673973  -4.30  0.002166974    1.923    0.480
        72 -10.4002     91.0231    137.4899   8.3740698608e+01   3.5945877832e+01    0.3548842    0.3071389  27.87 0.0003663688    1.195    0.163
        73 -10.3242     70.4073    170.8547   9.6241338826e+01   3.0616126464e+01    0.5496329    0.3531898 -31.42  0.001381023    2.021    0.505
        74  -7.8564    121.1846    135.1834   7.4461296251e+01   3.0914764778e+01    0.2101258    0.1844975  86.76 0.0003264132    1.317    0.241
        75 -10.4606     74.8468    165.9495   9.4149943468e+01   3.1240277133e+01    0.5062543    0.4287628  48.49 0.0007541417    1.198    0.166
        76 -11.5821     71.3412    152.7699   9.2852511464e+01   3.5166987673e+01    0.6206158    0.3879681 -53.72  0.001064251    1.519    0.342
        77  -8.1432     98.9423    131.9191   8.0079163348e+01   3.5923895019e+01    0.2471172    0.1895021  73.01 0.0007396111    1.691    0.409
        78  -8.7418    112.0718    129.3385   7.5618368183e+01   3.4077561094e+01    0.3280389    0.2553646  -7.02 0.0009239818    1.637    0.389
        79  -8.6132    116.3588    129.0014   7.4322701311e+01   3.3319616463e+01      0.23794    0.2089665  38.32 0.0004556569    1.152    0.132
        80  -8.8496    249.4874    128.1453   4.7427334311e+01   7.8421831963e+00    0.1984965    0.1787101  86.68 0.0005866676    1.345    0.257
        81  -8.4597    144.4067    147.2255   7.1197215952e+01   2.3518999971e+01    0.2259883    0.1461352 -58.60 0.0009510347    1.725    0.420
        82  -8.6975    235.7006    126.1152   4.8932863933e+01   1.0428122158e+01    0.2024198     0.175184 -80.50  0.001099826    1.330    0.248
        83  -8.8319     99.3538    125.2623   7.8371956684e+01   3.7460578911e+01    0.2762727    0.2367595 -13.51 0.0007225408    1.296    0.229
        84 -12.3939     68.7098    144.6576   9.2136471052e+01   3.7650724581e+01       1.5774    0.8541217  36.06  0.003548856    1.879    0.468
        85  -8.9352    164.2726    242.2421   8.4353689999e+01   2.2681622211e-01    0.2744529    0.1785023  33.57 0.0002434322    1.414    0.293
        86  -8.6334     81.2256    182.9446   9.5144221989e+01   2.5956264785e+01      0.41619    0.2181266  42.11  0.001739711    1.871    0.466
        87  -8.8799     59.9082    119.8641   8.9903217751e+01   4.5211276014e+01    0.2385305    0.2170701  71.63  0.001300987    1.242    0.195
        88 -10.0656     53.4889    116.4854   9.1388786755e+01   4.6907875670e+01    0.4477981    0.2842683 -80.60  0.001562745    2.151    0.535
        89  -7.9253    108.1518    118.8613   7.4164606424e+01   3.7295908252e+01    0.2208768    0.2052532  80.33 0.0003098125    1.184    0.156
        90  -9.8321     34.3130    119.1319   9.8702049436e+01   4.8438864685e+01    0.2573542    0.2051722  32.79  0.001345483    1.376    0.273
        91 -11.0000     30.3007    111.5278   9.8691149578e+01   5.0729689992e+01    0.5988609     0.325304 -58.22  0.002818059    1.599    0.375
        92  -8.7621    174.5094    113.8550   5.6614039031e+01   2.4426265350e+01     0.325519    0.2635711 -24.67 0.0009075641    1.393    0.282
        93 -10.5797     42.7049    114.2111   9.4734929605e+01   4.8778001303e+01    0.5694023    0.1824364  39.01  0.001949199    3.414    0.707
        94 -10.1942     23.2895    114.5224   1.0178889252e+02   5.0608443815e+01    0.4070612    0.1914075  32.92  0.001410128    2.297    0.565
        95  -8.0456     95.4501    111.0589   7.5996213404e+01   4.1527634686e+01    0.3536908    0.2031712  18.92  0.001293641    2.601    0.616
        96 -10.9185     49.2208    107.6248   9.0923085904e+01   4.9622563704e+01    0.5220289    0.3428486 -31.25  0.002113249    1.619    0.382
        97  -8.7293     64.2424    106.3353   8.5197544532e+01   4.7887437228e+01    0.2492663    0.2105377 -20.51  0.000476079    1.205    0.170
        98 -10.2492     79.2074    102.9170   7.9119617944e+01   4.6300400422e+01    0.2460385    0.2341444   1.21 0.0002676699    1.032    0.031
        99 -10.2040     16.9552    110.2372   1.0333507161e+02   5.2173398012e+01     0.424713    0.2235001  30.79  0.001316127    2.094    0.522
       100  -9.8778     50.6509     99.0536   8.8334004033e+01   5.1484803306e+01    0.4633023    0.2212523  44.54  0.001274164    2.578    0.612
       101  -8.5299     45.9868     96.7289   8.9522862127e+01   5.2612315703e+01    0.2771921    0.1830615  39.60 0.0008181519    1.685    0.407
       102  -7.0405    151.2643    100.6906   5.8262462862e+01   3.2060193997e+01     0.147624    0.1151041 -76.36 0.0001610817    1.534    0.348
       103  -9.9134     36.0532     97.2439   9.3479330901e+01   5.3618951461e+01    0.5070803    0.2165006  25.07  0.002108893    2.470    0.595
       104  -9.0391     32.4897     91.3511   9.3494342285e+01   5.5362961303e+01    0.2707453    0.2214667  50.64  0.001266674    1.511    0.338
       105  -7.1664    158.3052     84.3302   5.2525439616e+01   3.3537964007e+01     0.142269    0.1160423  12.58 0.0004533282    1.656    0.396
       106  -7.3937    113.9909     60.7154   5.5891587676e+01   4.7582607292e+01    0.1700325    0.1187946  50.85 0.0003723714    1.336    0.251
       107  -7.8314    153.1336     59.1747   4.6851275888e+01   3.8846237664e+01    0.1880177    0.1526794 -76.24 0.0003913665    1.285    0.222
       108  -8.2021    145.6744     57.1819   4.7719280491e+01   4.0873909571e+01    0.2278443    0.1701675  70.10 0.0003221648    1.305    0.234
       109 -11.1988    187.7818     53.6918   3.9971095508e+01   3.1761615800e+01    0.7349336    0.4512389  69.78  0.002188344    1.578    0.366
       110 -11.8194    198.2577     45.4414   3.6763283870e+01   3.0611094508e+01    0.8709809    0.7149852 -88.29  0.003810514    1.080    0.074
       111  -8.9465    237.3164    249.4199   7.1245115445e+01  -1.0125109626e+01    0.2065923   0.09643225  22.71  0.001049191    2.078    0.519
       112  -8.2199    219.2339     50.8733   3.5602852607e+01   2.5502127878e+01    0.1779515     0.135627 -66.21 0.0003434232    1.100    0.091
       113  -8.4781    114.9447     48.1911   5.1707091962e+01   4.9236015658e+01    0.2022576    0.1943921 -19.06 0.0003367648    1.139    0.122
       114  -7.4507    231.5192     46.5284   3.3518633832e+01   2.3668334287e+01     0.117184   0.09774516 -68.54 0.0008081896    1.087    0.080
       115  -7.4777    141.7744     41.9762   4.4175465212e+01   4.3888180705e+01    0.1578699    0.1118746 -34.35 0.0003600442    1.561    0.359
       116  -7.3812    109.6600     33.1740   4.8095275423e+01   5.2363007292e+01    0.1588337    0.1241818  -8.72 0.0001143149    1.540    0.351
       117  -9.2993    219.0283     28.7242   3.1120814303e+01   2.8397018423e+01    0.1696443    0.1290116 -86.46 0.0007843344    1.128    0.114
       118  -8.1160    160.7820     19.2204   3.5101702477e+01   4.2119599385e+01    0.1813143    0.1463284 -87.87 0.0007495495    1.093    0.085
       119  -8.9846    176.6721    248.5417   8.2717011527e+01  -2.5704619817e+00    0.2251856    0.2081242  61.88 0.0006803751    1.569    0.363
       120 -10.1670     94.3301    245.5546   1.0031798242e+02   9.6852152252e+00    0.4757097    0.3242297 -68.37  0.001812994    1.692    0.409
       121 -10.0204     93.7481    237.6356   9.9521001399e+01   1.1397184616e+01    0.6024661    0.3174868 -81.06   0.00248183    3.029    0.670
       122  -8.1860     79.4699    235.0661   1.0251604026e+02   1.3936015069e+01    0.2404412    0.1799971  13.59 0.0008713249    1.591    0.371
       123  -8.6687     71.8882    245.5145   1.0533205953e+02   1.2743543047e+01     0.445579     0.150493 -58.89  0.001841384    3.077    0.675
       124  -9.6443    119.3773    247.0604   9.4886162376e+01   5.8211501433e+00    0.2634809    0.1762716  39.56  0.001442628    1.328    0.247
