#   1 NUMBER                 Running object number                                     
#   2 MAG_AUTO               Kron-like elliptical aperture magnitude                    [mag]
#   3 X_IMAGE                Object position along x                                    [pixel]
#   4 Y_IMAGE                Object position along y                                    [pixel]
#   5 X_WORLD                Barycenter position along world x axis                     [deg]
#   6 Y_WORLD                Barycenter position along world y axis                     [deg]
#   7 A_WORLD                Profile RMS along major axis (world units)                 [deg]
#   8 B_WORLD                Profile RMS along minor axis (world units)                 [deg]
#   9 THETA_WORLD            Position angle (CCW/world-x)                               [deg]
#  10 FWHM_WORLD             FWHM assuming a gaussian core                              [deg]
#  11 ELONGATION             A_IMAGE/B_IMAGE                                           
#  12 ELLIPTICITY            1 - B_IMAGE/A_IMAGE                                       
         1 -13.8698    168.2550     57.1390   4.7610818785e+01   3.5827041076e+01     8.525057     2.358395 -46.33   0.02614024    4.085    0.755
         2 -13.0223    226.1065     66.0443   4.1460817355e+01   2.1511297508e+01     1.544639    0.8855767 -55.46  0.007943078    1.632    0.387
         3 -11.2141    249.9927     22.8817   3.0373651136e+01   2.2558157024e+01    0.7487509    0.2881996 -35.52   0.00224512    2.485    0.598
         4 -12.1841    191.8959     50.2225   4.2156388082e+01   3.1296613319e+01     1.706977    0.8627085 -51.56  0.007810267    1.987    0.497
         5 -13.3917    224.4726     85.0133   4.5869044793e+01   1.8861779272e+01     7.281067     1.804521 -52.20   0.01360683   11.856    0.916
         6  -9.7719    133.9863     16.9862   4.1812253140e+01   4.9025765373e+01    0.2945985    0.1968625 -12.09  0.001241985    1.896    0.473
         7  -9.4755    228.4321      5.9425   2.8607075181e+01   2.8714004684e+01    0.2895402    0.1723807 -26.47  0.001716546    2.146    0.534
         8  -9.7666    232.0154     13.4166   2.9834616924e+01   2.7179753449e+01    0.3287209    0.2001719 -29.41  0.001969981    1.962    0.490
         9  -7.5324    232.6794      5.3937   2.8212661898e+01   2.7913097038e+01    0.4529539    0.2170042 -46.94  0.001938284    1.745    0.427
        10  -9.9167    213.6018     11.8958   3.0945633246e+01   3.1179042538e+01    0.2874636    0.2242372  89.80  0.001263064    1.113    0.101
        11  -9.8503    120.1607      9.3117   4.1788255628e+01   5.2975577035e+01    0.2979399    0.2759629 -49.15  0.001051654    1.247    0.198
        12 -10.1092    205.5872      7.3702   3.0630388702e+01   3.3381248281e+01    0.2213246    0.1653175 -73.70 0.0003021076    1.117    0.105
        13  -9.9506    209.0629      3.6942   2.9558069003e+01   3.2999318583e+01    0.2236551    0.1610904 -33.93 0.0005576346    1.576    0.366
        14  -9.8825    171.9956      5.2481   3.3295380679e+01   4.1157994259e+01    0.3724217    0.1741748 -28.40  0.001030959    2.411    0.585
        15  -7.7798    164.9319      7.7299   3.4727899159e+01   4.2575485401e+01    0.1431423   0.09409467  70.36 0.0002286063    1.300    0.231
        16  -9.7871    249.6909      2.0401   2.6541716503e+01   2.4951947712e+01    0.2149163    0.1415096 -66.52  0.001518804    1.148    0.129
        17 -14.0949    245.0092     84.9650   4.3250006563e+01   1.4874797849e+01     6.743054     1.465566 -35.12   0.01877585    5.704    0.825
        18  -8.9814    188.9795      8.5504   3.2381601593e+01   3.6950692237e+01     0.205633    0.1737204 -43.90 0.0002856901    1.304    0.233
        19 -13.8697    235.0646     41.4432   3.5261719509e+01   2.3158430202e+01     3.083894     1.789744  77.86   0.01748187    1.756    0.430
        20  -8.0839    243.6555      1.2046   2.6736242634e+01   2.6191312829e+01    0.1108675   0.06109936 -72.90 0.0003246906    1.523    0.343
        21  -9.2808    195.1537    199.0611   7.5722382585e+01   3.1815319378e+00    0.3094907    0.1878512 -63.17  0.001247181    3.155    0.683
        22  -8.5138    137.7671    250.3743   9.6356846010e+01   2.8015638458e+00    0.3329071    0.1095034  32.36  0.001192919    2.752    0.637
        23  -9.2925     31.7895    197.2310   1.1426509635e+02   2.8585728244e+01     0.206258    0.1850283 -85.00 0.0003473455    1.127    0.113
        24  -8.0168    156.3167    198.5000   8.4093865994e+01   9.8115615589e+00     0.254039    0.1321446 -48.08  0.001078277    1.997    0.499
        25  -7.7618    172.8285    187.8227   7.8330836369e+01   9.1288948182e+00     0.186812    0.1715739  62.59 0.0005441452    1.334    0.250
        26  -8.0633    242.1348    183.4897   6.3858251753e+01  -1.2943860655e+00     0.163942    0.1235941  28.93 0.0004163742    1.461    0.316
        27  -8.7248     34.1348    181.7810   1.1219950054e+02   3.2090476311e+01    0.2127979    0.1657733 -77.72 0.0004057344    1.144    0.126
        28  -9.1947    238.2854    175.8275   6.3018483380e+01   5.5594598833e-01    0.2787651    0.2236823  74.85  0.001137759    2.224    0.550
        29 -10.3633     11.1342    175.4692   1.1735373418e+02   3.5778817041e+01    0.2819824    0.2077175 -33.82  0.001660776    1.775    0.437
        30 -11.3353      9.6340    162.1877   1.1657829782e+02   3.9170936673e+01    0.5975329    0.4185998 -55.96  0.003518438    1.403    0.287
        31  -8.5944    201.6222    175.1104   6.9669238508e+01   6.6083967694e+00    0.2161019    0.1953082  40.98 0.0005698399    1.278    0.218
        32 -10.6585     54.5549    148.5105   1.0218672685e+02   3.8276795292e+01    0.9145045    0.5945702 -69.85  0.004408328    1.458    0.314
        33 -12.6421     26.0861    162.3618   1.1221708136e+02   3.7748924826e+01    0.7751532    0.7284002  86.21  0.001685795    1.117    0.105
        34 -12.4220     38.9063    156.1337   1.0788910890e+02   3.8080023591e+01      1.04234    0.9072514 -68.52  0.002915362    1.059    0.055
        35  -9.6691    230.7134    167.7599   6.2713317865e+01   3.1246925106e+00    0.3662291    0.2106477 -54.57  0.001662068    2.319    0.569
        36  -8.3731    182.5237    163.8684   7.1275437470e+01   1.2285356126e+01     0.282133    0.1966836  60.66  0.001088997    1.975    0.494
        37 -11.7374    204.6480     76.1479   4.6635062275e+01   2.4488437639e+01     1.144562    0.5006031  49.31  0.004703688    2.590    0.614
        38  -7.7646    230.6732    249.3336   7.7663240954e+01  -9.7938259082e+00   0.09909426   0.09311069  27.95 0.0007051532    1.716    0.417
        39  -8.1315    217.8028    158.0750   6.3016279894e+01   7.0255206989e+00    0.2025103    0.1742621 -53.34  0.000445712    1.304    0.233
        40  -7.9073    159.5759    158.5128   7.5292110733e+01   1.7838658153e+01     0.152511    0.1463067 -26.71 0.0008054621    1.026    0.026
        41  -9.8008    191.1459    153.8653   6.7279820464e+01   1.2697593024e+01    0.3794184    0.3153521  59.49  0.001047407    1.458    0.314
        42 -10.1454    177.6061    148.2529   6.8895495496e+01   1.6492318604e+01    0.2787717    0.2747512 -83.16 0.0002689522    1.124    0.111
        43  -9.0081    134.1776    146.7609   7.8975502832e+01   2.5544282200e+01    0.6177112    0.2414133 -56.90  0.001853328    3.340    0.701
        44  -9.7767     70.0200    145.5074   9.7017002302e+01   3.7014304267e+01    0.3977511    0.3273972  43.85  0.002077123    1.275    0.215
        45 -10.1209     66.4016    144.1968   9.7869480242e+01   3.7857468169e+01    0.5946423    0.3545638 -76.28  0.002006933    1.942    0.485
        46  -8.5329    222.8759    145.0794   5.9353060888e+01   8.5416458365e+00    0.1980714    0.1766084 -52.50 0.0003842434    1.204    0.170
        47  -8.7703    215.8403    144.7944   6.0531859205e+01   9.8576809491e+00    0.2392049    0.1835483 -38.85 0.0006535956    1.159    0.137
        48  -9.3250    182.7455    145.0730   6.7066721529e+01   1.6133884777e+01    0.2182376    0.1883323 -31.82 0.0004104518    1.096    0.088
        49  -8.2901    121.0857    145.1159   8.2104413801e+01   2.8487896755e+01    0.2184584    0.1972043 -17.77            0    1.176    0.149
        50  -9.4056    192.3054    143.9682   6.4835505157e+01   1.4471607463e+01    0.2591241     0.220309  32.95 0.0006165391    1.254    0.202
        51  -7.9885    146.9902    143.4989   7.4951062927e+01   2.3729345246e+01    0.2178423    0.1372484  65.17 0.0008088989    2.418    0.587
        52 -11.0845    179.5168    135.5945   6.5560646427e+01   1.8754230802e+01    0.5324701    0.4393806 -72.34  0.002648748    1.468    0.319
        53  -8.2571    159.4953    142.5268   7.1688628797e+01   2.1391409857e+01    0.1551115    0.1496081 -28.28 0.0001391849    1.009    0.009
        54 -10.7215    232.1516     37.2041   3.4654245300e+01   2.4300819586e+01    0.3223131    0.1936177 -42.50 0.0007007867    1.498    0.333
        55  -7.9383    155.7160    138.3566   7.1605249605e+01   2.3094087904e+01    0.1580304    0.1252134 -80.78 0.0007019368    1.669    0.401
        56  -9.5604    207.6911    135.2973   5.9915957896e+01   1.3186246848e+01    0.2784218    0.2547416 -83.28 0.0007337742    1.286    0.222
        57 -10.2703    189.3192    134.2744   6.3218753105e+01   1.7021627838e+01    0.4703504    0.2669294 -57.69  0.001870386    2.239    0.553
        58  -7.5420     84.2503    135.6631   9.0710193910e+01   3.7392131948e+01    0.1509472    0.1184524  86.10 0.0004650374    1.564    0.360
        59  -9.1991    170.6560    134.2898   6.7181065752e+01   2.0864850549e+01    0.2676776     0.190828  57.64 0.0007091663    1.629    0.386
        60  -9.0141    140.5341    132.0305   7.3846684312e+01   2.7678096341e+01    0.3232173    0.2217314  47.69  0.001307014    1.521    0.342
        61  -9.1296    223.2973    128.9260   5.5786270557e+01   1.1427249111e+01    0.2379018    0.2045558  36.31 0.0004725433    1.330    0.248
        62  -8.4445    160.9811    127.9961   6.7856520610e+01   2.4254599334e+01    0.2554465    0.1982687 -83.83  0.001142749    1.757    0.431
        63  -9.9332    201.7443    126.0313   5.8904696824e+01   1.6137672486e+01     0.248806    0.2161907  34.85  0.000591706    1.271    0.213
        64  -8.6080    119.6355    248.3092   9.9949683879e+01   5.8381024004e+00    0.1350904   0.08756289  57.43 0.0001787919    1.751    0.429
        65  -8.3967    171.6717    118.8935   6.3209115805e+01   2.3869910541e+01    0.2909181    0.2004209 -57.13 0.0006767058    1.596    0.373
        66  -9.3075    165.8190    117.0852   6.4039210031e+01   2.5518314605e+01    0.4148573    0.2655443  48.59  0.001092178    1.627    0.385
        67  -8.4838    169.3596    115.6798   6.2906854593e+01   2.5033101079e+01    0.3305576    0.2323364 -75.30  0.000909345    2.051    0.513
        68  -8.4141    166.5760    112.7080   6.2762964732e+01   2.6253192378e+01    0.3057408    0.2105718 -48.14 0.0008594988    1.426    0.299
        69  -7.5700    127.2079    119.6322   7.4257702139e+01   3.3290619887e+01    0.1552109    0.1201306 -70.02 0.0004157828    1.567    0.362
        70  -8.9484    134.7407    111.2596   7.0040465175e+01   3.3566018585e+01    0.6964537    0.1309345 -41.93  0.001538902    5.794    0.827
        71  -7.9526     70.0437    113.4974   9.0256189361e+01   4.5147017310e+01    0.1984928    0.1486843  30.05 -7.697176e-05    1.417    0.294
        72 -10.1595    194.5927    111.2483   5.6749448286e+01   2.0450272774e+01    0.3070686    0.2699104  88.15  0.001667512    1.273    0.214
        73 -10.1907    205.5988    109.8866   5.4465838788e+01   1.8400804829e+01    0.4059767    0.3489259   8.17  0.001822044    1.434    0.303
        74  -8.3202    158.6622    108.0124   6.3320816379e+01   2.8972770615e+01    0.2474944    0.1808409 -57.70 0.0007918861    1.487    0.327
        75  -9.7251    121.5560    100.6277   7.0694647530e+01   3.8704670280e+01    0.9238918     0.367119 -56.90  0.002485947    4.502    0.778
        76  -9.5946    151.6726    101.3867   6.3175875073e+01   3.1893148604e+01    0.3052413    0.2760958 -19.04 0.0006187279    1.178    0.151
        77  -9.0791    137.2787     97.3825   6.5587085405e+01   3.5947877208e+01    0.2674697    0.2572429  71.52 0.0006688852    1.079    0.074
        78  -8.7131    134.5214    240.9796   9.5786457523e+01   4.9717342296e+00     0.176276     0.132516 -55.11 0.0007063671    1.557    0.358
        79 -10.4456    164.3196     95.6514   5.8811465094e+01   3.0145734599e+01    0.6625198    0.4129126  42.21  0.002902983    1.730    0.422
        80 -10.2000     88.2725     95.3863   7.9358072927e+01   4.6438504857e+01    0.2649341     0.237724 -24.37 0.0002975526    1.077    0.072
        81  -7.8347    150.2696     92.2970   6.1018160548e+01   3.4014731049e+01    0.2098353    0.1372733 -47.64 0.0001862009    1.546    0.353
        82  -9.5119    145.9164     91.6005   6.1844045076e+01   3.5147738434e+01    0.3310155    0.2962261  89.03 0.0006933681    1.231    0.188
        83 -11.0487    162.5979     86.3313   5.6671051997e+01   3.2292024796e+01    0.3985259    0.2965562 -24.76 0.0007560999    1.540    0.351
        84  -8.0885    194.7410     88.5735   5.1211401256e+01   2.4570185997e+01      0.19144    0.1370735  74.60 0.0005008371    1.601    0.375
        85  -7.4984    134.5512     87.4317   6.3442630642e+01   3.8548589138e+01     0.149435    0.1481465  43.58 0.0002186128    1.009    0.009
        86  -9.5200    208.3325     85.2385   4.8235482979e+01   2.2186182899e+01    0.3116155    0.2070633 -58.64 0.0006123791    1.528    0.345
        87 -10.2909    190.4595     82.6380   5.0464823507e+01   2.6553922819e+01     0.334471    0.3039293 -21.76 0.0001208034    1.242    0.195
        88  -7.6877    148.6807     83.6810   5.8969033912e+01   3.6015472080e+01    0.1531016      0.11989  12.94 0.0007042221    1.663    0.399
        89  -8.1046     19.4716     83.5357   1.0199726250e+02   5.7961146562e+01    0.1298496    0.1120029 -49.32 0.0008079698    1.069    0.064
        90  -9.1121    128.3070     81.8754   6.3411086690e+01   4.1026897941e+01    0.2642315     0.239931  74.25 0.0004166659    1.200    0.167
        91  -8.2726    116.4891     80.5419   6.6210122001e+01   4.3897843619e+01    0.2865776     0.143182 -29.08  0.001032353    2.579    0.612
        92  -8.2248    139.6895     78.9888   5.9713166500e+01   3.8963521353e+01    0.2120106    0.1939733 -38.09 0.0005401688    1.111    0.100
        93  -9.4418    136.9737     74.4824   5.9030628229e+01   4.0403480229e+01    0.2646789     0.212928 -11.71 0.0005863779    1.480    0.324
        94  -8.0900    122.6392     75.3162   6.2913986541e+01   4.3523671321e+01    0.1537523    0.1200666 -86.34 0.0007042612    1.759    0.432
        95  -9.7935    151.1903     71.4972   5.4936064291e+01   3.7590362613e+01    0.2956053     0.242071 -59.18 0.0005194409    1.292    0.226
        96  -7.8357    106.8427     71.1738   6.6043068684e+01   4.7730154159e+01    0.1987908    0.1672197   6.78 0.0002844167    1.283    0.221
        97 -10.4969    145.0302     68.4727   5.5392921823e+01   3.9554446966e+01    0.3257384    0.2253061  18.85  0.001425792    2.104    0.525
        98 -11.4239    246.2475     54.4007   3.6846352184e+01   1.9196082454e+01    0.9019766    0.3266867 -54.69  0.003822833    2.788    0.641
        99  -9.9257    196.5897     65.5233   4.5257087685e+01   2.7966101142e+01    0.2779504    0.2360272  72.49  0.001616872    1.178    0.151
       100 -11.1591    143.7460     59.4855   5.3004047185e+01   4.1311167699e+01    0.4340632    0.3470758  52.27  0.001137816    1.198    0.165
       101  -8.2868    129.5989     60.8596   5.6636664798e+01   4.4420838599e+01    0.1931834     0.134277 -48.13 0.0003946236    1.567    0.362
       102 -11.7524    182.3630     86.7618   5.2928580580e+01   2.7665404557e+01     1.067784    0.6896645 -55.19  0.003529079    1.620    0.383
       103  -7.8448     72.6524     58.1869   7.2922575265e+01   5.6718332470e+01    0.1903851    0.1218877 -30.02 0.0006007399    1.572    0.364
       104  -7.9787    105.4664     57.4623   6.1896085684e+01   5.0395749899e+01    0.1437459    0.1327325  24.12 0.0003140592    1.015    0.015
       105  -9.6744    122.9094     52.0454   5.5442086451e+01   4.7334859956e+01    0.4261444    0.2539765  63.23  0.001917392    1.821    0.451
       106 -12.2970    182.7398     73.7218   4.9514753142e+01   2.9815034571e+01    0.6527303    0.4988076 -31.12  0.003411222    1.405    0.288
       107  -8.9364    134.8814     51.3325   5.2435621232e+01   4.4642051333e+01    0.2100895    0.1757269  52.59 0.0008806945    1.121    0.108
       108 -12.9908    238.6882     60.7225   3.8905088697e+01   1.9765072148e+01    0.9204138    0.7054627 -53.50  0.001905169    1.090    0.083
       109  -9.6218    137.5412     45.7122   5.0117585399e+01   4.4807586740e+01    0.3175376    0.1800114  54.51 0.0006382019    1.613    0.380
       110  -9.2436    190.5245    236.7119   8.3313956695e+01  -2.6395503980e+00    0.3040436    0.2507992  77.59  0.001503469    2.273    0.560
       111 -10.9602    133.1255     36.9569   4.8283304679e+01   4.7007369474e+01    0.6364791    0.3167501 -40.80  0.001884181    2.165    0.538
       112  -9.6927    120.9005     39.1023   5.1646032901e+01   4.9603728351e+01    0.2826293    0.2595647  18.95 0.0003141148    1.134    0.118
       113  -9.4382    161.1935     37.7581   4.3433465347e+01   4.0190727040e+01    0.2796247    0.2129388 -49.20 0.0006581339    1.351    0.260
       114  -8.6277    101.6395     39.2003   5.6569832771e+01   5.3933330536e+01    0.1843624    0.1283277 -14.99 0.0009423262    1.645    0.392
       115  -7.8619     26.2244     34.2972   8.3890203870e+01   6.7403309390e+01    0.1745003   0.09568869 -53.40 0.0006633952    2.331    0.571
       116  -8.3286    198.1443     31.4990   3.6844738459e+01   3.2334345050e+01    0.1896671    0.1586183 -33.01 0.0004968984    1.376    0.273
       117  -8.8312    125.3376     31.9373   4.8283691546e+01   4.9456863032e+01    0.1862461    0.1771469  35.67 0.0008850819    1.087    0.080
       118  -9.2191    110.2811     30.3455   5.1156545931e+01   5.3121592805e+01    0.2289225     0.218015 -32.37 0.0006813518    1.180    0.153
       119  -7.7779     92.4912    236.5257   1.0444099636e+02   1.2064529234e+01    0.1328553    0.1113766  53.43  0.000809257    1.064    0.060
       120  -9.2649    179.1516     23.8681   3.7201734821e+01   3.7593450060e+01    0.4478312     0.301889 -86.95  0.002494931    1.454    0.312
       121  -7.8758    114.8505     24.1729   4.7935975076e+01   5.2771657765e+01    0.1832571    0.1376242  37.27 0.0003232321    1.292    0.226
       122  -9.6759    130.9893     22.2629   4.4019192066e+01   4.9202020395e+01    0.3682613    0.1956965 -29.96  0.001158069    2.082    0.520
       123 -10.2641    210.9561    230.9509   7.8304843316e+01  -4.5954227444e+00    0.2229633    0.1888274  -4.88 0.0003305505    1.106    0.096
       124  -9.4360    178.7632    231.1189   8.4817203295e+01   1.5848417450e-02    0.3083273    0.2128839  34.25 0.0007786136    1.359    0.264
       125  -9.1047    180.0950    226.3347   8.3745800235e+01   6.4152859304e-01    0.2125114    0.1994271 -14.53 0.0002343018    1.204    0.169
       126  -8.4638     73.6408    229.3045   1.0781983671e+02   1.6193918971e+01    0.1419949   0.08412715  60.43 0.0007039217    1.725    0.420
       127  -8.7356    238.3160    228.5754   7.2805795170e+01  -7.8184303769e+00    0.2067558    0.1059093  34.92 0.0007835696    2.065    0.516
       128  -9.4589     83.5779    227.3011   1.0537684810e+02   1.5250589018e+01    0.2185351    0.1631835  10.65  0.001035583    1.754    0.430
       129  -9.0776    181.0217    221.8312   8.2788294026e+01   1.2908920211e+00    0.2122145    0.1827667 -28.72 0.0005249025    1.208    0.172
       130  -8.7768    224.5307    218.6203   7.3569545127e+01  -4.5238010574e+00    0.2675872    0.2047105  57.12   0.00123541    2.344    0.573
       131  -7.4615    207.7444    219.3176   7.6907602705e+01  -2.2787622217e+00    0.1094049    0.1051782 -60.84  0.000174626    1.535    0.349
       132  -9.7069    147.7479    215.4272   8.8992094459e+01   7.8052641943e+00    0.2323878    0.2212807   0.30 0.0003172598    1.071    0.066
       133  -8.0818     99.7182    210.2534   9.9459792810e+01   1.6610213692e+01      0.17413    0.1563286 -25.60 0.0004210309    1.296    0.228
       134  -8.4952    185.7348    207.8055   7.9314360646e+01   3.0853067381e+00    0.2403697    0.1762186  57.43 0.0007662681    1.983    0.496
       135  -8.2293    237.9619    203.4761   6.8368609617e+01  -3.9580239032e+00    0.1500309    0.1122795  58.31 0.0005122429    2.459    0.593
       136  -8.8236    170.4985    201.1635   8.1385002229e+01   6.8567798323e+00    0.2301101    0.1814792  29.62 0.0003085736    1.212    0.175
