#   1 NUMBER                 Running object number                                     
#   2 MAG_AUTO               Kron-like elliptical aperture magnitude                    [mag]
#   3 X_IMAGE                Object position along x                                    [pixel]
#   4 Y_IMAGE                Object position along y                                    [pixel]
#   5 X_WORLD                Barycenter position along world x axis                     [deg]
#   6 Y_WORLD                Barycenter position along world y axis                     [deg]
#   7 A_WORLD                Profile RMS along major axis (world units)                 [deg]
#   8 B_WORLD                Profile RMS along minor axis (world units)                 [deg]
#   9 THETA_WORLD            Position angle (CCW/world-x)                               [deg]
#  10 FWHM_WORLD             FWHM assuming a gaussian core                              [deg]
#  11 ELONGATION             A_IMAGE/B_IMAGE                                           
#  12 ELLIPTICITY            1 - B_IMAGE/A_IMAGE                                       
         1 -13.7454    195.8007     33.1005   5.7439317815e+01   3.3080602029e+01     1.661089     1.252209  27.57  0.008365667    1.896    0.473
         2 -13.4992    206.9033     19.9731   5.2986168027e+01   3.2138595759e+01     1.046554    0.8279545  31.60  0.006319534    1.791    0.442
         3 -10.9733    163.8190     12.6403   5.7182799701e+01   4.2812908334e+01    0.3615866    0.2440251 -62.67  0.002037467    1.773    0.436
         4 -10.6295     40.8694      2.8573   8.4549494159e+01   6.6525580958e+01    0.2079516    0.1340859  -8.45  0.001474078    1.339    0.253
         5 -11.3592     67.4968    242.9566   1.2769270726e+02   1.5484701175e+01    0.4736989    0.3556271  55.01  0.003133907    1.230    0.187
         6 -13.1793    163.8098    228.3310   1.0694927972e+02   2.5037895783e+00     1.539164     1.156055 -41.27  0.008561313    1.514    0.339
         7 -13.7603    114.9376    245.6805   1.1914010706e+02   7.6973316147e+00     3.736571    0.9548895  37.60   0.01178379    4.634    0.784
         8 -12.3727    114.0098    229.4201   1.1725661204e+02   1.1048522264e+01     1.149554    0.5641058  50.25  0.005377603    1.848    0.459
         9 -12.1696     99.1382    227.5619   1.1999744630e+02   1.3867926892e+01     1.241759    0.5241822  46.75  0.005561538    2.112    0.526
        10 -17.3750      9.6040    131.2045   1.2743639781e+02   4.6410051839e+01     9.897964     1.536004 -68.70   0.02965095    5.507    0.818
        11  -9.4846     84.3217    233.7786   1.2362431076e+02   1.4889968508e+01    0.2203954     0.199576  81.93  0.000586713    1.200    0.167
        12  -9.6338     49.0064    233.0378   1.3010292620e+02   1.9961166941e+01    0.2640139    0.1423984 -85.03 0.0008515946    1.728    0.421
        13  -9.0097     53.5420    230.9950   1.2909784351e+02   1.9795303417e+01    0.2277533    0.1500002 -79.37 0.0007773536    1.341    0.255
        14  -8.7959     52.2172    227.1720   1.2898358841e+02   2.0759845795e+01    0.2120612    0.1133141  65.75 0.0003895115    1.775    0.437
        15 -13.7886     32.3318    165.3881   1.2641822353e+02   3.6766409606e+01     1.161505    0.6381221 -72.13  0.002843474    1.510    0.338
        16  -9.5254     85.5142    218.4826   1.2161028159e+02   1.7916800899e+01    0.2393216   0.09903985  50.47  0.001033857    2.269    0.559
        17 -10.8098    183.1874    215.2915   1.0077864797e+02   1.4140173946e+00      0.35216    0.2835163  84.79  0.001812488    1.653    0.395
        18  -9.9387     69.8280    209.4364   1.2370236109e+02   2.2190732802e+01    0.3218664    0.1819808  81.96 0.0007103845    2.037    0.509
        19 -10.0301    164.2903    206.1783   1.0313043859e+02   6.7460379465e+00    0.5531035    0.1306802 -50.12  0.001598162    4.582    0.782
        20  -9.7142     75.0445    206.5348   1.2228318212e+02   2.2088238574e+01    0.3382538    0.2342978 -64.64  0.001290069    1.391    0.281
        21 -15.8695     17.9404    105.7466   1.2143889229e+02   5.1362028356e+01     3.589615     1.809296  89.22   0.01461053    4.043    0.753
        22  -8.9668     94.9911    199.9953   1.1718164526e+02   2.0511725214e+01    0.2299309    0.1494748  75.57  0.001119887    1.731    0.422
        23 -11.0976    193.6600    193.9388   9.4660487283e+01   3.5595953671e+00    0.8051623    0.5603756 -65.24  0.003793247    1.886    0.470
        24 -13.5576    139.2965    231.7090   1.1245998378e+02   6.2380673479e+00     1.732422    0.8902976  35.06  0.007819867    2.060    0.515
        25  -9.6893    207.6059    182.6353   8.9567669100e+01   3.0849186820e+00    0.2843401    0.2093015 -85.93   0.00128919    2.173    0.540
        26 -11.1800     71.9554    180.5045   1.1949793792e+02   2.8477226675e+01    0.4517232    0.2774196 -39.61   0.00127027    2.254    0.556
        27 -11.1882     76.0990    175.2605   1.1778185557e+02   2.9117187093e+01    0.2990146    0.2407623 -45.07 0.0006233347    1.431    0.301
        28  -8.9740     99.5399    180.6157   1.1319778042e+02   2.4228720532e+01    0.2362573    0.2177988  57.18 0.0006091186    1.138    0.121
        29  -9.1473    211.5147    178.9692   8.8039980154e+01   3.0445701666e+00    0.2195618    0.1386454 -44.02  0.000644753    1.564    0.361
        30  -8.8813     77.9580    243.3154   1.2582699214e+02   1.3917078143e+01    0.1670545    0.1267978  57.98 0.0001398842    1.154    0.133
        31 -10.3107    132.3079    172.5565   1.0410429795e+02   2.0248420108e+01    0.2967986    0.1396285  46.13  0.001147701    2.111    0.526
        32  -9.9170    195.6278    169.8726   8.9403724261e+01   8.0364586061e+00    0.3609377    0.2693723 -45.57  0.001312874    1.332    0.249
        33  -9.9800    137.4834    171.1131   1.0261386008e+02   1.9582394235e+01    0.2612399    0.2086865  70.97  0.001292487    1.354    0.262
        34  -8.6700    164.0000    168.0213   9.5889924213e+01   1.4951153136e+01    0.2482135   0.08643822 -48.13 0.0006511775    2.890    0.654
        35 -10.1940    164.0000    149.4757   9.1920678076e+01   1.9069818694e+01    0.6275671   0.08749789 -46.82  0.001270315    7.128    0.860
        36  -8.3005    139.9889    156.5087   9.9066726246e+01   2.2450798752e+01    0.2100126    0.1286421  66.81 0.0008047696    2.277    0.561
        37  -9.4767    188.4861    154.8688   8.7702993776e+01   1.2669368181e+01    0.3189868     0.207161  28.34  0.001342769    1.956    0.489
        38 -10.7555     92.7251    235.5461   1.2221053505e+02   1.3244764573e+01    0.2624484    0.1950357 -83.58 0.0004958121    1.298    0.230
        39  -9.6911    174.4827    148.9899   8.9451426766e+01   1.6931921086e+01    0.2874734     0.266211  81.47  0.001008241    1.116    0.104
        40 -10.3894    133.7322    144.5742   9.8027143134e+01   2.6455137377e+01     1.107743    0.2503319 -54.19  0.002511408    5.993    0.833
        41 -10.2867    104.0653    141.8618   1.0492846566e+02   3.2623475591e+01    0.5803763    0.3544161 -26.95  0.002295056    2.618    0.618
        42 -11.5238     91.6554    142.3993   1.0824266936e+02   3.4555875068e+01    0.2844419    0.2405891 -47.47 0.0003223266    1.172    0.147
        43  -9.3852    112.4446    131.6842   1.0056232982e+02   3.3505363881e+01    0.2988315    0.2485324  -1.77 0.0007055206    1.528    0.346
        44  -9.5854    105.8061    130.7549   1.0209467774e+02   3.4907933220e+01    0.3081141    0.2659596 -78.12    0.0016459    1.221    0.181
        45 -14.9599     54.0476    203.9535   1.2627018564e+02   2.5525299867e+01      6.22827     2.475352 -52.57   0.02698234    2.883    0.653
        46 -10.9784    161.8896    127.9189   8.7460941339e+01   2.4276545857e+01    0.4994994    0.4490647  86.07   0.00256948    1.175    0.149
        47 -11.0235    135.2465    122.4523   9.2565821186e+01   3.1161871620e+01     0.840139    0.1601906 -49.39  0.001939602    5.691    0.824
        48 -10.3165    100.0509    127.9882   1.0300869343e+02   3.6537585604e+01    0.3122936    0.2451636 -24.39 0.0007427549    1.520    0.342
        49  -9.2987    125.5731    126.7730   9.6043905212e+01   3.2138884308e+01    0.2206964    0.1424316 -60.72 0.0009521208    1.694    0.410
        50 -11.3641    163.8981    119.7488   8.5039265537e+01   2.5586644722e+01    0.9271581    0.2048359 -43.98   0.00237987    4.515    0.779
        51 -10.1242    167.2425    112.4675   8.2502962435e+01   2.6361988423e+01    0.4628792    0.2799829  57.10  0.001943842    1.766    0.434
        52  -9.0596    108.7601    120.1072   9.8879100224e+01   3.6805911238e+01    0.2066644    0.1914886 -79.64 0.0004013289    1.127    0.113
        53  -8.7872    108.2305    114.1949   9.7610610472e+01   3.8215012842e+01    0.3586757    0.1948837  62.85  0.001260833    3.263    0.694
        54  -9.7152    134.5566    103.1476   8.7923523502e+01   3.5438969704e+01    0.3606447    0.1452273 -42.36  0.001276851    2.508    0.601
        55 -10.8511    118.0667    126.6195   9.7944983657e+01   3.3618949541e+01    0.5821207    0.3022881 -45.88  0.002156089    1.882    0.469
        56 -11.2805    120.2736    110.0930   9.3381854640e+01   3.6853263485e+01     0.431444    0.2896083 -52.61   0.00200952    1.502    0.334
        57 -11.9461    126.1722    229.6732   1.1483304874e+02   8.9282720656e+00    0.8683826     0.600102  68.63  0.004357466    1.528    0.345
        58 -15.9589      4.7445    238.3770   1.3793900364e+02   2.3915761248e+01     2.166118     1.285782  83.80   0.01214337    1.246    0.197
        59  -9.1454     86.5004     99.4928   1.0006982112e+02   4.5037438439e+01    0.2218893    0.1816003  78.52 0.0005637903    1.634    0.388
        60  -9.3611    205.6259    110.0726   7.4040344884e+01   1.8106174156e+01    0.2742116    0.2200665  45.74  0.000701627    1.334    0.250
        61 -10.9417     53.5519     95.5673   1.0891775876e+02   5.0278524123e+01    0.3275234    0.1683474 -53.24  0.001627656    1.693    0.409
        62 -11.1114     38.6722     95.7044   1.1345302881e+02   5.1784382240e+01    0.2958961    0.1967557  -4.54  0.001505038    1.911    0.477
        63 -10.2631    164.1298     92.6400   7.8197492738e+01   3.1020026233e+01    0.4888348   0.09144423 -42.98  0.001200587    5.251    0.810
        64 -11.0712     45.3209     91.6285   1.1053021921e+02   5.1980344451e+01    0.3555909    0.1787513 -34.05  0.001574323    2.148    0.534
        65  -9.2442     24.8549     82.2097   1.1482213014e+02   5.5719319452e+01    0.1647546    0.1428059 -56.38 0.0005015396    1.182    0.154
        66  -8.4457    156.4905     79.4926   7.6443501638e+01   3.5193932151e+01    0.1455777    0.1406067  58.47 3.822516e-05    1.015    0.015
        67  -9.7479     61.9061     68.9611   9.9483538141e+01   5.4506208791e+01     0.248615    0.1770892  35.19 0.0009446401    1.550    0.355
        68 -10.6175    163.6196     64.1472   7.0832488831e+01   3.6154872528e+01    0.4733816    0.2556199 -56.76  0.001925486    2.444    0.591
        69 -10.0356    156.9203     59.0984   7.0856823147e+01   3.8493267132e+01    0.3072495    0.2321722  88.44 0.0004903045    1.630    0.387
        70 -10.3827    159.2013     52.8636   6.8700516528e+01   3.8909441164e+01    0.2947408    0.2160316  68.25 0.0005803359    1.378    0.274
        71 -12.1271    186.5216     39.8875   6.0463187099e+01   3.4356354072e+01    0.6294496    0.4487276  47.18  0.000999214    1.476    0.323
        72 -10.9923     82.5751    249.7788   1.2563686179e+02   1.1976583649e+01     1.325222    0.2716546  37.40  0.003695914    6.979    0.857
        73 -15.6350      4.6509    203.2207   1.3559940368e+02   3.1046617781e+01      1.67835    0.9660082  88.93  0.006196982    1.372    0.271
        74 -14.7783     69.9156    149.2472   1.1508007558e+02   3.6136022116e+01     5.689194     3.041845  89.11   0.01670635    3.552    0.718
        75  -9.9342     58.8795    243.3029   1.2926150002e+02   1.6598843638e+01    0.5791228    0.2448961  84.23  0.002285593    3.811    0.738
        76  -9.0476    189.7215     14.9906   5.4037825923e+01   3.6638632069e+01     0.172083    0.1538051 -86.32 0.0007483426    1.105    0.095
