#   1 NUMBER                 Running object number                                     
#   2 MAG_AUTO               Kron-like elliptical aperture magnitude                    [mag]
#   3 X_IMAGE                Object position along x                                    [pixel]
#   4 Y_IMAGE                Object position along y                                    [pixel]
#   5 X_WORLD                Barycenter position along world x axis                     [deg]
#   6 Y_WORLD                Barycenter position along world y axis                     [deg]
#   7 A_WORLD                Profile RMS along major axis (world units)                 [deg]
#   8 B_WORLD                Profile RMS along minor axis (world units)                 [deg]
#   9 THETA_WORLD            Position angle (CCW/world-x)                               [deg]
#  10 FWHM_WORLD             FWHM assuming a gaussian core                              [deg]
#  11 ELONGATION             A_IMAGE/B_IMAGE                                           
#  12 ELLIPTICITY            1 - B_IMAGE/A_IMAGE                                       
         1 -10.7205     89.6555     31.8684   8.3269993783e+01   5.5340548890e+01    0.8745518    0.4933434  40.20  0.004621472    1.547    0.353
         2 -10.6978     89.6243     21.4870   7.9684558881e+01   5.6453722413e+01    0.3633837    0.2250583   9.35  0.001153948    1.856    0.461
         3 -12.4762     84.9232     54.8142   9.2389808541e+01   5.3191042958e+01     1.366372    0.9620239  57.03  0.007232891    1.901    0.474
         4 -12.1031     77.0708     30.8495   8.6538943182e+01   5.7759745618e+01     1.299174    0.6111089 -17.14  0.005940617    2.667    0.625
         5 -12.2481     66.5417     30.9265   8.9859453171e+01   5.9538241511e+01     0.912313    0.4521444  38.43  0.004783375    1.815    0.449
         6 -10.4008     73.8341     17.0421   8.2473795653e+01   5.9803410055e+01    0.2719823    0.2291865  11.08  0.001000109    1.110    0.099
         7 -11.4263     58.9079     49.3133   9.8969228249e+01   5.8220959666e+01    0.8401744    0.5516315 -46.98  0.004669816    1.914    0.478
         8 -12.7746     36.4383     62.6398   1.1138041962e+02   5.8858738395e+01    0.9911573    0.8407407  76.97  0.001797397    2.127    0.530
         9 -11.6402     68.2308     20.5826   8.5485725028e+01   6.0418315517e+01     0.835148    0.3989574  31.43  0.004284522    1.961    0.490
        10 -10.2697    123.0984      9.9085   6.8479226259e+01   5.0615651551e+01    0.3993632    0.2405839  50.57   0.00154394    1.359    0.264
        11 -12.1454    109.6430     30.4091   7.7690898307e+01   5.1526435954e+01    0.7001746    0.4069197  60.58  0.001809043    1.808    0.447
        12 -11.0090    128.9229     14.4302   6.8752461675e+01   4.8965275675e+01     0.745491    0.2192217  50.82  0.003063305    2.626    0.619
        13 -11.0794    115.9095     14.4924   7.1273151519e+01   5.1765986989e+01    0.8367007    0.3909886  74.07  0.003350816    3.456    0.711
        14 -11.9288    113.7261      7.4801   6.9522542654e+01   5.2810998037e+01     1.339629     0.298535  55.24   0.00518542    3.067    0.674
        15 -13.2443     99.6841      5.5894   7.1828311499e+01   5.5859681513e+01    0.5369472    0.3627752 -22.31 0.0003732458    1.698    0.411
        16 -11.9418     93.4473      7.7037   7.3959543503e+01   5.6940601531e+01    0.6152949    0.3185797  41.20  0.003409903    1.590    0.371
        17 -11.5982    112.6547     22.3238   7.4423643799e+01   5.1729869263e+01    0.6761217    0.5296369  76.62  0.002296604    1.551    0.355
        18  -9.5796     55.0426     18.3039   8.8910388146e+01   6.2792970623e+01    0.4371749    0.2194597  26.39  0.001988252    1.898    0.473
        19 -11.8652     57.4631      3.9643   8.2422396269e+01   6.3769364255e+01    0.5854034    0.3888811  38.38  0.003288459    1.281    0.219
        20 -10.7226     68.7946      4.2042   7.9097800464e+01   6.1827195852e+01    0.6085155    0.2596737  35.52  0.003162876    2.009    0.502
        21 -11.3623     41.5636     15.0363   9.2424502635e+01   6.5112513053e+01    0.7456887    0.4493142  38.80  0.004504983    1.693    0.409
        22 -11.1838     50.1588     10.0878   8.7317198042e+01   6.4371861809e+01    0.3290952    0.2409816   9.51  0.001177973    1.100    0.091
        23 -11.3130     22.7725      4.4230   9.5398726623e+01   6.8638178313e+01    0.9151251    0.4279755  34.08  0.005008332    1.995    0.499
        24  -9.6374     31.4402     12.1490   9.5148701474e+01   6.6759928984e+01    0.4483206    0.2107338 -16.98  0.002443279    2.236    0.553
        25 -11.9562     19.1882     13.9243   1.0098209171e+02   6.7974068169e+01    0.6663512    0.3116943  32.21  0.003970376    2.138    0.532
        26 -11.8260     12.7311      7.4538   1.0109139046e+02   6.9404323602e+01    0.4599095    0.3415617 -39.07  0.003351483    1.967    0.491
        27 -12.1603      9.0488     24.5458   1.0961659600e+02   6.7539643004e+01    0.8810166     0.559435  -3.80  0.006113757    1.340    0.254
        28 -12.5626      3.3601     17.4244   1.0946323768e+02   6.8993314458e+01     0.366098    0.1873846 -20.64 0.0005058866    1.662    0.398
        29 -13.2877      4.2477      9.3992   1.0581012707e+02   6.9964351378e+01    0.5323805    0.2897775 -34.59 0.0004287552    1.654    0.395
        30  -9.7384    186.6099     19.0196   6.1377591595e+01   3.5601661833e+01    0.4101767    0.2211667 -47.01  0.002195086    1.944    0.486
        31 -10.1047    176.9263     22.1403   6.3339012193e+01   3.7454334500e+01     0.472044    0.2754586   8.59  0.002058173    3.585    0.721
        32 -11.0979    175.6543     15.5233   6.1915178657e+01   3.8407781893e+01    0.3057453    0.2210847 -57.21  0.001160724    1.480    0.324
        33 -10.6458    178.0264     28.6755   6.4771412015e+01   3.6503152137e+01    0.5078831    0.3555309  -7.30  0.002725438    2.041    0.510
        34 -11.6538    130.1178     20.0883   7.0194425875e+01   4.8185538352e+01     1.125684    0.3787922  57.93  0.003580591    2.434    0.589
        35  -9.8567    239.3981     16.7637   5.5618142107e+01   2.4599364664e+01     0.926662    0.2390408 -50.84  0.003756308    3.694    0.729
        36 -10.8022    234.5141     10.4451   5.4842467924e+01   2.6265073665e+01    0.3708028     0.195798  75.51 0.0007479611    1.680    0.405
        37 -10.2300    233.6911      7.3025   5.4324164536e+01   2.6760023235e+01    0.2182003    0.1613842 -89.67 0.0002548755    1.113    0.102
        38  -8.7548    144.9890      8.2836   6.4341775449e+01   4.5943433977e+01    0.2289729    0.1580873 -89.22  0.001331603    1.648    0.393
        39  -9.0109    156.1698     11.1478   6.3451373281e+01   4.3197144923e+01    0.1772986     0.147362  51.78 0.0004922738    1.147    0.128
        40 -11.7743    149.4319     15.8430   6.5692468093e+01   4.4284711740e+01    0.6187501    0.4371374  23.63  0.003617421    1.743    0.426
        41 -10.1390    156.3700     15.5672   6.4567691510e+01   4.2749278768e+01    0.3154871     0.255629  -5.25  0.001633142    1.542    0.352
        42 -10.5782    211.8416     15.2035   5.7798274540e+01   3.0474097314e+01    0.3432279    0.1947167 -43.99  0.001580553    1.745    0.427
        43 -10.3589    162.7462     16.3460   6.3847966190e+01   4.1237431347e+01    0.5718716    0.2273979  48.23  0.002552596    2.451    0.592
        44  -9.3504    167.7216      7.6783   6.1029200026e+01   4.0914494741e+01    0.1955033    0.1365122 -73.69  0.001172533    1.567    0.362
        45 -10.2358    164.4529     11.1536   6.2309675879e+01   4.1336440351e+01    0.3335341    0.2120736  87.21   0.00149361    1.656    0.396
        46 -11.0027    163.7328      5.0469   6.0892050587e+01   4.2032881751e+01    0.4367673    0.3066134 -27.97  0.001917004    1.695    0.410
        47  -9.7586    218.4633     13.4795   5.6818114128e+01   2.9251158123e+01    0.3016945    0.1727838  84.77  0.001744527    1.618    0.382
        48 -10.0307    185.8428     13.7555   6.0262307792e+01   3.6302318898e+01    0.3518335    0.1708946  62.57  0.001837785    1.746    0.427
        49  -9.3862    243.0055     12.8429   5.4606631975e+01   2.4315194438e+01    0.2025711    0.1542064 -80.82  0.001453598    1.053    0.050
        50  -9.4326    243.3422      8.4878   5.3794348055e+01   2.4717319974e+01    0.2359946    0.1201781 -50.27  0.001278523    1.731    0.422
        51 -10.2657    223.2539      1.9459   5.4153821385e+01   2.9423082167e+01    0.3383117    0.2214372  81.30 0.0009350458    1.282    0.220
        52  -9.9742    221.9215     10.8483   5.5985250542e+01   2.8802444984e+01    0.5581636      0.24041 -78.83  0.002393796    3.304    0.697
        53  -9.8690    226.3725      8.9993   5.5242816206e+01   2.8073387370e+01    0.3231607    0.2254028 -59.53   0.00214697    1.299    0.230
        54  -9.4589    141.5974     11.4130   6.5726102070e+01   4.6431694074e+01    0.1760866    0.1693872  44.02 0.0008072701    1.150    0.130
        55 -10.7402     83.4526      6.7026   7.6057007566e+01   5.8952430053e+01    0.4091811     0.246958 -29.51  0.001773617    1.929    0.482
        56 -10.8186     77.5137      8.9567   7.8444132266e+01   5.9873003715e+01    0.2794624    0.2358206  -4.23 0.0007423339    1.257    0.205
        57  -9.8566     77.4542      4.5261   7.6827439475e+01   6.0243656966e+01    0.3651959    0.1676645  31.12  0.001878719    2.088    0.521
        58  -9.9735    249.8306      8.2567   5.3274694579e+01   2.3481597914e+01    0.2437561     0.149063 -73.80    0.0016041    1.407    0.289
        59  -9.7697    181.0419      4.4590   5.8689073763e+01   3.8235218570e+01    0.3337057    0.2173657 -77.90  0.001719562    1.600    0.375
        60  -9.7544    175.8138      4.0439   5.9185852974e+01   3.9429496662e+01    0.4116055    0.2556147 -88.82   0.00153659    1.635    0.388
        61 -10.0078    204.4916      6.0772   5.6623991159e+01   3.2967929865e+01    0.2361116    0.1852292  68.50 0.0008375183    1.206    0.171
        62 -11.0291    199.1885      6.1478   5.7154346489e+01   3.4104896271e+01    0.5246236     0.361717 -88.63  0.002329934    1.296    0.229
        63  -9.6660    200.5759      1.5174   5.6047762093e+01   3.4237036832e+01    0.2060061    0.1464734  74.83 0.0005223726    1.180    0.153
        64 -10.5408    210.7435      4.9247   5.5807699428e+01   3.1745541585e+01    0.3956437    0.2069231  44.31  0.001920169    2.699    0.629
        65 -10.9205    207.6826      2.7612   5.5647229478e+01   3.2602054679e+01    0.3624582    0.2136669  81.51  0.001491463    1.465    0.317
        66  -8.6834    138.2288      8.4018   6.5432475821e+01   4.7432562416e+01    0.1701064    0.1045687  74.46 0.0009349781    1.615    0.381
        67  -9.0799    217.2613      5.1748   5.5280310276e+01   3.0348934434e+01     0.236194    0.1214513  54.49  0.001314162    2.100    0.524
        68 -11.4093    132.5762      4.6768   6.5301794717e+01   4.8973382916e+01    0.6212704    0.2453958  52.13   0.00265916    1.996    0.499
        69 -11.0607    139.8684      1.8664   6.3374260740e+01   4.7588521945e+01    0.3276249    0.2185044  76.94 0.0004491777    1.446    0.308
        70 -11.9487     28.3155     26.7212   1.0225783161e+02   6.5355041000e+01     1.000138     0.523468 -21.74  0.005791262    1.779    0.438
        71  -9.9949    190.4569      8.0389   5.8463444782e+01   3.5831791907e+01    0.7396477    0.1282007  63.53  0.002643208    3.888    0.743
        72  -8.7705    146.8400      4.4114   6.3029381885e+01   4.5848891249e+01    0.1838065   0.08583048  55.01 0.0009405052    1.734    0.423
        73  -9.5552    230.5554      2.1077   5.3606982184e+01   2.7919404682e+01     0.194221    0.1293484  65.56 0.0006196962    1.479    0.324
        74 -11.1656     39.8722      2.3151   8.7744137370e+01   6.6609081275e+01    0.4279256    0.2479953  46.68  0.001554073    2.011    0.503
        75 -10.9398     77.8829    101.8286   1.0855139047e+02   4.5833878020e+01     0.749557     0.317246  36.09  0.003015173    2.475    0.596
        76  -9.2692     84.8607     67.6394   9.6527405837e+01   5.1174213074e+01    0.2189854    0.1566457  20.91  0.001169706    1.402    0.287
        77 -11.0562     82.2784     86.8962   1.0310386970e+02   4.8141380766e+01     0.819031    0.2674308 -45.18  0.001868801    2.971    0.663
        78  -9.9666     87.1112     99.9427   1.0526353377e+02   4.4744902634e+01    0.3925729    0.3006003 -42.09   0.00128151    1.248    0.199
        79 -11.0996     88.7771     91.8714   1.0254325710e+02   4.6086392412e+01    0.9100474    0.5179022 -50.76  0.003186419    1.909    0.476
        80 -11.3093     68.6750    106.7077   1.1261882961e+02   4.6155286625e+01    0.7697247    0.4187995 -17.80   0.00285222    3.273    0.694
        81 -10.4932     74.5083    107.7555   1.1109897098e+02   4.5083991321e+01    0.4481805    0.3283052 -57.07  0.001898166    1.438    0.305
        82 -12.0193     82.1625     74.8776   9.9592485068e+01   5.0386014913e+01    0.3129862    0.2622931  25.98 0.0002808207    1.175    0.149
        83 -10.7146     78.1264     69.9202   9.9332792626e+01   5.1921788715e+01    0.6469991    0.3879143  25.90  0.003194909    1.748    0.428
        84  -9.8735     75.2894    124.4665   1.1485372876e+02   4.1257676001e+01    0.3349238    0.2007118  38.02  0.001315244    1.794    0.443
        85  -9.9390     98.4883    114.4673   1.0575239372e+02   3.9729498178e+01    0.3563851    0.2642476  33.32  0.001779208    1.396    0.283
        86 -10.6402    133.3774    103.4929   9.3501205274e+01   3.5193239580e+01    0.4760894    0.2702899 -38.63  0.001870166    1.773    0.436
        87  -8.8624    128.8315    104.1714   9.4830739928e+01   3.6010683286e+01    0.2024292    0.1711038   7.87 0.0002533431    1.295    0.228
        88  -9.5549    141.4295    102.2660   9.1200411580e+01   3.3712894437e+01    0.3001786    0.2553693 -12.46  0.001544002    1.278    0.217
        89  -9.0102    105.7838    102.6297   1.0058542196e+02   4.0886196576e+01    0.2165416    0.1735075  16.11 0.0004968659    1.337    0.252
        90 -10.9820    115.0326     95.6940   9.6138068375e+01   4.0476271982e+01    0.4835104    0.2573381 -50.85   0.00150087    2.155    0.536
        91 -10.2673     64.4647     98.0490   1.1173613216e+02   4.8581341209e+01    0.3096977    0.2828219 -28.43  0.001283633    1.060    0.057
        92  -9.6057     34.6766     98.8184   1.2150555311e+02   5.1898036685e+01    0.2576229    0.2293735   7.32 0.0008184668    1.243    0.196
        93  -9.4074     38.9919     97.0152   1.1968731047e+02   5.1852399111e+01    0.2184255    0.1328022 -26.82 0.0009737237    1.738    0.425
        94  -9.0123    232.0160     99.0000   7.3177714511e+01   1.4604678072e+01    0.2066947   0.07690808  55.55 0.0006825321    2.927    0.658
        95 -10.7034    158.9186     96.8423   8.5765067626e+01   3.0880413800e+01    0.4907602    0.3608283 -70.34   0.00222682    1.801    0.445
        96  -9.2041     53.4296    104.6134   1.1685611133e+02   4.8607868396e+01    0.2682652    0.1248451 -57.86  0.001144226    2.184    0.542
        97  -9.2180    188.5445     94.0949   7.9151106221e+01   2.4717765825e+01    0.2129983    0.1932644  53.91 0.0006351115    1.121    0.108
        98  -9.9009     67.0068     43.2494   9.4124982321e+01   5.7867188693e+01    0.5751609    0.1984916 -39.34  0.002042143    3.060    0.673
        99 -10.7743     87.5983     41.7218   8.7219885474e+01   5.4527343595e+01    0.4862007    0.3880044 -21.55  0.002321895    1.281    0.219
       100 -11.6680    101.4973     54.2246   8.7434089452e+01   5.0178138850e+01     0.887693    0.4131373  38.47  0.002627081    2.086    0.521
       101  -8.8457    142.9992    243.0000   1.1992222371e+02   4.0178414981e+00    0.2206733   0.06710346  38.36 0.0007985905    2.916    0.657
       102  -9.1994     13.2859    232.6673   1.4440478618e+02   2.3957341141e+01    0.1182721   0.06602048  71.14 0.0001936076    1.620    0.383
       103 -12.8401    102.8341     80.6413   9.5196601653e+01   4.5654164687e+01     1.535858    0.9453626 -53.76  0.006935081    2.084    0.520
       104 -11.3982    100.9869     66.5661   9.1460048707e+01   4.8399564963e+01     0.925321    0.4600487 -49.86    0.0032583    2.739    0.635
       105 -10.5925     78.6820     60.5762   9.6194786841e+01   5.3379883946e+01    0.3612843     0.336025 -34.18  0.001792377    1.291    0.225
       106  -9.1489     27.3194    194.6419   1.3837716011e+02   3.0658917591e+01    0.1323134   0.07937827  72.48 0.0007044525    1.761    0.432
       107  -8.6959    245.3438    187.3021   8.9467439108e+01  -3.1222834113e+00    0.1361666   0.09258346  -3.87 0.0007038919    1.681    0.405
       108 -10.4427     18.7587    184.0336   1.3912899169e+02   3.3887520105e+01    0.2521102    0.1776247  20.49  0.001547639    1.865    0.464
       109  -8.9382     36.7960    179.3860   1.3453135284e+02   3.3150188759e+01     0.158276    0.1260506  12.57 0.0009512369    1.655    0.396
       110  -8.7074     76.8748     93.5071   1.0662947619e+02   4.7700538064e+01    0.1968148    0.1353713  32.12 0.0005255489    1.507    0.336
       111  -8.9040    194.5922     90.1517   7.7118716971e+01   2.4046741803e+01    0.1967846    0.1353143 -25.64 0.0009388485    1.691    0.409
       112  -9.1735     71.4912     89.0000   1.0707230808e+02   4.9418688188e+01    0.3789282    0.1603042  34.63  0.001564565    2.469    0.595
       113  -9.6359    153.3676     87.4833   8.4500455236e+01   3.3799870147e+01    0.2818924    0.1959496  43.55 0.0009376415    1.427    0.299
       114  -9.7748    145.8702     86.8941   8.6015165944e+01   3.5576214706e+01    0.2347676    0.1972644  14.33 0.0007834672    1.328    0.247
       115 -10.1050    140.8110     85.2897   8.6741683250e+01   3.6975078282e+01    0.3743132    0.2392133 -45.65  0.001728696    1.655    0.396
       116 -11.2716    119.2909     86.0654   9.2291237160e+01   4.1420630840e+01    0.6298156    0.3296061  42.66  0.002686119    1.877    0.467
       117  -9.8035    123.8193     80.3420   8.9481341550e+01   4.1494786048e+01    0.3610438    0.2230901  22.27  0.001530004    2.169    0.539
       118  -8.7929    238.3180     86.6571   6.9676074231e+01   1.5350343693e+01    0.1390028   0.09107174 -67.30 0.0006118915    1.717    0.418
       119  -8.6296    186.5200     84.5019   7.7167015758e+01   2.6802124880e+01    0.1418017    0.1336259 -78.06 2.838307e-06    1.044    0.042
       120  -9.1635     76.7719     83.6315   1.0387647765e+02   4.9651368822e+01    0.2611509    0.1858557 -68.53  0.001239629    2.262    0.558
       121  -8.6608    196.5051     83.4030   7.5176847916e+01   2.4743952945e+01    0.1368782     0.130877 -87.97 -0.0002559939    1.023    0.023
       122  -9.9660    217.4098     80.0463   7.1143863839e+01   2.0715380130e+01    0.4010472    0.1335509 -33.69  0.001393235    3.422    0.708
       123 -10.5663    134.7674     80.0145   8.6694464423e+01   3.9208479971e+01    0.4385906    0.2979078 -49.83   0.00209635    1.660    0.397
       124 -10.7239    138.6473     76.3977   8.4763863693e+01   3.8965302987e+01    0.4298303    0.2545527 -30.46  0.001190047    1.832    0.454
       125 -11.7111     17.7642     81.4484   1.2317073827e+02   5.6970456308e+01    0.2810614    0.2137156  -8.92 0.0004239864    1.344    0.256
       126  -9.2266      1.8385    178.1128   1.4221323425e+02   3.6660733079e+01    0.1812603    0.1326307  84.94  0.001025117    1.206    0.171
       127 -10.2767     61.8666     78.6760   1.0725649288e+02   5.2798736788e+01    0.7324332    0.3995577  43.61  0.003474853    2.245    0.555
       128 -10.9456     55.7132     61.9518   1.0425732210e+02   5.6641445146e+01     1.012663    0.6309705  26.78  0.005605903    1.602    0.376
       129 -11.0679     32.6137     70.4117   1.1504190980e+02   5.7830021001e+01    0.7755896    0.3878613  -4.94  0.003352646    3.139    0.681
       130 -11.5777     54.2700     37.1719   9.6310083276e+01   6.0628798434e+01    0.8000663    0.4013798  28.80  0.004182138    1.914    0.478
       131 -10.5912     44.8576     37.7755   9.9946122603e+01   6.1837663315e+01    0.5343241    0.2677144  14.62  0.002569894    2.488    0.598
       132 -11.4445     25.4944     53.0827   1.1256736925e+02   6.1623649507e+01    0.5123904    0.2515644 -16.74  0.002457461    2.550    0.608
       133 -11.0288     68.2104     75.9008   1.0434714632e+02   5.2405309091e+01     0.451749    0.3240119 -35.69 0.0008599568    1.292    0.226
       134 -11.8639     59.9837     69.5915   1.0517659858e+02   5.4726912206e+01     1.163488    0.4050336  35.11  0.004700623    2.949    0.661
       135 -10.2372     12.7142     56.5602   1.1857504118e+02   6.2094791389e+01    0.3266115    0.2167816  22.62  0.002132543    1.705    0.413
       136 -11.4584     43.0059     49.6413   1.0478827959e+02   6.0295705483e+01    0.7004851    0.3406926  25.23    0.0029927    2.099    0.524
       137 -10.7573     38.4830     43.9194   1.0453073072e+02   6.1727678301e+01      0.41387    0.2883959 -39.66   0.00183989    1.500    0.333
       138 -11.0958     31.7439     43.1314   1.0685827954e+02   6.2610549502e+01    0.4070779    0.3198409 -20.35  0.001776367    1.102    0.092
       139 -11.0574     51.4790     71.0870   1.0854685076e+02   5.5583263644e+01    0.4046842    0.2872799  36.02 0.0009643672    1.608    0.378
       140  -8.8370     80.3312    176.3256   1.2359496844e+02   2.8322291468e+01    0.1427904    0.1070071 -26.70  0.000705088    1.707    0.414
       141 -11.1712     10.4752     62.2080   1.2099327103e+02   6.1227693576e+01     1.382597    0.8924592 -81.10  0.007000329    3.263    0.694
       142 -12.7837     19.4361     58.4494   1.1652470696e+02   6.1225180845e+01    0.5248631    0.3123155 -20.88  0.002160016    1.575    0.365
       143 -10.7469    145.3684     76.9694   8.3400963034e+01   3.7378667734e+01    0.3947445    0.3259505 -73.29  0.002071385    1.490    0.329
       144  -9.0802     89.3386     78.2981   9.8433988588e+01   4.8544553614e+01    0.2234091    0.1832502   6.68 0.0009177703    1.202    0.168
       145  -9.7694     92.4919     76.9571   9.7090994932e+01   4.8224068021e+01    0.3116856    0.2514907 -11.15  0.001728823    1.231    0.188
       146  -9.9311    114.9758     77.0656   9.0817973734e+01   4.3887295219e+01    0.2669965    0.1901977 -34.41  0.001350214    1.423    0.297
       147 -11.4634     26.7424     64.6320   1.1555300540e+02   5.9463809159e+01     1.294751    0.4356436 -29.86  0.004350029    4.744    0.789
       148  -9.0402    165.9432     76.4634   7.8969920879e+01   3.2799945005e+01    0.2194779    0.1366104  55.76 0.0008504894    1.569    0.363
       149 -10.5601    149.9895     72.0305   8.1033712026e+01   3.7137656862e+01    0.3025507    0.2617393 -84.29  0.001037785    1.346    0.257
       150 -10.5042    126.5906     63.7518   8.3949879786e+01   4.3598229126e+01    0.4529056    0.1995458 -32.22  0.001523402    2.459    0.593
       151  -9.9183    125.1203     74.8649   8.7569026224e+01   4.2148762461e+01    0.5320502    0.2526698  42.64  0.002191582    2.051    0.513
       152 -10.9902    126.3347     70.0087   8.5852439602e+01   4.2680366773e+01    0.6391597    0.2961482  55.70  0.002529233    2.391    0.582
       153 -10.5030    116.1047     69.5702   8.8295966507e+01   4.4901300632e+01    0.3993509    0.3124459 -54.95  0.001777649    1.574    0.365
       154 -11.6218    120.3666     64.5775   8.5716105185e+01   4.4798447607e+01    0.7665799     0.398954  55.69   0.00331017    2.090    0.522
       155  -8.5644    247.3141     74.9658   6.6145272709e+01   1.5381398384e+01    0.2206717   0.06682605 -52.90 0.0007046954    4.332    0.769
       156  -9.7140    159.8622     81.4341   8.1504519016e+01   3.3368791368e+01    0.3454302     0.239779  66.93 0.0008429749    1.626    0.385
       157  -9.7641    213.9281     75.2936   7.0583299116e+01   2.2205640103e+01    0.2768066    0.1915648 -35.91 0.0008183165    1.473    0.321
       158  -9.3179    215.4910     71.4897   6.9508468440e+01   2.2450710966e+01    0.1996615    0.1914576 -10.10 0.0006412699    1.253    0.202
       159  -9.3579    191.7810     73.2882   7.3530170868e+01   2.7415931429e+01    0.3441683     0.220899 -83.81  0.001345126    2.229    0.551
       160 -10.2298    132.1689     67.7421   8.3797528890e+01   4.1775963084e+01    0.3395301    0.2337813  48.31  0.001164199    1.377    0.274
       161 -10.4812    109.1489     67.9434   8.9640382139e+01   4.6576304380e+01    0.4189634    0.2634722  -8.62  0.001858772    2.215    0.548
       162 -10.1435    139.1756     67.8692   8.2229641507e+01   4.0212970349e+01    0.4030751    0.2798496  28.29  0.001972036    1.638    0.389
       163  -9.4479    162.5276     66.4898   7.7002037284e+01   3.5137110926e+01    0.2519351     0.224658 -59.61 0.0006892313    1.186    0.157
       164 -10.9933    165.0430     62.5834   7.5494911569e+01   3.5139797702e+01    0.4905921    0.4509766 -18.74  0.002917315    1.194    0.163
       165 -10.5297    152.4614     66.8092   7.9084906526e+01   3.7387210241e+01    0.5699764    0.2143501  51.68  0.001880657    2.459    0.593
       166 -10.8851     71.5848     53.5014   9.6135148229e+01   5.5646417230e+01     0.575555    0.2713605 -33.07  0.002702291    2.098    0.523
       167  -8.8198    198.9690     63.0626   6.9970239586e+01   2.7337453253e+01    0.1859265    0.1698213 -81.39 0.0004348167    1.020    0.020
       168  -9.7835    201.0821     59.3776   6.8802235493e+01   2.7395384341e+01    0.2681636    0.2562471 -30.73   0.00170758    1.199    0.166
       169 -10.0952    111.0155     62.4755   8.7471383381e+01   4.7056218086e+01    0.2469549    0.1946702  20.11 0.0005979787    1.275    0.216
       170 -10.0614    112.1963     57.5640   8.5649486743e+01   4.7547773461e+01    0.4204519    0.2353979   5.90  0.001504489    3.711    0.730
       171 -10.5664    115.5828     49.7183   8.2365920130e+01   4.7943378991e+01    0.5455354    0.3770199   9.82  0.001947243    1.766    0.434
       172 -10.1734    118.5493     42.2437   7.9339785646e+01   4.8280836128e+01    0.4591126    0.2857611 -39.75  0.002380062    1.819    0.450
       173 -10.5066    119.7258     58.5017   8.4043207035e+01   4.5842493263e+01     0.382056    0.2134899  39.40 0.0009219943    1.736    0.424
       174 -11.1712    121.4680     53.7464   8.2178011844e+01   4.6148844465e+01    0.4829599    0.4182856  41.69  0.001859371    1.070    0.066
       175  -8.4098      5.2415     63.3047   1.2325726070e+02   6.1369974856e+01    0.1183121   0.06369849 -35.13 0.0002685658    1.491    0.329
       176 -11.1695     53.7385     29.8133   9.3778345353e+01   6.1661437516e+01    0.6089277    0.2294106  29.39  0.002401974    2.920    0.658
       177  -9.5959    105.1380     60.9590   8.8570231960e+01   4.8466290109e+01    0.1994169    0.1952937  76.82  0.001230955    1.252    0.201
       178  -8.4410    218.3051     60.3193   6.6663075322e+01   2.3488045997e+01     0.121655    0.1020269  25.25 0.0002305078    1.632    0.387
       179 -10.0070    178.8410     59.2359   7.2209946032e+01   3.2454137872e+01    0.6304058    0.3966996  -4.52  0.002376377    2.865    0.651
       180  -9.8748    186.0120     53.6964   6.9693798315e+01   3.1587573765e+01    0.3004929    0.2137273  30.64  0.001496174    1.854    0.461
       181 -10.2872    174.5534     56.3277   7.2193576506e+01   3.3846840305e+01    0.5647997    0.3198899 -10.24  0.002205287    3.374    0.704
       182 -10.7037    180.7384     50.3499   6.9690141689e+01   3.3242631811e+01    0.5907888    0.2617381  59.15  0.002325871    2.071    0.517
       183  -8.8982    137.7129     59.4369   8.0141751117e+01   4.1799243952e+01    0.2069073    0.1184695  42.90 0.0007744277    1.685    0.406
       184  -9.9508    250.4418     64.6411   6.3736191808e+01   1.6289968774e+01     0.453173    0.1185849 -38.99   0.00172004    3.346    0.701
       185  -9.7786    222.2317     56.8121   6.5407708012e+01   2.3144147233e+01    0.3497813    0.1995657  75.62  0.001730749    1.892    0.471
       186  -9.5017    193.3347     56.4480   6.9247999991e+01   2.9546786273e+01     0.282911    0.1534753 -36.95  0.001122883    1.887    0.470
       187  -9.8746    165.6189     55.4738   7.3521678182e+01   3.6018496141e+01    0.4145791    0.2504198 -20.78  0.001938357    2.129    0.530
       188  -8.9557    235.0117     55.4529   6.3610922475e+01   2.0664870521e+01    0.1821852    0.1153644  68.54  0.000652423    1.578    0.366
       189 -10.3396    158.9997     50.4802   7.3388911670e+01   3.8214391390e+01    0.6020951    0.2750495  65.03  0.002476244    2.359    0.576
       190 -10.6963    141.2744     51.6363   7.7147040910e+01   4.2089476447e+01    0.4939219    0.2940735  38.74  0.001687894    1.737    0.424
       191  -8.9533    146.6146     48.6784   7.5234451211e+01   4.1276036026e+01    0.2884679    0.2166144  -1.91  0.001543514    1.674    0.403
       192 -10.3114    147.8154     53.3358   7.6298997340e+01   4.0383240948e+01     0.398453    0.2890287  65.41  0.001749427    1.398    0.285
       193  -9.5898    151.0459     50.4578   7.4868640094e+01   4.0035411948e+01    0.2518392    0.1969173  24.40 0.0004781106    1.463    0.317
       194  -9.4212    134.8778     51.9116   7.8579782796e+01   4.3479994746e+01    0.3140622    0.1866477  23.09   0.00136601    2.387    0.581
       195  -9.0077     10.3985     51.7509   1.1809249743e+02   6.3115377360e+01    0.1803973    0.1219094  25.93 0.0005729853    1.755    0.430
       196  -9.9850      6.7211     48.8580   1.1871231252e+02   6.3877815222e+01    0.3422612    0.1668823 -29.54  0.001012111    1.757    0.431
       197  -9.4753    189.1522     49.4065   6.8186428711e+01   3.1451200201e+01    0.2546698    0.1843168 -68.90 0.0006453896    1.502    0.334
       198 -11.6585     67.7268     61.8539   1.0014530057e+02   5.4927323514e+01    0.3013873    0.2384653   9.35 0.0007326323    1.168    0.144
       199  -8.5154     16.4075     50.2901   1.1526479724e+02   6.2901742621e+01    0.1271093   0.06886841 -19.51 0.0006985423    1.815    0.449
       200  -8.7533    226.0885     49.1906   6.3335450855e+01   2.3371092914e+01    0.1717651    0.1251611 -76.51   0.00035841    1.331    0.249
       201 -10.1487    128.2672     46.7767   7.8511887109e+01   4.5612577175e+01    0.5195938    0.2777836  54.52  0.001925153    1.735    0.424
       202 -10.0072     94.2824     47.2740   8.7174329313e+01   5.2540408255e+01    0.3957283    0.2295651  33.74 0.0006297262    1.649    0.394
       203  -9.9716    100.0333     37.8077   8.2487529487e+01   5.2632008793e+01    0.4587686    0.3168054  19.11  0.002548423    1.510    0.338
       204  -9.5106    100.0292     46.0000   8.5177236304e+01   5.1599080044e+01    0.3278153    0.1447491  44.03   0.00108425    2.044    0.511
       205  -9.7753     97.7971     42.8393   8.4742795814e+01   5.2447001465e+01     0.265846    0.2330321 -85.05 0.0009426855    1.663    0.399
       206  -8.9174    171.3217     48.5950   7.0760772727e+01   3.5633072446e+01    0.2260045    0.1252794 -31.72 0.0008587877    1.978    0.495
       207  -8.9491    206.5116     45.6945   6.4951301575e+01   2.8053466198e+01    0.2347874    0.1080172  64.74  0.001084892    2.060    0.514
       208  -9.5623    152.7253     44.6759   7.2964596141e+01   4.0398961592e+01    0.2651064    0.1745175 -42.39  0.001389053    1.656    0.396
       209 -10.6296    135.8706     33.1223   7.2901813220e+01   4.5570370567e+01    0.5248997    0.2643556  31.00 0.0009818663    2.709    0.631
       210 -10.3810    142.9084     42.7671   7.4294455793e+01   4.2863287747e+01    0.6868796    0.2536198  52.82  0.002786585    2.331    0.571
       211  -9.1330    142.8191     38.7976   7.3186868864e+01   4.3362784100e+01    0.1926678    0.1667781  33.99 0.0004848403    1.155    0.134
       212  -9.1833    135.8207     41.5976   7.5375373378e+01   4.4594483384e+01    0.2393061    0.1877319 -67.61 0.0007124091    1.630    0.386
       213 -10.0586    130.9944     39.8976   7.5876252093e+01   4.5868786635e+01    0.4975062    0.2334632  44.20  0.001434218    1.985    0.496
       214  -9.5899    106.0099     44.2721   8.3046102847e+01   5.0630798897e+01    0.3045192    0.2428735  64.14  0.001754235    1.498    0.332
       215  -7.8684     17.9054     44.4935   1.1282851001e+02   6.3742568095e+01    0.5642107    0.1746768  20.05  0.002379332    3.855    0.741
       216  -8.8628     24.9704     38.1956   1.0783412399e+02   6.4072800485e+01    0.1598867    0.1055087  -5.34 0.0004424376    1.351    0.260
       217  -8.2184     12.6807     34.0072   1.1145875656e+02   6.5842342176e+01    0.2086259    0.1235904  21.58 0.0009561036    1.733    0.423
       218 -10.7251     16.3405     31.2741   1.0893718725e+02   6.5931020805e+01    0.2906683    0.1906698 -32.12 0.0004861366    1.295    0.228
       219  -8.8444      9.3789     42.2925   1.1560921306e+02   6.4792735526e+01     0.221477    0.1234087 -26.45 0.0008027755    1.486    0.327
       220  -9.8489     13.6106     40.1828   1.1316970944e+02   6.4801261503e+01     0.278864     0.165553 -32.50  0.001241561    1.326    0.246
       221  -9.8825     21.2133     40.3483   1.1010347167e+02   6.4106115496e+01     0.265471    0.2485197 -49.05  0.001065313    1.664    0.399
       222 -10.3281     17.7240     38.6620   1.1095650624e+02   6.4688326783e+01    0.4769081    0.2147716 -41.09  0.002654069    1.875    0.467
       223  -9.1243    232.6124     43.6292   6.1472188461e+01   2.2745234866e+01    0.1561918    0.1397584  34.49 0.0005605218    1.529    0.346
       224  -8.7137    185.2861     43.9672   6.7443956939e+01   3.3035012199e+01    0.1650313    0.1503503 -62.57 0.0001985467    1.118    0.106
       225  -9.5367    156.7609     43.9938   7.2049038040e+01   3.9562547669e+01    0.2010436    0.1258693  43.07 0.0005406267    1.611    0.379
       226  -9.3420    214.2412     42.2611   6.3247606481e+01   2.6807812059e+01    0.2649199    0.1765998 -14.16  0.001375531    2.339    0.572
       227  -8.8643     25.2967    176.3290   1.3681859361e+02   3.5028440890e+01    0.1249697   0.08334933 -46.26 0.0004155558    1.635    0.388
       228  -8.3279    219.6730     42.6885   6.2705855376e+01   2.5584775174e+01    0.1180137   0.09492444  36.90 0.0007041208    1.663    0.399
       229  -8.6418    196.5207     41.5318   6.5307236539e+01   3.0806066861e+01    0.1299264    0.1124123 -85.87 0.0003096304    1.060    0.056
       230  -9.8669    191.3571     40.0305   6.5652267284e+01   3.2153434191e+01    0.2318515    0.1886405  32.19 0.0003689362    1.536    0.349
       231  -9.4756    192.7842     36.3737   6.4608704349e+01   3.2278483308e+01    0.2374428    0.1813946  56.44  0.001427392    1.291    0.226
       232  -9.5525    161.5103     40.5604   7.0310959610e+01   3.8898089766e+01    0.2315682     0.224437 -72.38 0.0007697195    1.106    0.096
       233  -9.2266    162.1799     37.4162   6.9372772006e+01   3.9121003460e+01    0.2042979    0.1597976  80.54 0.0008113991    1.298    0.230
       234  -9.0452     61.5515     40.5434   9.4997574672e+01   5.9089620393e+01    0.2286301    0.1113057  38.52  0.001010712    1.975    0.494
       235  -9.7754    180.5396     38.2481   6.6745938296e+01   3.4823688756e+01    0.4165553    0.2296906 -78.86  0.001756965    2.858    0.650
       236  -9.7250    173.2996     38.4750   6.7880426153e+01   3.6449345934e+01    0.2388824    0.1839126 -89.34 0.0004303382    1.362    0.266
       237 -10.5447    124.2719     35.7725   7.6070647494e+01   4.7821954297e+01    0.4644404    0.3320166 -18.06   0.00262824    1.576    0.365
       238 -10.4284     17.9750    164.7579   1.3716903812e+02   3.8368644989e+01    0.2912628    0.1801692  75.48 0.0008921987    1.830    0.453
       239  -9.9765    109.8628     37.4618   7.9899464671e+01   5.0681490838e+01    0.3348593    0.1798953 -37.73 0.0007110364    2.097    0.523
       240 -10.3518     13.4867    165.3417   1.3829320720e+02   3.8616562033e+01    0.2696531    0.1921244  33.40  0.001212806    1.652    0.395
       241 -10.5904      8.9527    162.5255   1.3903702147e+02   3.9627907369e+01    0.3282152    0.2032626  33.81  0.001972873    1.879    0.468
       242 -10.0231      2.3095    161.2900   1.4044750956e+02   4.0410726950e+01       0.3288    0.1715942 -55.57  0.001591541    1.668    0.400
       243 -10.0117     76.5043    155.5059   1.2090762441e+02   3.3817801379e+01    0.3265209    0.2067484  83.29  0.001348631    2.556    0.609
       244  -9.8861     33.0500    156.0197   1.3232590096e+02   3.9001593455e+01    0.1974694    0.1621896 -55.90 0.0004618186    1.128    0.113
       245 -10.6773     15.8929    152.0278   1.3610462244e+02   4.1484854687e+01    0.2479263    0.2037787  75.48 0.0005256623    1.284    0.221
       246  -9.9670    202.5715     37.7123   6.3663467188e+01   2.9933139962e+01    0.2638056    0.1935875  85.83 0.0008061836    1.299    0.230
       247 -10.5903    148.3330     35.1902   7.1154837379e+01   4.2535953388e+01    0.6922024    0.3550629  68.57  0.003159031    2.086    0.521
       248 -12.2167     20.2033    146.8610   1.3432222580e+02   4.2322341896e+01    0.6316486    0.4535496 -47.95  0.002684555    1.323    0.244
       249 -10.8638    236.2168     32.4387   5.8887499730e+01   2.3415199126e+01    0.4196921    0.3425604  61.60  0.002873142    1.383    0.277
       250 -10.8100    210.7739     32.8826   6.1631237895e+01   2.8719539252e+01    0.3374363    0.2799576 -68.39 0.0004404394    1.114    0.102
       251  -9.6323    244.9758     33.3885   5.8250852099e+01   2.1540618303e+01    0.4141066    0.1675504  64.11  0.001937905    2.373    0.579
       252  -9.1294     32.5381     33.6429   1.0316428075e+02   6.3926942765e+01    0.2083855   0.09353828 -32.09  0.001094372    2.005    0.501
       253 -10.2377     35.2725    150.5388   1.3094684348e+02   4.0067210614e+01    0.3090666    0.2504977  36.06  0.001907823    1.413    0.292
       254 -10.9117     39.2949    147.0124   1.2933738450e+02   4.0484408397e+01    0.3703874    0.3244491 -69.42  0.001556693    1.045    0.043
       255 -10.2076     38.3221    143.0633   1.2895891116e+02   4.1513635646e+01    0.2479989    0.1903054 -43.86 0.0003308231    1.262    0.207
       256 -10.1130     40.7587     21.4401   9.5296099896e+01   6.4495372165e+01    0.2716141    0.1674007 -24.11 0.0005087474    1.501    0.334
       257 -10.6813     37.8919     26.2282   9.8266717719e+01   6.4278698161e+01    0.4146259     0.233748  30.32  0.001168313    1.665    0.399
       258  -9.0895      8.3436    150.9380   1.3783917909e+02   4.2325666571e+01    0.1761629    0.1248302 -69.06 0.0004674835    1.128    0.114
       259  -9.9184     66.5189    148.5004   1.2227209006e+02   3.6879612605e+01    0.2723733    0.1399921  31.96  0.001202715    2.136    0.532
       260  -9.5770     61.0715    147.3459   1.2353422315e+02   3.7870312167e+01    0.2336172    0.1699238 -46.79 0.0005021163    1.292    0.226
       261 -11.6266      6.1538    143.1623   1.3742608507e+02   4.4261635977e+01    0.8832036    0.4768716 -81.17  0.004712826    1.799    0.444
       262 -10.3986      4.3746    136.6568   1.3704819861e+02   4.5863910759e+01    0.4322091    0.2218363 -38.63   0.00228766    2.132    0.531
       263  -9.8556      9.1434    134.8322   1.3554837269e+02   4.5949887299e+01    0.2011417    0.1700947 -51.46 0.0003581576    1.139    0.122
       264 -12.1797     13.2464    129.9314   1.3373401885e+02   4.6769164624e+01    0.7015103    0.4768806  83.27  0.001492427    1.762    0.432
       265  -9.7915    235.8013    144.5823   8.2351595239e+01   5.9307006113e+00    0.1807745    0.1342759  62.53  0.000952112    1.724    0.420
       266 -10.5411     31.8260    141.2854   1.3042698171e+02   4.2574425953e+01     0.353225    0.2174244  49.69  0.001868914    1.951    0.488
       267 -10.0486    228.0704     31.1073   5.9421190262e+01   2.5252454694e+01    0.2510972    0.1616226 -55.36   0.00060525    1.430    0.301
       268  -9.6839    194.7156     31.0333   6.3133390636e+01   3.2476150896e+01    0.2577056    0.1995008  -4.56 0.0009506397    1.849    0.459
       269  -9.6462     58.9212    139.5162   1.2266545397e+02   3.9993808723e+01    0.1895694     0.137943  30.43 0.0003972851    1.527    0.345
       270  -9.7356     47.9776    137.8889   1.2541415827e+02   4.1685552541e+01    0.4206608    0.2209295  53.80  0.001818308    2.679    0.627
       271 -11.1730     45.7802    131.8782   1.2492729406e+02   4.3335237556e+01    0.4291397    0.2420768 -53.46  0.002142334    1.510    0.338
       272  -9.3879    178.0158    138.0189   9.1834051537e+01   1.8670364397e+01    0.2453154    0.1938102 -83.39  0.001147148    1.726    0.421
       273 -10.2163    182.9914     27.3086   6.3772449617e+01   3.5530436000e+01    0.2860138    0.2075634  62.31 0.0007312222    1.240    0.193
       274  -9.9537    186.4311     25.5190   6.2905678762e+01   3.4952045173e+01    0.2776384    0.1785059 -49.03  0.001044574    1.621    0.383
       275  -9.5816    159.6446     24.1432   6.6307249726e+01   4.1165689750e+01    0.2811943    0.1546782  56.68 0.0007169272    1.561    0.359
       276  -9.7315    146.0048     29.5442   7.0005358661e+01   4.3688484471e+01    0.4124085    0.2398802  43.16  0.002123521    1.677    0.404
       277  -9.8021    153.9237     24.4409   6.7282816118e+01   4.2432785695e+01    0.3548973     0.232944 -44.41  0.001992666    1.715    0.417
       278  -9.6813    148.5051     23.8128   6.7999048241e+01   4.3721964760e+01    0.4417044     0.157946  55.33  0.001895335    2.266    0.559
       279  -9.1889    203.0698     29.3583   6.1750858596e+01   3.0817920462e+01    0.1833704    0.1781326 -13.86  0.001169192    1.306    0.234
       280  -9.1119    165.5122     29.5057   6.6794828154e+01   3.9259767076e+01    0.2496077    0.1173676  67.31  0.000708117    2.012    0.503
       281 -10.4093    167.3393     24.5940   6.5275055523e+01   3.9370747016e+01    0.6127493     0.255263  46.19  0.002114748    2.544    0.607
       282 -10.3840     54.8270    137.6655   1.2345828583e+02   4.0934965224e+01    0.2782599    0.1865711 -65.00  0.001436515    1.429    0.300
       283 -10.7349     50.3987     25.1824   9.3204253761e+01   6.2711970686e+01    0.4058175    0.1768879  32.54            0    2.113    0.527
       284  -9.2197    212.3769     24.7873   5.9736496778e+01   2.9314030897e+01    0.1450873    0.1167469 -22.41  0.000243376    1.611    0.379
       285 -10.3396    246.5093     19.1826   5.5480887789e+01   2.2921033350e+01    0.4449789    0.1928497  73.19  0.002388075    2.161    0.537
       286 -10.5462     22.8165    137.4387   1.3226205705e+02   4.4283428660e+01     0.255603    0.2008146 -21.46  0.001591698    1.499    0.333
       287  -9.1123     86.6534    133.6774   1.1368094162e+02   3.7407322539e+01    0.1532919    0.1100871 -18.78 0.0007049707    1.739    0.425
       288  -8.5296     95.3079    131.3264   1.1073478999e+02   3.6528492349e+01    0.1526929    0.1123459 -18.38 0.0007037587    1.654    0.395
       289  -9.2189     97.6429     22.2132   7.7886635667e+01   5.4814847832e+01    0.2012454    0.1516806  54.70 0.0005379904    1.323    0.244
       290 -10.6360    201.8996     19.2062   5.9668863084e+01   3.2200623478e+01    0.4728442     0.216377  63.51   0.00154698    1.905    0.475
       291  -9.5676    198.2941     16.5647   5.9487276962e+01   3.3267460115e+01    0.2523031    0.1670337  60.29 0.0009724244    1.415    0.293
       292 -10.9038     72.5395    128.8721   1.1662805014e+02   4.0646686972e+01     0.293419    0.2644384  10.43 0.0007231122    1.194    0.162
       293  -8.5300     35.3382    130.2835   1.2761001074e+02   4.4793165871e+01    0.1337396   0.08771665 -33.91 0.0007012684    1.627    0.385
       294  -9.8982     28.0410    119.7935   1.2783552580e+02   4.7876357307e+01     0.357133    0.1686648 -69.04 0.0008329269    2.205    0.546
       295 -10.6647     29.7885    127.6621   1.2873100496e+02   4.5923319468e+01    0.4078853     0.228515 -31.33  0.001707325    2.118    0.528
       296  -9.3347    209.9032     18.4853   5.8673097466e+01   3.0541130628e+01    0.1825982    0.1669719 -63.43  0.000450561    1.196    0.164
       297  -9.7186     22.1796    128.1338   1.3096830627e+02   4.6478773598e+01    0.2498434    0.1965968  54.16  0.001557315    1.536    0.349
       298  -9.6963     25.5040    126.5256   1.2975815552e+02   4.6565085057e+01    0.3090276    0.1836476 -42.32  0.001672033    1.578    0.366
       299 -10.7485     55.6811    125.6622   1.2084159301e+02   4.3622557196e+01    0.5435588    0.1491334 -55.79  0.001851528    3.129    0.680
       300  -9.2850    169.4855     12.9771   6.2094615211e+01   4.0037541629e+01      0.19801    0.1415572 -65.06  0.001191834    1.536    0.349
       301  -9.7619     59.8164    125.8926   1.1968002059e+02   4.3053040149e+01    0.2115266    0.1712222 -34.09 0.0004712614    1.200    0.167
       302 -11.7347     42.5389    118.4697   1.2326331884e+02   4.6766282988e+01    0.6458025    0.3829599  70.89  0.002628288    3.456    0.711
       303  -9.0486     92.2037     15.6533   7.6999598236e+01   5.6507969105e+01    0.1758019    0.1270175  41.63  0.001100558    1.148    0.129
       304 -11.4000     67.1919    123.1718   1.1692979366e+02   4.2701289296e+01    0.7273275    0.3016097 -36.10  0.002536352    3.214    0.689
       305 -10.2847     68.1727    115.4044   1.1486865056e+02   4.4317004912e+01    0.2858855    0.2052199  71.84  0.001280715    2.197    0.545
       306  -9.9982     18.0000    123.5471   1.3140169908e+02   4.7859976358e+01    0.3467847    0.1461855 -67.45   0.00116072    2.144    0.533
       307  -9.5949     19.8114    119.2357   1.3015250076e+02   4.8692682080e+01    0.2555077    0.1469117 -53.09  0.001017813    1.392    0.282
       308  -9.9605     92.5464    119.8796   1.0879324214e+02   3.9568919181e+01     0.404634    0.2472369 -34.64  0.001183436    1.728    0.421
       309  -9.9856     92.2426    114.0535   1.0743447110e+02   4.0898335939e+01    0.4367489    0.2906405 -64.45  0.001022137    1.917    0.478
       310 -11.3074      4.7763     99.0794   1.3113513204e+02   5.4172822708e+01    0.6847099    0.2926627 -50.88  0.003585922    1.730    0.422
       311  -9.3679     67.4818     13.1208   8.2894644681e+01   6.1282711185e+01     0.194211    0.1550759  52.69  0.001235527    1.532    0.347
       312 -10.1554      7.2374     71.9543   1.2465168072e+02   5.9589283980e+01     0.325363    0.2731343 -62.61  0.002314372    1.369    0.270
       313 -10.4926     42.7219     79.4168   1.1396588779e+02   5.5045250477e+01    0.6778715    0.3476368 -22.88  0.003043006    2.463    0.594
       314 -10.6811      5.8754    117.1501   1.3384885700e+02   5.0155562486e+01     1.031241     0.170738 -59.51  0.003788293    3.362    0.703
       315 -11.6365     36.9507     90.3067   1.1875272572e+02   5.3465509064e+01     1.097808    0.6428022   6.49  0.005633587    2.107    0.525
       316 -11.7613     47.7967    100.9906   1.1778259089e+02   5.0050802170e+01     1.019002    0.4699825 -39.63  0.004551776    2.050    0.512
       317 -10.8692      5.7301     87.5733   1.2861527613e+02   5.6539558868e+01    0.6800666     0.310216 -21.05  0.003277619    2.787    0.641
       318 -11.4466      3.9670     80.2095   1.2767467731e+02   5.8150849885e+01    0.8232775    0.3012713 -53.04  0.004127954    1.957    0.489
       319 -11.3248     14.5251     88.5197   1.2587253658e+02   5.5762007158e+01    0.4581708    0.3791518  -8.39  0.003167668    1.285    0.222
       320 -10.8066     11.7413    105.1986   1.3008300892e+02   5.2402316153e+01    0.4108572    0.2680764 -24.27  0.001711211    1.652    0.395
       321 -12.5612     18.5926     99.8544   1.2690716640e+02   5.3064695488e+01     1.461139    0.7168801 -48.12  0.007699664    1.606    0.377
       322 -12.5591     24.2008     82.6828   1.2123340292e+02   5.6204172373e+01    0.8535904    0.6641102 -17.32  0.005584908    1.227    0.185
       323 -10.2477     38.7935    126.8048   1.2598762478e+02   4.5250724969e+01    0.2783517    0.1397757 -33.84  0.001221322    2.411    0.585
       324 -10.3752    105.4591    117.6331   1.0459969632e+02   3.7792169330e+01    0.4926088      0.40045  76.30  0.002435821    1.655    0.396
       325  -9.6357     51.2581    118.7142   1.2069658067e+02   4.5738227495e+01    0.3068538    0.2009339 -89.24  0.001384727    2.513    0.602
       326  -9.8602     13.0176    117.3377   1.3181310833e+02   4.9630499706e+01    0.2516661    0.1889976  47.67  0.001163923    1.665    0.399
       327 -11.9095     53.8205     87.1861   1.1231560553e+02   5.2200367159e+01    0.9332367    0.6373585  -3.89  0.004368848    1.673    0.402
       328  -8.8659      1.0000    116.5049   1.3514438120e+02   5.0597977082e+01     0.268455   0.05476465 -66.59 0.0009254107    3.860    0.741
       329  -8.9454    118.6717    116.3068   1.0067096149e+02   3.5571269342e+01    0.1493711    0.1223196  86.51 0.0006939698    1.656    0.396
       330  -9.8449     82.3709    114.4222   1.1040510082e+02   4.2429886144e+01    0.4139676    0.2501905  22.81  0.001707343    1.960    0.490
       331 -10.8544    133.0827    111.8740   9.5788311150e+01   3.3577535995e+01    0.3864571    0.3609211 -65.16  0.001671847    1.174    0.148
