#   1 NUMBER                 Running object number                                     
#   2 MAG_AUTO               Kron-like elliptical aperture magnitude                    [mag]
#   3 X_IMAGE                Object position along x                                    [pixel]
#   4 Y_IMAGE                Object position along y                                    [pixel]
#   5 X_WORLD                Barycenter position along world x axis                     [deg]
#   6 Y_WORLD                Barycenter position along world y axis                     [deg]
#   7 A_WORLD                Profile RMS along major axis (world units)                 [deg]
#   8 B_WORLD                Profile RMS along minor axis (world units)                 [deg]
#   9 THETA_WORLD            Position angle (CCW/world-x)                               [deg]
#  10 FWHM_WORLD             FWHM assuming a gaussian core                              [deg]
#  11 ELONGATION             A_IMAGE/B_IMAGE                                           
#  12 ELLIPTICITY            1 - B_IMAGE/A_IMAGE                                       
         1 -13.0987    208.9238      2.5788   2.6768081280e+01   3.3264094846e+01    0.3128238    0.2310892  58.02  0.002154383    1.628    0.386
         2 -11.4252     36.9058    242.4676   1.1431562921e+02   1.7052462478e+01    0.1673971    0.1300548  52.28 0.0004553363    1.104    0.094
         3 -14.9387    183.9749    214.5772   7.6913607074e+01   1.7980939166e+00     1.036712    0.7976949   9.39  0.004875102    1.222    0.181
         4 -15.2936    186.7387    242.8535   8.1161206405e+01  -3.6027724971e+00     2.617727     1.983144  12.94   0.01604796    1.126    0.112
         5 -14.2429    171.8275    220.0495   8.0526056780e+01   2.6030925439e+00     1.145972    0.7589917  46.21  0.005731329    1.816    0.449
         6 -20.3214     65.3065    168.9568   9.9100509370e+01   3.1377300246e+01     16.91874     5.801967 -63.17   0.05724723    2.783    0.641
         7 -12.1184    181.1576    194.3081   7.3733380361e+01   6.1868639199e+00    0.4485616    0.2088584 -49.66  0.001799811    2.312    0.567
         8 -11.6352    143.8140    197.1195   8.2914233473e+01   1.1857538993e+01    0.2237399    0.2059771  69.38 0.0006213806    1.299    0.230
         9 -11.7533    152.8738    194.6445   8.0267670461e+01   1.0861347618e+01    0.3367077    0.1808971  23.68  0.001341699    2.150    0.535
        10  -9.7378    147.6193    231.2330   8.7820547586e+01   4.1271105309e+00     0.173257    0.1238334 -33.74  0.000356523    1.479    0.324
        11 -16.1305     42.3996    152.3092   1.0336139123e+02   3.8589503069e+01     1.592386    0.9542693 -60.69  0.006261587    1.481    0.325
        12  -9.4231    152.2847    213.6858   8.3851847379e+01   6.9177502940e+00    0.1338985    0.1137737  68.13 0.0003462268    1.580    0.367
        13 -10.1473    136.0120    226.9713   8.9831405871e+01   6.7476607718e+00     0.188333    0.1503008  -6.65            0    1.354    0.262
        14 -10.0114    116.1917    224.8172   9.4193528286e+01   1.0240462469e+01    0.1777946    0.1507253  -2.54 0.0004401262    1.290    0.225
        15 -11.1127    151.9136    150.8970   7.1397690435e+01   2.0925154966e+01    0.2380247    0.1952137  89.61 0.0004929212    1.629    0.386
        16 -10.9938     13.8809    142.1215   1.1075111043e+02   4.3850055549e+01    0.2211044    0.1656628 -74.06 0.0002919969    1.149    0.130
        17 -10.3695      9.7470    140.6103   1.1184053813e+02   4.4529941458e+01    0.2139337    0.1236984 -40.76 0.0007847946    1.804    0.446
        18 -11.1965     12.7136    135.3296   1.1027163213e+02   4.5699792303e+01    0.5702161    0.2853127 -50.76  0.002489359    1.767    0.434
        19 -10.5641    242.4415    136.4934   5.0597109623e+01   7.1575723435e+00    0.1325975    0.1071467 -40.42 0.0001262753    1.015    0.014
        20  -9.9137    145.3065    224.6962   8.7311620236e+01   5.7736452003e+00    0.1344209    0.1079066  60.24 0.0002056529    1.602    0.376
        21  -9.6939    223.7425    133.3074   5.2835773050e+01   1.0861124551e+01    0.1321846   0.09752332 -61.31 0.0001728928    1.519    0.342
        22 -12.2271    164.3846    235.9908   8.4827549081e+01   7.3725905615e-01    0.3536082    0.2245342 -35.66  0.001164101    1.627    0.385
        23 -11.1977    160.7634    127.9049   6.3859480126e+01   2.4259460336e+01    0.3085644    0.2194056 -60.73  0.001374732    1.608    0.378
        24 -10.4964    128.2137    221.9710   9.0895976098e+01   8.9932904405e+00    0.4315711    0.1558913 -42.49  0.001509425    3.278    0.695
        25 -10.7126    176.6466    120.8056   5.8663073604e+01   2.2416013584e+01    0.2799681    0.2097062 -70.22 0.0008869788    1.646    0.392
        26 -10.4725    110.1351    222.7573   9.5351198411e+01   1.1607412981e+01    0.2130254    0.1918242 -52.04 0.0004717403    1.199    0.166
        27 -11.0900    167.3033    112.2873   5.8547382438e+01   2.6142369733e+01    0.3179926    0.2455734 -77.83  0.001091257    1.630    0.387
        28 -10.1062    123.3596    218.9170   9.1587226164e+01   1.0404109400e+01    0.1997812    0.1356127 -52.29  0.000851946    1.575    0.365
        29 -11.8225     24.3693    105.6692   1.0153371390e+02   5.2442053016e+01    0.4344131    0.2972374 -72.37  0.001877594    1.475    0.322
        30 -12.2551     29.4677    105.0091   9.9475042996e+01   5.2174515726e+01    0.4722815    0.2502233  -3.83 0.0005649197    2.542    0.607
        31 -11.8335    160.7087    212.0419   8.1619086807e+01   5.9088071915e+00    0.3731371    0.2472236 -29.71  0.001119302    1.581    0.367
        32 -12.2738    162.5831    199.5758   7.8916295374e+01   8.1725874770e+00    0.5746729    0.2377603 -50.46  0.002147678    2.591    0.614
        33 -10.9594    175.3415     90.2025   5.1375500577e+01   2.8622107680e+01    0.2614385    0.2182177 -86.53 0.0005016465    1.296    0.228
        34 -10.5326    136.5369    203.4757   8.5832960298e+01   1.1667449642e+01    0.2696473    0.2346324  31.15 0.0007231373    1.110    0.099
        35 -11.0871    133.4135    196.2585   8.5321673859e+01   1.3812341389e+01    0.2586065    0.2276032  44.33 0.0004619694    1.180    0.153
        36 -11.5028    133.9605    208.0869   8.7257572920e+01   1.1073326995e+01    0.5076084    0.2704622 -44.92  0.001138579    1.941    0.485
        37 -11.8814    133.1620    200.4780   8.6136816216e+01   1.2898324793e+01    0.4580607    0.3211447 -44.77   0.00126127    1.455    0.313
        38 -12.1792    162.5045    205.4918   8.0029226399e+01   6.9570203384e+00    0.4151955     0.267929 -47.49  0.001997477    1.609    0.378
        39  -9.9056      9.4828    201.1087   1.1740710873e+02   2.9239496282e+01    0.1684434    0.1080462 -82.62 -2.814665e-05    1.350    0.259
        40 -10.8397    183.5067     83.0008   4.8113611277e+01   2.8079594767e+01    0.2203613    0.1342277 -39.50  0.001033486    1.598    0.374
        41  -9.8676    168.6851     83.7089   5.0983656799e+01   3.1282121939e+01    0.1404999    0.1153735  17.58  0.000236859    1.594    0.372
        42 -10.7355    113.9302     76.7871   6.1803062015e+01   4.4976679925e+01    0.3420425    0.1965516  54.21  0.001443547    1.849    0.459
        43 -13.3037    153.3773     74.0625   5.1454255660e+01   3.6473368995e+01    0.4813835    0.4270238  62.39 0.0009724548    1.098    0.089
        44 -12.9721     11.9625    205.8291   1.1716750523e+02   2.7893881383e+01    0.6191975    0.3325236  20.47  0.002641641    2.266    0.559
        45 -10.9631     16.2981    202.3538   1.1590508680e+02   2.8331957113e+01    0.1814535    0.1555964 -62.46 0.0004675304    1.272    0.214
        46 -14.6586    166.1068     61.1110   4.5546028901e+01   3.5597807992e+01     1.144738    0.9970941 -17.23  0.004940052    1.387    0.279
        47 -13.1506    171.1259     54.4503   4.2973125479e+01   3.5422758770e+01    0.4734793    0.4503705 -89.70   0.00072428    1.088    0.081
        48 -11.9575     82.2812    237.5387   1.0380865478e+02   1.2432246702e+01    0.3258969    0.2069294  12.67  0.001574444    2.088    0.521
        49 -11.4841      1.9866     54.1862   9.9487591348e+01   6.5704401426e+01    0.2350725    0.1511993 -33.63 0.0006597296    1.236    0.191
        50 -13.3284    192.6885    194.7996   7.1363444700e+01   4.2321463218e+00    0.9881789    0.5200505 -63.22  0.003056325    5.131    0.805
        51 -13.8094    181.2142     41.3822   3.8214654859e+01   3.4901382007e+01      0.87447    0.4968505  76.51  0.004389976    1.765    0.433
        52 -13.5276    181.6774     35.4966   3.6723752404e+01   3.5543589043e+01    0.7049928     0.389204  75.54  0.003416698    1.752    0.429
        53 -10.7827     48.6420    237.7542   1.1141113925e+02   1.6707438526e+01    0.1619217     0.116097  61.77 0.0004196463    1.252    0.201
        54 -11.6734    210.9147    198.6016   6.8407674146e+01   7.3635134572e-01    0.2537568    0.1964663 -24.81 0.0005420203    1.112    0.100
