#   1 NUMBER                 Running object number                                     
#   2 MAG_AUTO               Kron-like elliptical aperture magnitude                    [mag]
#   3 X_IMAGE                Object position along x                                    [pixel]
#   4 Y_IMAGE                Object position along y                                    [pixel]
#   5 X_WORLD                Barycenter position along world x axis                     [deg]
#   6 Y_WORLD                Barycenter position along world y axis                     [deg]
#   7 A_WORLD                Profile RMS along major axis (world units)                 [deg]
#   8 B_WORLD                Profile RMS along minor axis (world units)                 [deg]
#   9 THETA_WORLD            Position angle (CCW/world-x)                               [deg]
#  10 FWHM_WORLD             FWHM assuming a gaussian core                              [deg]
#  11 ELONGATION             A_IMAGE/B_IMAGE                                           
#  12 ELLIPTICITY            1 - B_IMAGE/A_IMAGE                                       
         1 -14.3987    196.1144     16.1771   6.7051772689e+01   3.3689243022e+01     2.171328     1.572646  24.83  0.007344358    1.482    0.325
         2 -14.1661    202.2483      8.7265   6.3911282636e+01   3.2777887324e+01     4.026847     1.736297  24.13  0.001418089    3.801    0.737
         3 -10.2969     33.0000      8.0007   1.0760271887e+02   7.0340667396e+01    0.2099663    0.0571476 -45.49 0.0008078452    2.980    0.664
         4 -10.3803     22.4893     11.9840   1.1481537999e+02   7.0660059633e+01    0.1597796   0.09840141 -70.69 0.0008104367    2.559    0.609
         5 -10.5114    120.0966    238.9061   1.3007274961e+02   1.5176685051e+01    0.1579976    0.1065311  58.14 0.0005060541    1.283    0.221
         6 -10.8029    249.1685    248.9379   1.1152596281e+02  -3.7568038206e+00    0.2443069    0.1451999   6.26  0.001845898    1.630    0.387
         7 -11.7115    141.1830    250.1180   1.2780387411e+02   1.1010263543e+01    0.4200124    0.1053801  40.65  0.002005725    2.996    0.666
         8 -12.0159    107.3546    248.4652   1.3283529775e+02   1.5634009333e+01    0.3907769    0.1473346  45.74  0.001789435    1.860    0.462
         9 -11.7307     97.9807    249.4617   1.3433084136e+02   1.6677327463e+01    0.2993799    0.1833598  45.79  0.001762882    1.209    0.173
        10 -11.0736    101.5077    246.5016   1.3357916860e+02   1.6613833765e+01    0.1899726    0.1430921 -82.08  0.001421408    1.594    0.373
        11 -11.0633     86.1817    247.9239   1.3600409333e+02   1.8299850169e+01    0.2995298    0.1139488  53.46  0.001883014    2.048    0.512
        12 -11.9986     81.6497    242.4515   1.3632965045e+02   1.9555651213e+01    0.3137934    0.1873388  69.06  0.001853822    1.557    0.358
        13 -11.0479     81.4682    248.4919   1.3674813888e+02   1.8782325437e+01    0.2259904    0.1599975  66.73  0.001627071    1.198    0.165
        14 -11.5630     78.7016    245.3637   1.3696551720e+02   1.9514953022e+01    0.2652701    0.1174851  52.02  0.001840896    1.631    0.387
        15 -11.4810     66.0478    250.1509   1.3913043032e+02   2.0321493949e+01     0.352191    0.1085931  40.71  0.001702767    2.448    0.592
        16 -14.9687      5.0455     16.7775   1.2565595511e+02   7.0949996502e+01     22.18978    0.9631971 -62.64   0.03354956   22.875    0.956
        17 -13.9561     32.6380    246.1038   1.4377104065e+02   2.4340919981e+01     1.586569    0.4646253  41.57   0.01018832    2.415    0.586
        18 -15.7537      7.8037    239.8690   1.4706352619e+02   2.7488918117e+01     6.658269    0.7706358 -72.05   0.03138755    6.555    0.847
        19 -15.4310     56.2410    217.2389   1.3871421726e+02   2.6084850712e+01     5.709377    0.7657485  43.24   0.02532484    3.919    0.745
        20  -9.2427    152.6753    212.9791   1.2199339968e+02   1.3867058847e+01    0.1411295    0.1228218  43.90 0.0003294624    1.115    0.103
        21  -9.4084    180.3031    232.6577   1.1983425977e+02   7.4010086583e+00    0.0992997   0.07314758  59.98  0.000703957    1.680    0.405
        22 -11.7119     34.8799    230.0774   1.4276170819e+02   2.6388263982e+01    0.2427188    0.1692969  65.13 0.0007812759    1.033    0.032
        23 -10.7068     37.4246    226.4986   1.4220664525e+02   2.6662558035e+01    0.1986391    0.1207171  81.03 0.0008463105    1.416    0.294
        24 -10.7814    192.9282    194.7834   1.1253705899e+02   9.7474153095e+00    0.6518236    0.3523622 -61.02  0.002276612    7.174    0.861
        25 -11.6697     71.3996    195.8647   1.3455669936e+02   2.7753214171e+01     0.298866    0.2273108 -50.97  0.001589156    1.812    0.448
        26 -11.7668     76.0789    188.7516   1.3307380666e+02   2.8377343714e+01    0.2248289    0.1977766 -62.69 0.0006570935    1.430    0.301
        27  -8.9803     66.0815    195.5856   1.3548875890e+02   2.8433354272e+01    0.1512955   0.08400446  44.72 0.0005002446    1.528    0.346
        28  -9.5152    120.1603    188.3772   1.2477949975e+02   2.2367130567e+01    0.2549122    0.1523254  26.64  0.001185106    2.215    0.548
        29  -9.2830    125.8887    186.3004   1.2343956721e+02   2.1828276881e+01    0.3628937    0.1037162  34.77  0.001140823    5.487    0.818
        30 -11.2082     84.5123    176.5492   1.3024189789e+02   2.9421006542e+01    0.2040986     0.180788  75.33   0.00153396    1.106    0.096
        31 -13.2297     72.2502    174.0912   1.3239281499e+02   3.1433038944e+01     0.392976    0.2456363 -44.95  0.001964087    2.323    0.570
        32 -11.0224     70.5143    244.0033   1.3811508008e+02   2.0637528689e+01    0.1940501    0.1041327 -62.70  0.001467101    2.361    0.577
        33 -13.0028     50.3058    129.9591   1.3224830614e+02   4.2665350097e+01    0.6021551    0.2888982  36.77  0.002564539    2.178    0.541
        34 -13.0334     67.2761    144.1228   1.3008263052e+02   3.7788485024e+01    0.7960004    0.4669899  74.67  0.004362026    1.941    0.485
        35 -13.0612     57.7074    130.9734   1.3061721373e+02   4.1627879921e+01     2.031794    0.6102541 -76.24  0.005557371    7.372    0.864
        36 -10.3385    102.3528    151.2460   1.2331934659e+02   3.1563755451e+01    0.2894135    0.2223183 -54.23 0.0009177137    1.397    0.284
        37  -9.5092    105.0123    147.0230   1.2209227454e+02   3.1963649150e+01    0.2836985    0.1598028 -39.36  0.001370364    2.430    0.588
        38 -12.0934     91.3951    150.6310   1.2561221721e+02   3.3292157995e+01    0.2265721    0.2236524  -5.92 0.0004655274    1.274    0.215
        39 -12.2887     46.0980    148.2289   1.3520817893e+02   3.9376392051e+01    0.4423502    0.2234633 -75.50  0.002558279    1.796    0.443
        40  -9.9565    134.3481    147.7243   1.1586023615e+02   2.6984072523e+01    0.4112268    0.1240453 -51.90  0.001452049    3.873    0.742
        41  -8.6751    192.1429    144.1917   1.0353410858e+02   1.6690186449e+01    0.1643823    0.1583139  68.76 0.0003948467    1.296    0.228
        42  -9.9867    112.3408    136.4025   1.1867832850e+02   3.2850228019e+01    0.2656876    0.2110132 -10.57  0.001223751    1.824    0.452
        43  -9.7411    229.6969    230.0150   1.1181118181e+02   4.1605269298e-01    0.1445423    0.1082508  20.46 0.0005126214    1.107    0.096
        44 -10.7447    100.0536    133.7101   1.2103356898e+02   3.5343855334e+01    0.2410583    0.2105921 -14.77 0.0006180723    1.505    0.336
        45 -14.1606     11.5065    207.2003   1.4541902176e+02   3.2065184136e+01     1.036336    0.7613177  51.38  0.003569321    1.314    0.239
        46 -12.7910     88.5816    166.2464   1.2824560342e+02   3.0737058660e+01     2.251989    0.6283689  52.37  0.003309284    4.587    0.782
        47  -9.2850    108.8277    123.7671   1.1714996143e+02   3.5938107801e+01    0.1759105    0.1742611  27.29 0.0003860079    1.113    0.102
        48 -11.3978     19.3221    124.1230   1.3898611168e+02   4.6784758110e+01    0.2006131    0.1457175  53.48 0.0007881249    1.381    0.276
        49 -13.0784     47.6535    229.6454   1.4078974186e+02   2.5151241292e+01    0.3695738    0.2522074  53.23 0.0009121353    1.153    0.133
        50 -11.1207    168.2994    113.4802   1.0136562676e+02   2.6457632034e+01    0.3683738    0.3135638 -77.85   0.00100292    1.542    0.351
        51 -10.5369    162.9952    249.3373   1.2438933243e+02   8.1085574483e+00    0.1560662    0.0990986  41.99  0.001184741    1.115    0.103
        52 -11.2115    161.2631    226.7890   1.2220516255e+02   1.0867581779e+01    0.2358337    0.1190674  36.68  0.001439438    1.625    0.384
        53 -12.5061    125.7758    243.6805   1.2960238162e+02   1.3829825554e+01    0.3997516    0.1974697  50.39   0.00238377    1.562    0.360
