#   1 NUMBER                 Running object number                                     
#   2 MAG_AUTO               Kron-like elliptical aperture magnitude                    [mag]
#   3 X_IMAGE                Object position along x                                    [pixel]
#   4 Y_IMAGE                Object position along y                                    [pixel]
#   5 X_WORLD                Barycenter position along world x axis                     [deg]
#   6 Y_WORLD                Barycenter position along world y axis                     [deg]
#   7 A_WORLD                Profile RMS along major axis (world units)                 [deg]
#   8 B_WORLD                Profile RMS along minor axis (world units)                 [deg]
#   9 THETA_WORLD            Position angle (CCW/world-x)                               [deg]
#  10 FWHM_WORLD             FWHM assuming a gaussian core                              [deg]
#  11 ELONGATION             A_IMAGE/B_IMAGE                                           
#  12 ELLIPTICITY            1 - B_IMAGE/A_IMAGE                                       
         1 -12.8152    248.7305    133.8379   7.9621856191e+01   3.7008018352e+00     1.470482    0.6474005 -34.87  0.006043106    2.171    0.539
         2 -12.9650    197.7605     32.4040   6.2377916135e+01   3.1654900069e+01     1.106414    0.8678323  54.16  0.005935706    1.226    0.184
         3 -13.7358    212.7917     14.9205   5.5732726655e+01   2.9920107676e+01     1.365699    0.9782636  30.71  0.007141955    1.804    0.446
         4 -11.6543      2.2460     14.8980   1.1182380188e+02   6.9222239404e+01    0.5451595    0.1171631 -52.45  0.002330751    3.845    0.740
         5 -10.8854      2.0189      4.1016   1.0798014520e+02   7.0873258325e+01    0.5088637   0.09422989 -46.22  0.002252215    3.634    0.725
         6 -10.5125    132.0545    223.4753   1.1870230773e+02   1.1606717695e+01    0.2463304    0.2159046  78.73 0.0008140241    1.146    0.127
         7 -11.0439    184.5830    250.2213   1.1289393916e+02  -1.4723691793e+00    0.3932783    0.1613233  48.40  0.001933758    2.017    0.504
         8 -10.7554    169.6234    248.6952   1.1527132517e+02   1.2741747538e+00    0.3051758     0.220298  15.10 0.0007248053    1.949    0.487
         9  -8.7444    155.6426    250.2583   1.1787284379e+02   3.4215094464e+00    0.1202587   0.07524844  61.86 0.0002337484    1.619    0.382
        10 -11.3341    149.8972    248.2765   1.1861810080e+02   4.6702852700e+00    0.3512218    0.2625661 -68.50  0.002359481    1.685    0.407
        11 -12.4064    134.0383    248.7825   1.2138584308e+02   7.2226615638e+00     1.304261     0.244265  44.28  0.004499126    4.234    0.764
        12 -11.0654    121.6029    244.8168   1.2306263981e+02   9.8468472679e+00    0.4531279    0.3057802  82.27  0.002667071    1.650    0.394
        13 -12.2078    124.3008    240.3498   1.2210885573e+02   1.0119662371e+01    0.6616921    0.3518158  39.65  0.003645236    1.831    0.454
        14 -11.5155    109.0825    245.8083   1.2527714984e+02   1.1661333847e+01    0.4190756    0.3121675  82.81 0.0007589018    1.305    0.234
        15 -11.3453    100.0504    247.7767   1.2696557299e+02   1.2721867367e+01    0.5993716    0.3050323  55.31   0.00306381    1.551    0.355
        16 -11.2740    105.5473    237.1595   1.2499316991e+02   1.3621846621e+01    0.5219393    0.3873575 -23.82  0.002926521    3.100    0.677
        17 -10.6429     79.1897    224.8264   1.2829702197e+02   1.9680896949e+01    0.5590305    0.2682226 -86.67  0.002783532    2.693    0.629
        18  -9.9525     91.8294    225.6864   1.2618522109e+02   1.7688110031e+01      0.37591    0.1492057  55.17  0.001817835    2.267    0.559
        19 -11.3791     84.8444    230.8762   1.2790523726e+02   1.7800179367e+01    0.5300295    0.2385845 -73.75  0.002779279    2.525    0.604
        20 -11.4574     98.6872    232.5263   1.2569508837e+02   1.5459764772e+01     1.072797    0.3870012 -74.01  0.003841962    5.524    0.819
        21 -11.2779    112.7913    231.0311   1.2307440504e+02   1.3512841295e+01    0.4234894    0.3172987  47.62  0.001805542    1.252    0.201
        22 -11.2440    104.8561    227.6082   1.2409660885e+02   1.5356999407e+01    0.4602706    0.2979177  68.94  0.002527635    1.431    0.301
        23 -10.8543     98.3812    223.4416   1.2479178065e+02   1.7094663954e+01    0.4252935    0.2570413  51.66  0.001902964    1.379    0.275
        24 -10.5317     96.9604    239.5836   1.2669408931e+02   1.4526503003e+01    0.3060993    0.2376551 -36.81  0.001371935    2.305    0.566
        25 -10.6308     91.0952    241.6904   1.2787267649e+02   1.5045153479e+01    0.2930681    0.1858164  64.36  0.001492766    1.276    0.216
        26 -10.5298     89.9582    238.3086   1.2774601941e+02   1.5778690340e+01    0.2326343    0.1944825  82.09 0.0008351036    1.194    0.162
        27  -9.9527     81.8201    247.3738   1.2988648281e+02   1.5439400453e+01    0.3006128    0.1612742 -84.65  0.001697112    2.057    0.514
        28  -9.9348     91.0017    250.1232   1.2865056137e+02   1.3680571622e+01    0.2936058    0.1576914  44.82  0.001812974    1.647    0.393
        29 -10.7729     86.9885    248.1348   1.2912215543e+02   1.4580764496e+01     0.266614    0.2279339  44.88 0.0007304847    1.520    0.342
        30  -9.4505     62.2517    250.5511   1.3320013268e+02   1.7567998310e+01    0.2224436    0.1211455  36.71   0.00132107    2.385    0.581
        31 -11.3454     60.5291    245.7581   1.3311456175e+02   1.8581926490e+01    0.4037713    0.2862929  60.13  0.001793529    1.164    0.141
        32 -10.1497     67.2134    243.8326   1.3192168401e+02   1.8027245013e+01    0.2840959    0.1495967  42.65  0.001770013    1.873    0.466
        33 -11.8242     56.8453    208.5742   1.3067752221e+02   2.5693855122e+01     1.008252    0.4229102  57.80  0.004706715    2.211    0.548
        34 -13.2594      3.2203    185.8147   1.3820936539e+02   3.5756317714e+01     2.147483    0.3584132 -72.94  0.008743728    4.234    0.764
        35 -12.2104     17.0872    217.5704   1.3797193825e+02   2.8530032604e+01     0.573851    0.4894857   8.41  0.002894637    2.393    0.582
        36 -13.6516     10.3496    208.9728   1.3850721023e+02   3.0756080971e+01     1.947374    0.6227173 -65.13   0.01068107    2.819    0.645
        37 -12.1181     44.6162    207.8107   1.3274421944e+02   2.7333341555e+01    0.9401064    0.3387581  61.85  0.003180372    3.051    0.672
        38 -13.3910     28.5979    246.7923   1.3796782886e+02   2.2244721792e+01     1.207257    0.6000425  49.74  0.008532549    1.675    0.403
        39 -13.2775     40.1837    243.1856   1.3604299689e+02   2.1522621366e+01     1.070367    0.6326663  72.49  0.006448518    1.276    0.216
        40 -13.2529      3.8818    245.3166   1.4137213101e+02   2.5065515978e+01    0.9718574    0.4222019  88.81  0.006720364    1.842    0.457
        41 -13.2050     13.7079    239.7977   1.3972944104e+02   2.5000006467e+01    0.8508934    0.4663678 -85.07  0.002042009    1.473    0.321
        42 -12.8286     32.0308    227.3271   1.3625987675e+02   2.5196421068e+01    0.4673474     0.260545 -70.38  0.002011645    1.735    0.424
        43 -13.9965     38.5883    218.4802   1.3459392749e+02   2.6046898197e+01     1.191971    0.8385692  44.58  0.008764515    1.600    0.375
        44 -11.3417    176.1555    242.3673   1.1329048235e+02   1.0251077060e+00    0.3299613    0.2072158  56.87  0.001162159    1.573    0.364
        45 -10.5233     84.5076    240.7517   1.2887402099e+02   1.6156250549e+01    0.3275197    0.2065412  81.44  0.002151157    1.508    0.337
        46  -9.6314    143.4000    240.7408   1.1883086455e+02   6.8887244671e+00    0.1389469    0.1161292 -41.60 0.0005839939    1.616    0.381
        47 -10.1496     53.8549    240.6671   1.3377964704e+02   2.0288598948e+01    0.1914202    0.1220025 -89.39 0.0006690246    1.360    0.265
        48 -10.9316    116.7764    238.3002   1.2318236856e+02   1.1664761840e+01    0.3464545    0.2538494 -36.90  0.001498258    2.262    0.558
        49 -11.0384    115.1599    250.2500   1.2471242164e+02   1.0016918801e+01    0.5746474    0.2640092  44.04  0.001994207    1.825    0.452
        50 -11.6631    122.5957    233.3459   1.2160844889e+02   1.1536723745e+01    0.3792447    0.2977501  66.01  0.002030666    1.084    0.077
        51  -9.3370    172.9967    236.0138   1.1297009020e+02   2.4756617283e+00    0.1433433    0.1240377  46.19            0    1.081    0.075
        52 -10.2829    165.8833    235.5752   1.1418018172e+02   3.7895174565e+00    0.1827434    0.1503131 -62.10  0.001212314    1.516    0.340
        53  -9.6652     55.1330    235.9375   1.3322920660e+02   2.0939088004e+01    0.2455584    0.1279572  57.87  0.001169746    1.509    0.337
        54  -8.2881     70.7001    235.2879   1.3066510170e+02   1.9013642163e+01    0.1146642   0.06444405  69.25 0.0005255866    1.558    0.358
        55 -10.6552    156.7382    231.9411   1.1532769337e+02   5.9442551579e+00    0.2159461    0.2094838 -17.40 0.0004963723    1.316    0.240
        56 -11.5560    134.6533    231.6806   1.1926521219e+02   9.8003354692e+00    0.3897639    0.2878695 -31.40  0.001748264    2.161    0.537
        57 -12.5775    135.5994    241.1856   1.2024537796e+02   8.1283116256e+00     1.144391    0.3793891  56.82  0.004116733    4.102    0.756
        58  -9.1351     45.8319    231.1417   1.3435175401e+02   2.2922726584e+01    0.1715821    0.1033349  69.80  0.001105577    1.292    0.226
        59  -9.1941     61.5900    238.9259   1.3243102514e+02   1.9597695195e+01    0.1722246    0.1225068  53.30 0.0007385981    1.311    0.237
        60  -9.4315    142.2928    227.4295   1.1734473502e+02   9.1841214548e+00    0.2020701    0.1432759  87.60 0.0006729919    1.762    0.433
        61 -10.5512    117.0079    224.4919   1.2156817195e+02   1.3951937849e+01    0.2765972    0.2152864  44.68 0.0004463019    1.290    0.225
        62  -9.2795     65.0449    224.6202   1.3069049198e+02   2.1656788139e+01    0.1932785     0.131562 -55.32  0.001198568    1.962    0.490
        63  -8.1042     62.6508    233.2489   1.3181064656e+02   2.0440604362e+01    0.1147821     0.061316  65.68  0.000182563    1.586    0.369
        64  -9.9455    245.6812    220.1267   9.7552694442e+01  -8.0859262380e+00    0.2228182     0.103973 -39.33  0.001104207    2.586    0.613
        65  -9.9253     70.0964    218.3951   1.2926373486e+02   2.2113170017e+01    0.4569879     0.243334 -88.44  0.002573839    2.001    0.500
        66  -8.7049     88.9966    218.4987   1.2593791974e+02   1.9404922237e+01    0.1712412   0.09974431  48.48 0.0004444853    1.499    0.333
        67 -10.9016    135.9651    225.0025   1.1818307283e+02   1.0678611298e+01    0.3463052    0.2298969 -52.68  0.001109692    1.800    0.445
        68  -8.7985    118.5360    217.5424   1.2044258197e+02   1.4920253202e+01    0.1236308    0.1041653  60.30 0.0008069334    1.075    0.070
        69 -12.1320    135.3725    236.1915   1.1968921112e+02   8.9524975303e+00    0.4511494    0.3842254 -20.84     0.002785    1.821    0.451
        70  -9.4571    137.1337    214.1933   1.1651969243e+02   1.2323105596e+01    0.1841337    0.1546913  46.04 0.0003523676    1.161    0.138
        71  -9.3371     88.1683    213.0140   1.2549938437e+02   2.0541011350e+01    0.2188866    0.1388619  87.50 0.0009475243    1.616    0.381
        72  -9.4909    101.8102    211.7905   1.2284752383e+02   1.8679294848e+01    0.3171993    0.1099372  58.97  0.001094636    4.197    0.762
        73  -9.2343    106.7326    209.9778   1.2170765701e+02   1.8231148843e+01    0.1696492    0.1454077 -89.24 0.0005832859    1.154    0.133
        74  -9.3957    112.5934    208.2956   1.2038798347e+02   1.7587581055e+01    0.2209918    0.1781762  55.46 0.0006893863    1.116    0.104
        75  -9.1090     74.9060    208.1949   1.2740405840e+02   2.3362271305e+01    0.2118427    0.1371583  52.37  0.001326786    1.368    0.269
        76 -11.8751    166.7055    242.5417   1.1497309520e+02   2.6346155379e+00    0.4726969    0.2083103  49.79  0.002352644    1.893    0.472
        77 -10.4634    246.7686    206.4002   9.4901709951e+01  -6.5555383678e+00      0.26714    0.1674144  17.43  0.001450746    1.668    0.401
        78  -9.8724     90.9536    204.8985   1.2406899554e+02   2.1658412734e+01    0.3122563    0.2162971  51.07  0.001291163    1.306    0.234
        79  -9.4713     32.8580    206.9270   1.3468114262e+02   2.8836952300e+01    0.1478151    0.1175252 -79.96 0.0003960919    1.307    0.235
        80  -8.9530    125.6488    205.8722   1.1756251020e+02   1.5825777749e+01    0.1714242    0.1152888 -73.53 0.0006767176    1.699    0.411
        81  -8.5350    134.3523    208.3152   1.1622727464e+02   1.3856087707e+01     0.123177    0.1012849  14.90 0.0007046373    1.734    0.423
        82  -8.9788     74.9140    203.6430   1.2692513863e+02   2.4235333243e+01    0.2108032    0.1565265  22.95 0.0009170861    2.196    0.545
        83  -9.3603    104.0188    203.1917   1.2137573779e+02   1.9946785479e+01    0.1762202    0.1654427  49.81 0.0006994898    1.315    0.239
        84  -9.7161     84.3695    201.2251   1.2488712674e+02   2.3349743327e+01    0.3218985    0.2153933 -41.90  0.001690851    2.340    0.573
        85  -8.9221     86.1081    195.6208   1.2389518164e+02   2.4192810501e+01    0.1690106    0.1407422  64.54 0.0004781229    1.110    0.099
        86  -8.7983     64.3602    201.9271   1.2869176502e+02   2.6001394843e+01    0.1605963    0.1275252  83.30 0.0005014209    1.049    0.046
        87  -9.4969    250.5919    200.2574   9.3097111443e+01  -6.4171109332e+00    0.1707769    0.1111314 -15.15  0.000559865    1.615    0.381
        88  -9.6124     44.6437    199.2477   1.3200593370e+02   2.8974658899e+01    0.2709865    0.2168526  29.80  0.001920913    1.837    0.456
        89  -9.9803     28.4030    197.1849   1.3469376511e+02   3.1174045012e+01    0.3345473    0.2612373 -54.26  0.002479852    1.776    0.437
        90  -9.0409     25.8306    192.5315   1.3477824515e+02   3.2342405780e+01    0.2134745    0.1263419  76.19 0.0007838367    1.424    0.298
        91  -9.6968    118.1430    198.8356   1.1804777684e+02   1.8437740196e+01    0.3943186    0.1283678  50.77  0.001491828    2.955    0.662
        92  -8.9429    145.1740    198.1474   1.1259768367e+02   1.3738895852e+01    0.1742661    0.1433819  80.69  0.000257464    1.285    0.222
        93 -10.5658    102.8851    196.0990   1.2067944829e+02   2.1500701875e+01    0.2741826    0.2480856 -15.58 0.0004313087    1.673    0.402
        94  -9.7241     96.4237    196.0010   1.2193413885e+02   2.2545226165e+01    0.2965616    0.1610528  48.53  0.001296939    1.659    0.397
        95 -11.6953     58.6153    194.8357   1.2903962557e+02   2.8137790531e+01    0.4420797    0.3743363 -23.29  0.002178317    2.105    0.525
        96  -8.2936     39.2878    196.6776   1.3273720639e+02   3.0089722330e+01    0.1167696   0.06583972  74.22 0.0003541732    1.603    0.376
        97 -10.4097    249.6259    194.2304   9.2118380988e+01  -5.4511156538e+00     0.302423    0.2382679  19.44  0.001870759    1.107    0.096
        98  -9.1778     21.0083    194.8895   1.3579753066e+02   3.2370822962e+01    0.1827935    0.1072687 -57.90 0.0008574517    1.992    0.498
        99 -10.9415     22.3932    200.3999   1.3596488878e+02   3.1176996119e+01    0.3922496    0.1824366  87.24  0.001775545    1.969    0.492
       100  -8.6104    119.6842    193.9935   1.1705300999e+02   1.9103883637e+01    0.2351812    0.1154688  67.15 0.0007671785    3.201    0.688
       101  -8.6670     72.5781    193.1224   1.2621388077e+02   2.6628746674e+01    0.1482015    0.1019762 -59.30 0.0003163242    1.573    0.364
       102  -9.6494    191.5108    191.4817   1.0231594922e+02   5.9478064869e+00    0.2352694    0.2089679  35.00  0.000593862    1.022    0.022
       103  -8.6733     38.5191    192.4026   1.3250351941e+02   3.1014134527e+01    0.1122987   0.08500306  81.15 0.0001304374    1.021    0.020
       104  -9.3625     40.6503    188.4561   1.3175867051e+02   3.1558298668e+01    0.2642286    0.1863762 -81.51 0.0009474562    1.181    0.153
       105  -9.8866     15.6419    191.5817   1.3647941190e+02   3.3528987909e+01    0.2372622    0.1275657 -85.90 0.0005474168    1.474    0.322
       106  -9.4584     31.7951    189.9487   1.3350588139e+02   3.2228400709e+01    0.2980528    0.1161351  46.29  0.001635384    2.351    0.575
       107 -10.2504    250.1380    188.0032   9.0822196583e+01  -4.6954671548e+00    0.3194235    0.1726727 -20.12  0.001528482    2.115    0.527
       108  -8.2931    114.2798    189.3441   1.1746634269e+02   2.0942181978e+01    0.1189205    0.1055264 -18.31 0.0001850641    1.633    0.387
       109  -9.2799     77.0474    188.4984   1.2480896439e+02   2.6933825534e+01    0.1726007    0.1404659  89.16  0.001138367    1.066    0.062
       110 -11.5013     65.8614    186.8873   1.2681145271e+02   2.8792798633e+01    0.2526649    0.2209663 -73.37  0.000526546    1.278    0.218
       111  -8.7828     65.7025    182.2650   1.2631531744e+02   2.9757532987e+01    0.1755857    0.1283702 -87.54 0.0001703737    1.189    0.159
       112 -10.6247     83.7659    186.8004   1.2326933490e+02   2.6308323768e+01    0.2110754    0.1723112  80.57 0.0002235818    1.037    0.036
       113 -10.1703     28.7453    184.4343   1.3359020772e+02   3.3638995575e+01    0.2556702    0.2227595 -52.99  0.001191954    1.618    0.382
       114  -9.5432     24.2742    184.0154   1.3436940859e+02   3.4173073326e+01    0.1619108    0.1390717  70.15 0.0005959484    1.281    0.219
       115 -10.8438    127.8123    182.7306   1.1367437209e+02   1.9872465587e+01    0.2330461    0.2049817  89.27 0.0002890058    1.114    0.102
       116  -8.9440    140.1676    183.1858   1.1118663886e+02   1.7496740630e+01    0.1826423     0.147575  75.94 0.0002818858    1.283    0.221
       117  -9.3036     36.6849    182.6517   1.3196020852e+02   3.3159425227e+01    0.1999407    0.1083728 -64.99  0.001212088    1.678    0.404
       118  -8.5610    107.5398    182.5148   1.1784633174e+02   2.3448081660e+01     0.132169    0.1149689  75.25 0.0001416986    1.003    0.003
       119 -10.2528     86.1700    180.2586   1.2193404915e+02   2.7292243423e+01    0.2370279    0.1793999  76.42  0.000310243    1.214    0.176
       120  -8.9358     47.5292    179.7080   1.2960162184e+02   3.2539225436e+01    0.1790649   0.09807328  40.61 0.0008595052    1.942    0.485
       121  -8.5756     12.4819    178.4652   1.3605946253e+02   3.6383162778e+01    0.1614676    0.0794165 -86.76 0.0009769285    1.682    0.405
       122 -10.6119     12.1395    173.6039   1.3574209823e+02   3.7378920152e+01    0.2756453    0.1496348 -57.64  0.001473987    1.953    0.488
       123  -8.5402    125.9459    177.0585   1.1314098407e+02   2.1346347392e+01    0.1604862    0.1435583  72.41 0.0009536382    1.013    0.013
       124 -10.5761    103.0380    175.9900   1.1781548750e+02   2.5531840110e+01    0.2123674    0.1766887 -70.14   0.00128561    1.188    0.158
       125 -11.5497     65.4354    175.8283   1.2560649636e+02   3.1124494410e+01    0.2360841     0.200897  67.67 0.0003365077    1.147    0.128
       126 -10.9010     62.8748    172.5116   1.2572669687e+02   3.2150898592e+01    0.2555944    0.2087774  51.59 0.0004686913    1.301    0.232
       127 -10.7437     76.0737    174.9073   1.2330765518e+02   2.9870465931e+01    0.2473531    0.2001589  78.06  0.000408054    1.076    0.071
       128 -10.3880     18.9194    173.0705   1.3443952886e+02   3.6875067502e+01    0.3549142     0.184063  76.59  0.002117236    1.853    0.460
       129 -11.2318     14.0850    167.0120   1.3483682407e+02   3.8533024980e+01     0.264761    0.2440571  69.48  0.001981819    1.375    0.273
       130 -11.6799    248.1819    172.5655   8.8066521811e+01  -2.1464769399e+00    0.5472046    0.3838628  15.58  0.002942702    1.510    0.338
       131 -10.8501    249.3770    150.9333   8.3291649412e+01   8.8375886219e-01     0.489029    0.3143128 -34.33  0.002229779    1.514    0.339
       132 -13.1398    247.9413    100.4642   7.2039506678e+01   9.2327276630e+00     2.353993     1.010327 -23.02  0.007855152    3.475    0.712
       133 -12.1042    247.0452    158.4474   8.5309558257e+01   1.8479612530e-01     1.384478    0.8849842 -68.35  0.005366638    3.723    0.731
       134 -10.1520    249.8108    117.8295   7.5795983011e+01   6.0386165355e+00    0.4477673    0.3058796  -0.51  0.001607291    1.989    0.497
       135 -11.9403    248.4233    112.9267   7.4883376318e+01   7.1240762305e+00     1.003057    0.6323736  -4.85  0.004237612    2.413    0.586
       136 -11.8921    247.9018    142.5324   8.1702189282e+01   2.4906385834e+00    0.7000386    0.5493968  35.66  0.003866588    1.274    0.215
       137 -10.8390    192.6265    248.8526   1.1132042147e+02  -2.6605455646e+00    0.2415887    0.1430694  47.40 0.0009893541    1.387    0.279
       138 -10.6403     43.5508    168.9588   1.2924941338e+02   3.5213928295e+01    0.2911212    0.2214508 -51.22  0.001165667    1.608    0.378
       139 -10.1598     27.8868    171.5633   1.3260038943e+02   3.6322365462e+01    0.2963653    0.1612785 -61.46  0.001204074    1.724    0.420
       140 -11.5714     84.2263    166.2612   1.2039073266e+02   3.0520668165e+01    0.5401735    0.4455493  44.05  0.003363054    1.330    0.248
       141  -8.5447     58.4534    167.4814   1.2602568863e+02   3.3769392065e+01    0.1228905   0.09961019  88.82 0.0001472132    1.018    0.018
       142  -8.3020     61.0228    164.7771   1.2514903653e+02   3.4020704853e+01     0.142611   0.09553655  44.93 0.0003329876    1.560    0.359
       143  -8.4706     37.2497    162.6689   1.2984660773e+02   3.7209806199e+01    0.1174916   0.07242431  81.11  0.000368635    1.552    0.355
       144 -11.3444     12.4126    161.2700   1.3466319430e+02   3.9842176446e+01    0.4835747    0.1937292  84.35  0.002244842    3.095    0.677
       145 -12.2775     12.4287    153.7662   1.3398476319e+02   4.1376922114e+01    0.4464693    0.3607998   9.25  0.002754646    1.953    0.488
       146 -11.3890     10.9762    150.0445   1.3393080770e+02   4.2261132631e+01    0.2565266    0.2124759 -22.60  0.001187055    1.874    0.467
       147  -8.5790    133.8538    167.5902   1.0981274360e+02   2.1800976800e+01    0.1849057     0.123702  56.79 0.0003927906    1.472    0.321
       148 -10.9383     31.8287    155.6737   1.3020566680e+02   3.9229909660e+01    0.3520503    0.1790724 -52.90  0.001419249    2.077    0.518
       149  -9.9105     16.2000    158.2209   1.3364468949e+02   4.0142771271e+01    0.1572681    0.1207786 -77.25 0.0004651978    1.131    0.115
       150  -8.8740     47.6812    157.7300   1.2710138457e+02   3.7118739032e+01    0.1079218   0.08690342 -45.79 0.0001386354    1.562    0.360
       151  -9.8918     84.7925    155.2803   1.1860069780e+02   3.2798938682e+01    0.2052427    0.1667848 -67.75            0    1.150    0.131
       152 -10.9572     23.5195    155.0442   1.3185759592e+02   4.0150363601e+01    0.2965397    0.1940713  45.85  0.002006211    1.660    0.398
       153 -10.3714     23.0038    150.1611   1.3145844083e+02   4.1217944397e+01    0.2723455    0.1763375 -30.03    0.0015927    2.691    0.628
       154  -8.6850    228.3784    155.2822   8.7960020448e+01   4.4396425572e+00    0.1881113    0.1304559 -43.14 0.0004209309    1.548    0.354
       155  -9.8087     89.8771    153.2240   1.1711802977e+02   3.2475586269e+01    0.2159297    0.1887847 -83.31 0.0002983561    1.029    0.028
       156  -8.9050    104.4943    153.2880   1.1379540046e+02   3.0103852966e+01    0.1775813    0.1254009 -74.21 0.0005581839    1.483    0.326
       157  -8.9266    113.8006    151.1775   1.1128263951e+02   2.8947639703e+01    0.3172674    0.1092707 -59.40  0.001044216    3.501    0.714
       158 -10.1945     96.7312    151.2001   1.1520920640e+02   3.1835905918e+01    0.3168859    0.2425682 -48.31  0.001381878    1.403    0.287
       159  -9.8511     85.0520    148.6866   1.1747471234e+02   3.4196630658e+01    0.4012218    0.1876387 -78.74  0.001372932    3.985    0.749
       160  -9.1112     55.4909    150.4709   1.2446320821e+02   3.7771285779e+01    0.1248139    0.1018321 -87.93 0.0003208281    1.054    0.051
       161 -12.0198     68.5134    144.3800   1.2061215783e+02   3.7464332440e+01    0.6094506     0.407855  83.38  0.002159105    1.673    0.402
       162 -12.3278      2.8325    142.9460   1.3493775994e+02   4.4337580339e+01    0.6738893    0.2478374 -72.74  0.003662396    2.023    0.506
       163 -11.8697      8.6616    143.2536   1.3375863267e+02   4.3844182835e+01    0.4370317    0.1339787 -60.43  0.002179341    2.522    0.604
       164  -9.9031    236.1256    145.9797   8.4515861090e+01   4.3525132608e+00    0.2503226    0.1993806  38.39 0.0007276866    1.234    0.190
       165  -8.9639    100.5416    146.2038   1.1344046398e+02   3.2302299236e+01    0.1988172    0.1203302 -45.31 0.0009447616    1.800    0.445
       166  -9.4745     41.1874    147.5245   1.2724512830e+02   4.0010225142e+01     0.205258    0.1439642 -75.03 0.0007467482    1.174    0.148
       167  -9.6582    133.2151    140.7565   1.0472057855e+02   2.7530649214e+01     0.340276    0.2324782 -65.74  0.001592354    1.665    0.399
       168 -12.1697     16.4141    139.3196   1.3170486995e+02   4.4055040436e+01    0.5208241    0.2358426  56.00   0.00282048    2.544    0.607
       169  -8.6802     35.3104    148.6664   1.2866834812e+02   4.0368406914e+01    0.1220512   0.07518844  77.23 0.0007043301    1.676    0.403
       170 -10.5184    107.6736    172.7196   1.1632763161e+02   2.5440197660e+01    0.2361554    0.2102266  76.38 0.0004063598    1.017    0.016
       171 -10.8842     60.2262    136.6241   1.2134578305e+02   4.0218080604e+01    0.2711042    0.2091683 -84.70 0.0006855689    1.211    0.174
       172  -8.5366     50.6946    138.2682   1.2383855583e+02   4.0978208982e+01    0.1201958   0.08331178  76.59 0.0002010508    1.533    0.348
       173  -9.6261    108.9648    136.1643   1.0951723515e+02   3.3058157835e+01     0.348427    0.2502352 -13.23  0.001580476    2.373    0.579
       174  -9.5624     37.2918    140.4438   1.2721320005e+02   4.1930524155e+01    0.2065838    0.1216884 -89.32  0.000935496    1.736    0.424
       175 -10.3584     32.8062    140.6876   1.2825179258e+02   4.2317150439e+01    0.2508259    0.1569178  82.77  0.001204103    1.634    0.388
       176 -11.2597      6.8632    120.4514   1.3173566860e+02   4.8715291838e+01    0.2657079    0.1764366  22.07  0.001849614    2.057    0.514
       177 -11.8411      2.6149    131.9234   1.3392677094e+02   4.6621438844e+01    0.5256422    0.2366765 -68.01  0.002738229    1.635    0.388
       178 -11.7366      2.2631    120.8437   1.3284109541e+02   4.8936205144e+01    0.6975958    0.1331006 -72.09  0.002569098    4.263    0.765
       179 -10.9379     44.7638    130.9323   1.2416463307e+02   4.3221714531e+01    0.3591013    0.2417886 -83.23  0.002058527    1.417    0.295
       180 -10.2424     59.3797    128.1261   1.2017506171e+02   4.2186056144e+01    0.2408413    0.1789729  62.24 0.0002804905    1.466    0.318
       181 -10.3267     33.4229    127.7362   1.2641114747e+02   4.5040165802e+01    0.2379405   0.09900732 -71.54  0.001140702    2.156    0.536
       182 -10.9415     23.2633    126.9275   1.2870061983e+02   4.6112245617e+01    0.3046591    0.1679804  84.79  0.001428573    2.081    0.520
       183 -12.1345     21.9160    121.4490   1.2830559724e+02   4.7388890122e+01     0.334236    0.2652921 -25.74  0.002356878    1.691    0.409
       184 -10.5009     66.6633    128.1237   1.1837473430e+02   4.1279305209e+01     0.291985    0.2446582 -77.14  0.001838895    1.080    0.074
       185 -10.0135    209.9892    125.6873   8.4679479794e+01   1.3560335804e+01     0.276169    0.2192875 -36.90 0.0005128445    1.268    0.211
       186 -10.0331    231.7032    116.0577   7.8406997300e+01   1.0292343533e+01    0.2120872    0.1855513 -28.92 0.0005708173    1.116    0.104
       187 -11.8279      4.8391    108.6180   1.3078779564e+02   5.1308141739e+01    0.4269614    0.2575189  20.87  0.002862553    2.250    0.556
       188 -11.5878     11.0347    115.7555   1.3018197462e+02   4.9410672240e+01    0.3084081     0.208086  16.82  0.002110509    2.077    0.519
       189 -11.4257      9.7335    112.3757   1.3006761252e+02   5.0207489056e+01     0.345444    0.1716094 -43.36  0.001841747    2.226    0.551
       190 -10.0961    168.0086    113.0938   9.0255052680e+01   2.5715415468e+01    0.3574637    0.2871129 -86.32  0.000908405    1.565    0.361
       191  -8.9639    203.4847    111.5059   8.2474675296e+01   1.7633260999e+01    0.1514392    0.1478427  19.15  0.000130507    1.023    0.023
       192 -11.1627     14.9860    105.1865   1.2777536314e+02   5.1350131393e+01    0.2393551    0.1786441 -66.88 0.0008065557    1.030    0.029
       193  -9.7536     45.0000    164.9104   1.2850593795e+02   3.5899913344e+01    0.2908731    0.1491426 -72.53  0.001390421    1.680    0.405
       194 -10.0522     16.9964     98.9988   1.2632319138e+02   5.2502966809e+01     0.169608    0.1324157 -66.85   0.00122294    1.023    0.022
       195 -10.8421     45.9689    172.2555   1.2912127222e+02   3.4255491606e+01    0.3730094     0.211231 -52.56 0.0003306551    2.016    0.504
       196 -11.9919    245.3650    163.8959   8.6756485365e+01  -3.1934213235e-01    0.6017162    0.3385638 -45.55  0.002796788    2.093    0.522
       197 -11.9405    200.4226    246.2223   1.0960089362e+02  -3.6507068350e+00     0.566952    0.1527586  44.25  0.002281953    2.914    0.657
       198 -10.0529     73.8436    243.1578   1.3081223891e+02   1.7245429672e+01    0.2563325    0.1516529  63.37  0.001365967    1.328    0.247
       199  -9.8885     16.4212     25.3363   1.0950077637e+02   6.6623261345e+01    0.1464975     0.124424  36.20 0.0006507394    1.713    0.416
       200 -10.9143    142.1415    221.6054   1.1659706498e+02   1.0173783797e+01     0.359047    0.2186196  38.03  0.000994161    1.622    0.383
