#   1 NUMBER                 Running object number                                     
#   2 MAG_AUTO               Kron-like elliptical aperture magnitude                    [mag]
#   3 X_IMAGE                Object position along x                                    [pixel]
#   4 Y_IMAGE                Object position along y                                    [pixel]
#   5 X_WORLD                Barycenter position along world x axis                     [deg]
#   6 Y_WORLD                Barycenter position along world y axis                     [deg]
#   7 A_WORLD                Profile RMS along major axis (world units)                 [deg]
#   8 B_WORLD                Profile RMS along minor axis (world units)                 [deg]
#   9 THETA_WORLD            Position angle (CCW/world-x)                               [deg]
#  10 FWHM_WORLD             FWHM assuming a gaussian core                              [deg]
#  11 ELONGATION             A_IMAGE/B_IMAGE                                           
#  12 ELLIPTICITY            1 - B_IMAGE/A_IMAGE                                       
         1 -11.1269     38.9259     15.9703   7.3889577362e+01   6.8809380002e+01    0.3721634    0.1477313 -25.30  0.001605043    2.823    0.646
         2 -12.0358    216.2240     13.5700   3.5137971361e+01   3.0049306388e+01    0.3709064    0.2512198  74.07  0.001389206    1.391    0.281
         3 -13.7975    185.7344      6.9539   3.6332211646e+01   3.7839291721e+01    0.7902533     0.517663 -69.36  0.004420773    1.484    0.326
         4 -11.3917     57.3402      6.3258   6.1448569420e+01   6.6971181717e+01    0.2459621    0.1848998  27.12 0.0007608478    1.117    0.105
         5 -11.0287    166.0155      1.4435   3.6921864052e+01   4.3088116444e+01    0.1974057    0.1096391  72.58 0.0004739196    1.557    0.358
         6 -10.1443    104.3756    225.1757   1.0504931128e+02   1.3732614719e+01    0.1714731    0.1196326 -80.41 0.0009419299    1.656    0.396
         7 -11.9990     95.6042    224.0271   1.0676649915e+02   1.5299528591e+01    0.3405253    0.2541761 -60.63  0.002022471    1.474    0.321
         8 -11.5077    149.4539    222.0284   9.5082273711e+01   7.0508640086e+00    0.4022774    0.1655691 -50.02  0.001705363    2.729    0.634
         9 -10.5200    173.7772    221.7851   9.0029697580e+01   3.0632315568e+00    0.1931055    0.1074615 -56.24 0.0008879441    2.492    0.599
        10 -10.6146    211.5838    217.8196   8.1957093953e+01  -2.3460165577e+00    0.1689849      0.11789 -45.29 0.0007934767    1.719    0.418
        11 -10.6785    218.1733    211.6199   7.9621961759e+01  -2.4097077138e+00    0.1850202    0.1070058  25.38 0.0009499558    1.719    0.418
        12 -11.1758    115.9970    209.2701   1.0040270819e+02   1.5111370407e+01    0.3419745    0.1448699 -63.00  0.001341408    2.911    0.656
        13 -11.3514     48.6915    200.7089   1.1439920531e+02   2.6803604075e+01     0.267931    0.1305055  82.72  0.001177146    2.483    0.597
        14 -11.1326    112.3732    197.5734   9.9482991599e+01   1.8201577052e+01    0.2679241    0.1297839 -73.09 0.0009553981    3.349    0.701
        15 -10.3635    133.3782    195.5965   9.4351296194e+01   1.5009987778e+01    0.2624398    0.1328503 -68.11 0.0009556272    3.166    0.684
        16 -12.3291    160.3716    192.7798   8.7826041658e+01   1.0733957834e+01    0.5542721    0.4117115  82.55  0.002344786    2.088    0.521
        17 -10.9165    183.1579    182.9941   8.1076357178e+01   8.4578765040e+00    0.3486189    0.2021606 -41.78  0.001601525    1.734    0.423
        18 -10.0571    218.0000    175.9928   7.2787409799e+01   3.4636623991e+00    0.2308945    0.0725775 -39.64 0.0008093195    2.990    0.666
        19 -10.3318    138.3431    164.6756   8.7438287422e+01   2.0854274364e+01    0.1573303     0.119111  79.03 0.0005529671    1.734    0.423
        20 -12.1150    106.6284    158.1072   9.4087045275e+01   2.8305952260e+01    0.6392869    0.3946884  69.38   0.00255447    2.335    0.572
        21 -10.8224    118.0966    157.3879   9.0983833028e+01   2.6393076603e+01    0.2779916    0.2001558 -45.49  0.001008654    1.421    0.296
        22 -10.8859    218.3104    156.4157   6.8610502970e+01   6.8697625915e+00    0.2920741    0.1638492 -40.60  0.001345309    1.652    0.395
        23 -11.2264    167.0984    156.1895   7.8931105636e+01   1.6976198267e+01    0.3519418    0.2191596 -49.61  0.001539718    1.645    0.392
        24  -9.8554     23.3177    153.7036   1.1558223101e+02   4.0696934506e+01    0.1330408   0.08382587  69.58 0.0002965713    1.610    0.379
        25 -10.8631    189.3436    149.8714   7.2751066503e+01   1.3741181402e+01     0.307696    0.1289461 -48.43  0.001090368    2.554    0.608
        26 -10.5983     51.9889    160.0266   1.0886199400e+02   3.6074666486e+01    0.2268216    0.1470395  71.46   0.00075846    1.675    0.403
        27 -11.6108    106.8272    144.9398   9.1364458057e+01   3.1456117453e+01     0.451097    0.2738067  84.04  0.001547928    3.220    0.689
        28 -10.7810    148.4820    144.9874   8.0715996233e+01   2.3243566493e+01    0.2242122    0.1366843 -69.67 0.0008103079    2.570    0.611
        29 -10.1582    181.5126    141.5034   7.2452941188e+01   1.7042882392e+01    0.1512759    0.1449414 -49.71 0.0008096528    1.067    0.063
        30 -12.6904    100.6189    129.7425   8.9724541972e+01   3.6277010061e+01    0.9251872    0.5450351  70.20  0.003252594    3.055    0.673
        31 -11.4036     82.8426    131.1832   9.5178691453e+01   3.8957375262e+01    0.4030294    0.2020538 -67.51  0.001516192    2.361    0.577
        32 -10.7950    131.5218    131.0308   8.1636637024e+01   2.9938903561e+01    0.2315499    0.1378574 -70.33 0.0008101822    2.649    0.623
        33 -11.5490     42.9827    122.1544   1.0547799401e+02   4.6586569821e+01    0.5472241    0.2608782 -83.94  0.001983557    3.229    0.690
        34 -11.1847     71.1312    120.2456   9.6334168045e+01   4.3464931331e+01    0.2879947    0.1896745 -88.33  0.001241723    2.115    0.527
        35 -11.7368    141.3450    114.7969   7.5009365805e+01   3.1485986615e+01    0.6012206    0.2722197 -43.94   0.00216683    2.157    0.536
        36 -11.1998    108.4310    113.1852   8.3415334357e+01   3.8747997844e+01    0.5967716    0.2771636 -62.53  0.001865122    3.345    0.701
        37 -11.7852    193.2468    118.5656   6.4556906491e+01   1.9087416668e+01     0.498336    0.3689142  87.52  0.001955887    1.896    0.473
        38 -11.4158     78.6668    112.7759   9.2263829523e+01   4.4138754629e+01    0.3946791    0.2272996 -82.85  0.001334333    3.487    0.713
        39 -11.0377     92.1467    111.8644   8.7880086321e+01   4.2093643634e+01    0.4341496    0.1778809 -63.33   0.00123733    4.076    0.755
        40 -10.9022    173.9079    110.8634   6.6491700295e+01   2.4944062463e+01    0.4037739    0.1912708 -51.80  0.001435899    2.395    0.583
        41 -11.2764    159.7464    111.9090   6.9859812798e+01   2.7965916897e+01    0.3125815    0.2163408 -58.73  0.001356875    1.623    0.384
        42 -12.0813     14.7036    109.8771   1.1239218779e+02   5.2141836276e+01     0.598108    0.3182575 -86.49  0.002883407    2.054    0.513
        43 -12.7152    141.0405    103.4417   7.2005490415e+01   3.3992100811e+01    0.6766482    0.4277268 -49.16  0.002882945    1.592    0.372
        44 -12.2076    150.9432    103.2715   6.9565400506e+01   3.1769496100e+01    0.4199315    0.2552945 -65.89  0.001555276    2.447    0.591
        45 -12.5188     44.5349    100.8671   1.0071866937e+02   5.1634191351e+01     0.634865    0.3856536 -87.16   0.00278655    2.426    0.588
        46 -13.3031    109.4373     99.5058   7.9391637322e+01   4.1650680270e+01      1.16561    0.6861441  66.72  0.004168955    2.926    0.658
        47 -12.8851    169.4987     90.9657   6.2076914818e+01   2.9843344813e+01    0.3866206    0.2873855 -49.76 0.0005472431    1.331    0.249
        48 -12.1995    127.5196    100.8208   7.4742734718e+01   3.7555610971e+01     0.497564    0.2516534 -49.38  0.001887728    2.023    0.506
        49 -11.9817     87.2079     87.0746   8.2569296884e+01   4.8620536122e+01    0.4317579    0.3065761  68.15  0.001939687    2.074    0.518
        50 -10.8581     62.7261     95.4754   9.3147212776e+01   5.0632536513e+01    0.3289928    0.1852115 -87.83 0.0009012425    6.049    0.835
        51 -11.3670     48.6563     85.3268   9.5470226442e+01   5.4795967376e+01    0.3475643    0.2047328  61.89  0.001427632    3.093    0.677
        52 -11.0135     45.5483     81.7629   9.5668112412e+01   5.5967408341e+01    0.2247813    0.1640745 -70.01 0.0006413885    1.550    0.355
        53 -10.6248    140.7326     83.3768   6.6288220526e+01   3.8103048259e+01    0.3003167    0.1821537 -49.93  0.001256604    1.744    0.426
        54 -11.7582    104.2086     82.9287   7.5995768857e+01   4.6243640914e+01    0.4591601    0.2645274 -55.84  0.001867024    2.080    0.519
        55 -11.5218     23.9979     79.8476   1.0339908448e+02   5.8526241695e+01    0.3084913    0.1719051 -79.96  0.001413423    2.456    0.593
        56 -11.6010     62.3982     70.3116   8.5945527205e+01   5.6223002017e+01    0.3416477    0.1274606 -50.11  0.001291746    2.584    0.613
        57 -11.8317     82.2058     72.8619   7.9759562787e+01   5.2480326969e+01    0.4215129    0.2554038 -66.37  0.001652913    2.839    0.648
        58 -10.7691    116.1916     73.0354   6.9393912664e+01   4.5647501016e+01    0.2543365    0.1744857 -66.04  0.001087476    2.056    0.514
        59 -10.7895     51.6481     71.3163   9.0328459130e+01   5.7500837709e+01    0.1997053    0.1655238  85.92   0.00110588    1.729    0.422
        60 -10.5472    195.7382     67.4551   5.0993666007e+01   2.7648595961e+01    0.3502567    0.1322891  57.57   0.00129841    2.632    0.620
        61 -12.9574     40.5199     63.0612   9.2164756786e+01   6.0570719984e+01    0.6149852    0.4390298  43.24  0.001999092    1.760    0.432
        62 -11.2381     29.2722     52.4056   9.3489971034e+01   6.3904047312e+01    0.3662122    0.2132946   4.52  0.001914388    2.076    0.518
        63 -12.6123     21.2299     51.3285   9.6745272273e+01   6.4852227541e+01    0.5078065    0.2958416 -57.15  0.001203551    1.652    0.395
        64 -12.8105     27.4499     60.2757   9.6782098956e+01   6.2486695968e+01    0.5163649    0.3989929  60.85  0.001748208    1.943    0.485
        65 -12.2698     34.3549     57.5255   9.2966290420e+01   6.2369010925e+01    0.4270632    0.2783319 -24.50  0.002253865    1.521    0.342
        66 -12.1347    237.6588     64.1039   4.4596088126e+01   1.8725569320e+01       0.2779    0.2179067 -62.26  0.001118553    1.144    0.126
        67 -13.0712    231.4852     60.6641   4.4516953508e+01   2.0552309304e+01    0.8117892    0.3256807 -51.78  0.003280686    2.493    0.599
        68 -11.9248      8.8495     55.6102   1.0359670165e+02   6.4884785263e+01    0.3745967    0.3149408 -53.13  0.002621459    1.156    0.135
        69 -10.7621     54.4329     54.7546   8.3689937345e+01   6.0433311119e+01    0.2554068    0.1218377 -49.35    0.0011337    2.143    0.533
        70 -10.4192    105.3308     52.6635   6.5497657090e+01   5.1556056654e+01     0.143043    0.1144002 -75.81 0.0007052098    1.734    0.423
        71 -11.0242     92.1305     49.9950   6.8454273625e+01   5.4741651636e+01    0.3496164    0.1439573 -47.34  0.001262292    3.123    0.680
        72 -12.0415      7.1216     42.9326   1.0070974173e+02   6.7548988767e+01    0.4835718    0.2773695  37.63  0.002775396    2.376    0.579
        73 -11.9316     71.6249     41.4915   7.2029225161e+01   5.9972362330e+01    0.4477994    0.3940897 -86.71  0.002622962    1.716    0.417
        74 -11.3471     36.1661     38.5021   8.5273096068e+01   6.5733913150e+01     0.290791    0.1557391 -57.72  0.001321491    2.892    0.654
        75 -10.7396     72.7686     32.1699   6.7778960401e+01   6.1138020425e+01    0.2050572    0.1498824 -74.93 0.0009594923    2.870    0.652
        76 -10.7017    104.9835     30.4209   5.7340888237e+01   5.4777591780e+01    0.2044779    0.1232103  53.01 0.0003425912    1.542    0.351
        77 -10.8784    239.8137     20.8607   3.4836687494e+01   2.4054192910e+01     0.198982    0.1536018 -84.06 0.0007167457    1.160    0.138
        78 -11.6093    219.1132    248.2224   8.5629315645e+01  -7.7279906035e+00    0.1886978    0.1637776 -66.61  0.001254737    2.133    0.531
        79 -10.0776     88.3190     17.6605   5.6717398582e+01   5.9829649002e+01    0.1235239    0.1013784 -66.96 0.0004289665    1.711    0.416
        80 -10.8117     30.6874     17.6786   7.8640456654e+01   6.9670400294e+01    0.1240218   0.07668233  -5.67 0.0003428497    1.653    0.395
        81  -9.8121     46.5638     16.5136   7.0779765310e+01   6.7616876411e+01    0.1237237   0.09816598   3.49 0.0008067493    1.038    0.037
        82 -10.7428    197.4791    246.9911   8.9398239975e+01  -4.5103102036e+00    0.1441264    0.1098334 -70.72 0.0008101671    2.588    0.614
        83  -9.8562    108.6730    232.6899   1.0506581627e+02   1.1611292600e+01    0.1199103    0.0997563   0.01 0.0005173124    1.660    0.398
        84 -10.7831     12.6002    227.7574   1.2372760223e+02   2.4995938221e+01    0.1566117   0.08315868  83.74 0.0005944647    1.588    0.370
