#   1 NUMBER                 Running object number                                     
#   2 MAG_AUTO               Kron-like elliptical aperture magnitude                    [mag]
#   3 X_IMAGE                Object position along x                                    [pixel]
#   4 Y_IMAGE                Object position along y                                    [pixel]
#   5 X_WORLD                Barycenter position along world x axis                     [deg]
#   6 Y_WORLD                Barycenter position along world y axis                     [deg]
#   7 A_WORLD                Profile RMS along major axis (world units)                 [deg]
#   8 B_WORLD                Profile RMS along minor axis (world units)                 [deg]
#   9 THETA_WORLD            Position angle (CCW/world-x)                               [deg]
#  10 FWHM_WORLD             FWHM assuming a gaussian core                              [deg]
#  11 ELONGATION             A_IMAGE/B_IMAGE                                           
#  12 ELLIPTICITY            1 - B_IMAGE/A_IMAGE                                       
         1 -14.1463    162.8816     52.7305   7.7633088294e+01   3.7845956901e+01     2.045075     1.396596  15.99  0.006792678    2.268    0.559
         2 -13.7102    175.9280     36.0516   7.0769843170e+01   3.6927343089e+01    0.8612196    0.7499028 -73.88  0.002698864    1.143    0.125
         3 -13.0294    180.3345     28.8718   6.8206741919e+01   3.6737330524e+01    0.5081617    0.4684177  30.05  0.001537176    1.309    0.236
         4 -12.4695    189.9998     14.9022   6.3391483424e+01   3.5982945973e+01    0.3898966    0.2647365 -66.86  0.001799788    1.498    0.332
         5 -13.6984    194.8308      4.6118   6.0376786706e+01   3.5892429838e+01    0.9194835    0.5435472  72.78  0.004188831    1.418    0.295
         6 -10.9733    167.8869    189.3510   1.1026564009e+02   9.4901452155e+00    0.3611429      0.26668 -33.17  0.001153741    1.526    0.345
         7 -19.0053     58.9652    244.7578   1.4062175413e+02   1.6699745221e+01     6.579502     5.681515  80.30   0.04396626    1.234    0.190
         8  -9.5761    180.1971    192.3969   1.0821192785e+02   6.4379904815e+00    0.2057965    0.1313288  52.63  0.000603794    1.663    0.399
         9 -19.0217     42.9651     97.2725   1.2379657557e+02   5.2071640108e+01     17.73394    0.8539308 -57.95   0.02630714   18.755    0.947
        10 -13.5438     11.9664    205.3305   1.4609119099e+02   3.0408750797e+01    0.3973201    0.3901161 -64.25  0.003154146    1.556    0.357
        11 -13.0349    193.9211    193.6679   1.0559726390e+02   3.5185660825e+00     1.245885    0.6238077 -56.28   0.00323028    2.840    0.648
        12 -11.7200    207.2341    179.8621   1.0011838905e+02   3.5468228200e+00    0.6891353    0.4371544  23.81  0.003089063    1.946    0.486
        13  -9.9060     23.1492    205.3171   1.4396565140e+02   2.9266035061e+01    0.2744771    0.1394847  48.17   0.00156647    1.841    0.457
        14 -10.5718    163.4142    204.1919   1.1399379747e+02   7.3669437656e+00    0.2546025    0.2412895  72.10 0.0004795331    1.102    0.092
        15 -11.8089    136.5685    179.3562   1.1539844062e+02   1.7877512826e+01    0.3333433    0.1835919  41.79 0.0009475652    1.778    0.438
        16  -9.3370    170.6649    176.7377   1.0714570987e+02   1.1550641220e+01    0.1487102    0.1180201   9.81 0.0002072277    1.580    0.367
        17 -11.9156    195.9989    170.9642   1.0053091031e+02   7.5183741528e+00    0.6501698    0.3925985 -47.81  0.002539818    1.706    0.414
        18 -10.6503    193.8299    164.9900   9.9697909287e+01   9.1640000345e+00    0.3728711    0.2955844 -60.68  0.001230852    1.424    0.298
        19 -11.4777      6.0965    250.7402   1.4991821622e+02   2.1904688016e+01    0.1739016   0.07038558  44.32  0.001037021    2.151    0.535
        20  -9.4973    179.1263    206.1442   1.1102817757e+02   3.9899364256e+00     0.183297    0.1627341  69.89  0.001030853    1.286    0.222
        21 -11.4963    120.7851    164.3746   1.1626187273e+02   2.4390909691e+01    0.5249501     0.250724  52.74  0.001916097    2.335    0.572
        22 -10.0324    223.6732    163.6752   9.3526882474e+01   3.3766996631e+00    0.2830615    0.1628254 -58.07  0.001097887    2.425    0.588
        23  -9.5287      2.3398    164.2833   1.4467401428e+02   4.0294967011e+01    0.1116657   0.07504763 -52.24 0.0007013386    1.630    0.387
        24 -10.2979     14.0629    160.0976   1.4165771207e+02   4.0291314261e+01    0.2022142    0.1374274 -72.40 0.0004730272    1.171    0.146
        25 -10.8202    237.2396    159.4051   9.0152886651e+01   1.5593205109e+00    0.1883579    0.1359098  58.23 0.0009544078    1.699    0.411
        26 -13.0025    134.0742    145.7155   1.0903566362e+02   2.6106472492e+01     1.375159    0.3529789 -54.70  0.003215299    5.532    0.819
        27 -10.6464    174.6745    148.9505   1.0022905939e+02   1.6624871348e+01    0.2877083    0.2439177 -84.42 0.0008583575    1.368    0.269
        28 -10.7068    158.5381    204.5463   1.1510256424e+02   8.2300451129e+00    0.3975435    0.2217402  62.69  0.001559397    2.602    0.616
        29 -12.2171    145.5955    146.4490   1.0638113042e+02   2.3514642668e+01    0.5221598    0.3981845  73.43  0.001527973    1.570    0.363
        30 -10.7457     11.1638    142.7676   1.4041299460e+02   4.4508956741e+01    0.2157131    0.1847319 -46.05 0.0004897448    1.353    0.261
        31 -11.6166    142.4621    138.9966   1.0542200248e+02   2.5880655753e+01    0.4004782    0.2664454 -64.61  0.001682759    1.768    0.434
        32 -11.8986    139.8721    200.3776   1.1844468430e+02   1.2647631881e+01    0.3243172    0.3187599  72.02  0.001919654    1.092    0.084
        33 -11.4760     90.0260    137.4710   1.1871023952e+02   3.6349067908e+01    0.2819046     0.138368  44.04 0.0009329243    2.142    0.533
        34 -12.1836    106.0937    130.8524   1.1290159931e+02   3.5100860416e+01    0.4477606    0.3907306  80.82  0.001371905    1.240    0.193
        35 -11.2421    106.7857    125.6251   1.1149293641e+02   3.6193832549e+01    0.3179832    0.2646863 -28.09 0.0006386538    1.347    0.258
        36 -12.2194    118.6911    129.7056   1.0927088551e+02   3.2948932429e+01    0.4022881    0.3720721 -75.87  0.001025206    1.084    0.077
        37 -11.5958    136.2455    129.1197   1.0460440282e+02   2.9455254548e+01    0.4432156    0.2138516 -50.72  0.001459447    2.096    0.523
        38 -12.2935    135.3671    122.4975   1.0318858124e+02   3.1132391444e+01     0.726872    0.2531006 -49.79  0.002271014    2.976    0.664
        39  -9.2057     15.2847    130.6705   1.3783527458e+02   4.6970850265e+01     0.121748   0.08159836  80.26 0.0002413483    1.611    0.379
        40 -11.0378    160.5452    127.8183   9.8408552820e+01   2.4364835721e+01    0.4194123    0.2903032 -59.20  0.001539116    1.590    0.371
        41 -11.0536    142.0406    127.0990   1.0266291482e+02   2.8656064345e+01    0.3450028    0.2718403 -85.31 0.0004705871    1.565    0.361
        42 -11.8520    125.5134    127.4770   1.0694928131e+02   3.2082406022e+01    0.4193926    0.2812463  74.06  0.001512542    2.178    0.541
        43 -11.0685    208.8682    197.3359   1.0330435498e+02   2.2212387689e-02    0.2267795    0.1890674 -46.99 0.0004296007    1.320    0.243
        44 -10.0816      7.6637    212.4919   1.4738709798e+02   2.9316871012e+01    0.1377303    0.1002599  50.91 0.0005141339    1.433    0.302
        45 -11.1305    112.5590    118.6486   1.0822105661e+02   3.6694679110e+01    0.3910039    0.2749051 -72.70  0.001190095    1.809    0.447
        46 -10.8250     15.6052    213.6921   1.4603044959e+02   2.8270284064e+01    0.1529616     0.148108 -49.02 0.0008704028    1.624    0.384
        47 -11.0991    167.8329    112.9793   9.3018503690e+01   2.5825971606e+01    0.6309556    0.3626235  72.48  0.002172599    2.879    0.653
        48 -10.8590    135.0000    106.5113   9.9134396277e+01   3.4696502834e+01    0.5620981    0.1858979 -50.05  0.001662507    3.432    0.709
        49 -10.7229      3.4583    112.5844   1.3853183182e+02   5.1876001486e+01    0.2242676    0.1700548 -54.57 0.0009222166    1.155    0.134
        50 -12.4052     85.8224    108.7037   1.1331757069e+02   4.3757125934e+01    0.5054449      0.41927 -23.64  0.002719366    1.312    0.238
        51 -10.4561    205.4836    110.1555   8.4691961042e+01   1.7564032684e+01    0.3295047    0.2208825  44.51  0.001055609    1.626    0.385
        52 -10.8096    163.0949    210.5461   1.1518127054e+02   6.1818560422e+00    0.2982008    0.2065988 -53.22  0.001104879    1.602    0.376
        53 -10.2340     86.2674     77.5715   1.0461491658e+02   5.0222097663e+01    0.1826145     0.130806  24.83 0.0006837249    1.504    0.335
        54  -9.8857      2.5076    244.5545   1.5015815883e+02   2.3437027710e+01     0.107015   0.07502176  78.03  0.000807612    1.049    0.047
        55 -12.1827    159.4323    237.2936   1.2026433019e+02   1.9172875934e+00    0.3972231    0.3362378  49.79  0.002133196    1.082    0.076
        56 -11.4662    154.8527    197.0097   1.1455245080e+02   1.0476666162e+01    0.3256462    0.2660627  85.17 0.0009567623    1.449    0.310
        57  -9.9567     13.4062     59.8591   1.2498803840e+02   6.2288438351e+01    0.1600237    0.1470138 -22.59 0.0004461938    1.230    0.187
        58  -9.8021    120.9194     24.9052   7.7740577826e+01   5.1264837792e+01    0.1957745    0.1552167 -84.26 0.0006301847    1.653    0.395
        59 -10.8060    198.5946    222.5952   1.1002988868e+02  -2.4964777748e+00    0.2295464    0.2009273  27.75 0.0002232898    1.036    0.035
