#   1 NUMBER                 Running object number                                     
#   2 MAG_AUTO               Kron-like elliptical aperture magnitude                    [mag]
#   3 X_IMAGE                Object position along x                                    [pixel]
#   4 Y_IMAGE                Object position along y                                    [pixel]
#   5 X_WORLD                Barycenter position along world x axis                     [deg]
#   6 Y_WORLD                Barycenter position along world y axis                     [deg]
#   7 A_WORLD                Profile RMS along major axis (world units)                 [deg]
#   8 B_WORLD                Profile RMS along minor axis (world units)                 [deg]
#   9 THETA_WORLD            Position angle (CCW/world-x)                               [deg]
#  10 FWHM_WORLD             FWHM assuming a gaussian core                              [deg]
#  11 ELONGATION             A_IMAGE/B_IMAGE                                           
#  12 ELLIPTICITY            1 - B_IMAGE/A_IMAGE                                       
         1 -12.4508    244.4536     22.1648   3.5509802645e+02   2.4908939801e+01    0.5350511    0.3228023 -79.52   0.00247679    1.629    0.386
         2 -11.0124    210.6891     22.0077   3.5686293290e+02   3.0873655725e+01    0.6427442    0.4884533  -5.06  0.004165123    2.076    0.518
         3 -12.7116    231.3293     34.5979   3.5822896788e+02   2.5726437118e+01    0.8818931    0.3251103 -61.39  0.003449671    2.834    0.647
         4 -14.1109    243.7599      8.5760   3.5256366785e+02   2.6421563987e+01     1.186794    0.4042951 -73.12  0.006093651    3.168    0.684
         5 -13.2994    218.8807     54.3528   3.2078004065e+00   2.5500556302e+01    0.9722366    0.6040331 -29.62  0.003729716    1.637    0.389
         6 -13.2677    228.1903     22.9692   3.5606661046e+02   2.7570167082e+01    0.6514811    0.2506127  89.04  0.002536543    3.121    0.680
         7 -13.8161    230.9890     47.1780   7.8262974095e-01   2.4299170042e+01     1.383996    0.6464918 -71.90   0.00718894    2.713    0.631
         8 -12.3133    228.1753     15.6033   3.5458239387e+02   2.8357441047e+01    0.3664965    0.3053186 -33.07  0.000796338    1.418    0.295
         9 -13.0538    221.2854     10.5739   3.5387979471e+02   3.0109532908e+01    0.5474449     0.426338 -65.76   0.00420165    1.116    0.104
        10 -13.4834     97.0899     66.8008   2.6942733519e+01   5.0170788266e+01     2.637527     1.236598 -43.05   0.01017746    2.212    0.548
        11  99.0000     35.5565     21.2843   3.2891607814e+01   7.1689664206e+01     4.020496     1.566663  52.75   0.01442488    3.206    0.688
        12 -13.8121      4.4232     55.9380   6.9471673561e+01   6.8086587157e+01     1.941828      0.88491 -82.82  0.007705376    2.678    0.627
        13 -14.1340     36.0766     56.0913   4.9065154247e+01   6.4730197210e+01     2.586652     1.858761  -4.45   0.01232814    1.681    0.405
        14 -13.9504      9.7573     38.7763   6.0603573388e+01   7.1866720895e+01     2.493629     1.370112 -76.71   0.01106956    2.426    0.588
        15 -13.4245     79.5834     21.5435   1.4213112816e+01   6.1664307916e+01     1.611695    0.5237676  55.85  0.005935613    2.532    0.605
        16 -13.6274     51.1211     44.9524   3.6323167433e+01   6.4478681599e+01    0.9763286    0.7243865 -11.68  0.002594674    1.756    0.430
        17 -14.1835     79.8028     44.5832   2.4216341683e+01   5.8262014660e+01     1.541587     1.280122 -66.41  0.006801029    1.348    0.258
        18 -13.4026     64.0041     38.2376   2.7389980141e+01   6.2974211979e+01     1.029361     0.696254 -62.01 0.0007369881    1.973    0.493
        19 -12.9872    219.8598     27.7447   3.5752745886e+02   2.8530389462e+01    0.4261458    0.3036841 -35.16  0.000578227    1.370    0.270
        20 -12.6691    200.6191     41.1439   1.8672351554e+00   3.0582952621e+01     1.132619    0.7727568  -9.69  0.006274526    2.355    0.575
        21 -12.8094    177.8264     37.5555   3.1294181897e+00   3.5730424504e+01    0.7380368     0.660698  79.72  0.003260406    1.236    0.191
        22 -11.0505    112.5986     22.3243   7.1448996649e+00   5.3171844343e+01    0.8595224    0.4804329 -14.37   0.00376999    2.615    0.618
        23 -11.6009    112.9656     14.7547   4.2942710251e+00   5.3903219723e+01    0.2830569    0.1952551  46.13  0.000746435    1.633    0.388
        24 -12.4934    116.5073      7.5395   1.1492154788e+00   5.3703396868e+01    0.5241079      0.41875 -13.27  0.001802812    1.588    0.370
        25 -11.3499     20.5591     21.7732   4.3823329516e+01   7.4158664752e+01    0.4410567    0.2366743 -57.35  0.001387845    2.490    0.598
        26 -10.7962    203.4438     17.8591   3.5638753723e+02   3.2724414478e+01    0.3683655    0.2703687  34.84  0.001599266    2.283    0.562
        27  -9.6576    129.7611     10.9985   7.0550999770e-01   5.0034125101e+01    0.1673904    0.1313671  -8.42 0.0009582579    1.698    0.411
        28  -9.5094    124.4883      8.4612   4.7519920837e-01   5.1598708817e+01    0.1351428    0.1113858 -83.07 5.705632e-05    1.028    0.028
        29 -10.7315    125.4283     16.4845   3.0933435488e+00   5.0561654384e+01    0.4283578    0.1317968 -32.07   0.00164257    3.080    0.675
        30 -11.3436    125.7353     12.0963   1.5619093628e+00   5.0933701318e+01    0.3543603    0.2401757 -87.41  0.001201621    1.330    0.248
        31 -12.7671     26.0520     40.3944   4.9115418570e+01   6.9659599368e+01     1.335236    0.9798309 -28.35  0.007020964    1.432    0.302
        32 -13.0157     67.1376     14.1078   1.4339683117e+01   6.5618660384e+01    0.8012958    0.3840827  60.83 0.0008295886    1.798    0.444
        33 -10.4314    154.7970     14.8561   3.5927940019e+02   4.3567600228e+01    0.2421618    0.1748966  -8.60  0.001204061    1.970    0.492
        34 -10.7784    150.3462     13.2943   3.5924734367e+02   4.4781433196e+01    0.2360279    0.1865272 -72.49 0.0006055254    1.057    0.054
        35  -9.7451    107.7764      9.9252   3.2820193196e+00   5.5710922090e+01    0.3137354    0.1585205 -63.97  0.001365799    2.274    0.560
        36 -11.2585     38.0565     12.3311   2.5797038290e+01   7.2504838342e+01    0.2056603    0.1792444  13.12  0.000333723    1.174    0.148
        37 -11.6387     13.8271     12.0901   4.3528458376e+01   7.6856319599e+01    0.1998944    0.1710253  10.25 0.0002805145    1.000    0.000
        38  -9.7725     88.7204     12.0135   7.6272841761e+00   6.0404531189e+01    0.1685441    0.1668127  13.16 0.0004718895    1.198    0.165
        39  -9.9281    144.0356      9.9775   3.5886494728e+02   4.6627042026e+01    0.1915286    0.1202735 -64.39 0.0003278601    1.435    0.303
        40  -9.8654     77.4717      1.4496   5.1283685801e+00   6.4241792846e+01    0.1704286    0.1220111 -44.05 7.147781e-05    1.547    0.354
        41 -10.7695     70.3407      3.5160   7.8635234189e+00   6.5875178232e+01     0.296623    0.2382015 -19.06  0.001314661    1.479    0.324
        42 -10.5083     72.8901      9.0037   1.0016407368e+01   6.4725728928e+01    0.4044403    0.2543217 -38.70  0.001652132    1.768    0.434
        43 -10.6707     79.3450      9.2513   8.4917802095e+00   6.3070226439e+01    0.3706708    0.1338534  58.75  0.001248496    2.218    0.549
        44 -10.6240     76.3692      5.6993   7.4784147127e+00   6.4158129092e+01    0.3190573    0.1910857  15.63  0.001032627    2.489    0.598
        45 -10.5233     25.1987     10.1523   3.2644319998e+01   7.5322763086e+01    0.2485545    0.1705395  45.61  0.001169975    1.382    0.276
        46  -9.8511     28.5260      8.5438   2.9118582675e+01   7.4927711067e+01     0.221557    0.1573204  41.39 7.062036e-05    1.227    0.185
        47 -12.4645    173.3736      5.7762   3.5537363662e+02   4.0242709303e+01    0.4390532    0.2663467 -26.86  0.001933259    1.816    0.449
        48  -9.8154     44.4418      8.5317   1.9992877085e+01   7.1595804652e+01    0.1787871    0.1299003  -2.63 0.0006675812    1.691    0.409
        49 -10.1202     49.1768      7.1847   1.7008252962e+01   7.0667376829e+01     0.393298    0.3124313  15.38  0.002290737    1.423    0.297
        50 -12.0346     46.0405      2.6722   1.5428915697e+01   7.1857527908e+01    0.2348403    0.2081633  26.28 0.0003311786    1.167    0.143
        51 -10.9814    194.0715      7.9072   3.5466157885e+02   3.5634216001e+01    0.2281922    0.1780988  83.70  0.001102014    1.327    0.246
        52  -9.8666    164.2939      7.9210   3.5656471629e+02   4.2069980846e+01    0.1710957    0.1363629 -54.68  0.001111452    1.138    0.122
        53 -11.5010     63.1404      6.8676   1.1723888317e+01   6.7358794356e+01    0.4147319    0.2525607  86.56 0.0004696146    1.998    0.499
        54 -11.4150     65.0980      3.1311   9.0737323916e+00   6.7220715112e+01    0.2809243    0.2151531  52.54 0.0002862254    1.168    0.144
        55  -9.3541    132.7336      7.7827   3.5932004597e+02   4.9604025812e+01    0.1167427    0.0881639  59.63 0.0002071538    1.400    0.286
        56  99.0000    209.2020      5.5266   3.5336847104e+02   3.2873621530e+01    0.3620718    0.1466938 -56.74  0.001984911    1.908    0.476
        57 -10.5202    213.5880      2.4832   3.5252765758e+02   3.2336752155e+01    0.2439436    0.2125676 -18.95  0.001876203    1.585    0.369
        58 -10.2138    218.0702      2.3587   3.5232023772e+02   3.1513234931e+01     0.217893    0.1459727  83.53  0.001093476    1.545    0.353
        59 -10.3548      3.7149      6.0276   4.9785635689e+01   7.9200750993e+01    0.3959461    0.1906356   2.91  0.001589708    3.187    0.686
        60  -9.3696    188.7457      5.0754   3.5428902297e+02   3.7012132473e+01    0.1560381    0.1081911 -50.59 0.0003654995    1.179    0.152
        61  -9.5350     99.0152      5.4980   2.9139505304e+00   5.8368576714e+01      0.20097   0.07931767  52.05 0.0008095425    2.465    0.594
        62 -10.2382    184.2663      3.4838   3.5415296303e+02   3.8106919896e+01    0.2285485    0.1218556  64.09  0.001114516    2.069    0.517
        63  -9.7395    142.1194      4.0961   3.5725202361e+02   4.7645393860e+01    0.1750359    0.1455455  78.54 0.0003562171    1.186    0.156
        64 -10.4319     55.7784      3.7122   1.2337693577e+01   6.9453660008e+01    0.4552164    0.1701427  51.13  0.001446002    2.202    0.546
        65  -9.8488    154.7026      2.9625   3.5590390489e+02   4.4753218100e+01    0.1701361    0.1357051 -51.36 0.0007247291    1.190    0.160
        66 -10.1924    126.8973      1.7692   3.5793919255e+02   5.1594835619e+01    0.1815303    0.1481702  80.30  0.000316891    1.121    0.108
        67 -10.8742     87.7386      1.2090   2.9933987187e+00   6.1631103723e+01    0.3719032   0.08878438  70.86 0.0005528642    3.389    0.705
        68 -12.9698    209.0431     68.1647   7.0991058534e+00   2.5421105580e+01    0.6302238    0.2754043 -41.45 0.0009969015    1.811    0.448
        69 -13.2220    209.1647     59.1056   5.1074091883e+00   2.6633861599e+01    0.5667171        0.485 -80.28  0.001884288    1.203    0.169
        70  -9.5975    222.2878    124.6925   1.7165354296e+01   1.4964614040e+01    0.1645196   0.09219339 -32.86 0.0003639463    1.509    0.337
        71 -12.0328    220.5854     37.9684   3.5962497481e+02   2.7218200285e+01     0.301451     0.228467 -67.83 0.0003146103    1.162    0.139
        72  -9.9319    221.2114    121.5777   1.6702443249e+01   1.5588327514e+01    0.1905543    0.1695568 -68.03  0.001140592    1.367    0.268
        73 -11.1662    228.8762    118.9635   1.5233514891e+01   1.4870691733e+01    0.2271908    0.1644032  43.06 0.0006557881    1.749    0.428
        74 -12.7665     59.7539     90.4769   4.8259194916e+01   5.2571249752e+01    0.5658262    0.4175372  46.71  0.002626044    1.363    0.266
        75 -13.2638     51.9783     87.0029   5.0723849994e+01   5.4740597020e+01    0.6643134    0.4687426 -84.41  0.001168094    1.836    0.455
        76 -11.1365     48.0176     85.3023   5.2085457731e+01   5.5795103318e+01    0.3041939    0.2694649  87.95  0.000238043    1.248    0.198
        77 -12.3841    207.3545     89.7317   1.1953569846e+01   2.2605170859e+01    0.2436307    0.2235124  31.93  0.001694671    1.377    0.274
        78 -13.2867    184.7555     61.8031   8.3617433098e+00   3.0997145164e+01     1.032687    0.6769951 -64.10  0.001893141    1.509    0.337
        79 -11.4412    237.4854     86.5028   8.0277719264e+00   1.8182289581e+01    0.3057988    0.2340021  59.99  0.001695813    1.682    0.405
        80 -11.3899    233.5288     84.5069   8.0201286275e+00   1.9057680296e+01     0.272063    0.2299202  87.57  0.001255194    1.429    0.300
        81 -13.3328    195.3383     56.8311   5.9865493775e+00   2.9573764493e+01    0.9924207    0.7659962  17.61  0.002443124    2.124    0.529
        82 -13.4709     66.6788     83.2251   4.3244896854e+01   5.3110266739e+01     2.744326     1.499412 -77.78  0.008203912    4.132    0.758
        83 -14.5365     40.0254     78.1055   5.3992050166e+01   5.8811211999e+01      1.67476     1.391496  24.07  0.007263705    1.186    0.157
        84 -10.4074    204.1934    117.4106   1.8193555129e+01   1.8843680998e+01    0.3989641     0.246015 -65.68  0.001969852    2.503    0.601
        85 -13.9348    117.1512     63.0593   2.0298310266e+01   4.6095937498e+01     1.489611     1.168142  77.12  0.006306153    1.308    0.235
        86 -10.5887    247.2960    117.5335   1.2859575192e+01   1.2566028629e+01    0.2343876    0.1724136 -87.44  0.001354061    2.260    0.558
        87 -10.1543    181.3524    116.1332   2.1479613514e+01   2.2920869379e+01    0.3682209    0.2342214  11.09   0.00158609    3.014    0.668
        88 -12.8810     55.4015     73.5455   4.5117675489e+01   5.7480215972e+01    0.9705889    0.4909666 -63.15  0.003597241    2.490    0.598
        89 -11.3145    126.3196    115.9629   3.2932497395e+01   3.3523318306e+01     0.322454     0.212612  40.69 0.0007040105    1.554    0.357
        90 -10.5827     65.9602    114.9409   5.1836880677e+01   4.5192038704e+01    0.2631632    0.1855401  62.68  0.001003916    1.674    0.403
        91  -9.6879    172.2471    112.7986   2.2316140178e+01   2.5162157301e+01    0.1783809    0.1534409  -8.32 0.0005245398    1.323    0.244
        92  -9.9231    211.1973    112.2288   1.6161729658e+01   1.8538487313e+01    0.2258415     0.105185  54.01 0.0007855415    2.702    0.630
        93 -14.4044     77.0789     58.8965   3.0822852863e+01   5.6283923490e+01     1.532018    0.5308797  47.31  0.004473753    2.719    0.632
        94 -11.1604    196.0835    107.5394   1.7293684475e+01   2.1781498581e+01    0.3417102    0.2988306 -73.62  0.002221007    1.288    0.223
        95 -13.3171     60.9803     43.2698   3.0944185296e+01   6.2762032788e+01    0.4628117    0.4044204  89.22 0.0005729895    1.350    0.259
        96 -10.6544    191.9812    102.6946   1.6842482412e+01   2.3287798618e+01    0.3941661    0.2034693 -33.58   0.00189938    1.856    0.461
        97 -12.6342     17.4712     63.5846   6.2746146802e+01   6.5167873314e+01     0.943554    0.4090813  44.68  0.001636717    2.732    0.634
        98  -9.6194     87.4998     89.4573   3.7275817418e+01   4.7501763308e+01    0.1571268    0.1496878  66.16 3.116452e-05    1.035    0.034
        99 -12.6503    248.8553     83.0776   6.3405547653e+00   1.6961964657e+01    0.2327412    0.1820652 -52.87 0.0005069402    1.157    0.135
       100 -11.3625    238.3046     81.0608   6.8954419810e+00   1.8788307649e+01    0.2056042    0.1690946  64.97 0.0002549556    1.556    0.357
       101 -12.4897    241.9767     73.8398   5.1763458682e+00   1.9177140354e+01    0.8766085    0.2615899 -47.28  0.002604067    2.701    0.630
       102 -12.1218    249.2441     72.9678   4.4139945093e+00   1.8201953228e+01    0.4573215    0.1981443 -37.87  0.000938562    1.696    0.410
       103 -10.9459     17.4525     83.3995   6.7183625341e+01   5.9952961902e+01    0.3968056    0.2083111 -25.03  0.001247498    2.329    0.571
       104 -11.0483    232.0609     79.1505   7.1022116195e+00   2.0013437663e+01    0.2625538    0.1955187 -78.13  0.001077801    1.551    0.355
       105 -12.1568    160.7960    104.5142   2.2491853848e+01   2.8862766419e+01    0.5390025    0.2503814 -49.13 0.0004340555    2.140    0.533
       106 -10.9274     86.7022     76.0631   3.3390252120e+01   5.0637825839e+01    0.5753049    0.2941654 -53.77  0.002064047    2.187    0.543
       107 -11.2100     84.4700     71.9127   3.2788877505e+01   5.2005517195e+01    0.5414505    0.3195442  31.32  0.001367056    2.113    0.527
       108  -9.8065     84.9619     79.7775   3.5191020857e+01   5.0209270009e+01    0.2167732    0.1914453  45.71  0.001098535    1.097    0.089
       109 -10.8859     81.5367     79.4709   3.6314578456e+01   5.1004183434e+01     0.272474    0.2511326  47.36 0.0005730634    1.048    0.046
       110 -11.1090     70.5395     70.8667   3.7669023713e+01   5.5193493896e+01    0.3779905     0.289593  46.69  0.000985369    1.256    0.204
       111 -12.2870     74.2646     75.0434   3.7602782161e+01   5.3504692682e+01    0.8948027     0.521924  48.43  0.003731879    1.695    0.410
       112 -10.7465     74.6351     69.9917   3.5751487573e+01   5.4533288799e+01    0.3859405    0.2637872 -31.87  0.001703671    1.757    0.431
       113 -13.2365     50.2954     55.4091   4.1100892359e+01   6.2500366532e+01      1.24086    0.7855516  66.00  0.005003898    2.476    0.596
       114 -12.6843    169.0943     79.5496   1.4910539958e+01   3.1509862688e+01    0.7707751    0.3941238 -49.69  0.002021465    1.856    0.461
       115 -10.5153    104.0373     75.1940   2.7641577361e+01   4.6917984228e+01    0.2284046    0.2053844  23.25 0.0005443158    1.279    0.218
       116 -12.1404    136.8952     71.6419   1.8557305097e+01   3.9941839527e+01     1.246202    0.3654186  56.94  0.003999438    3.484    0.713
       117  -9.2505    136.7740     61.8892   1.5725985438e+01   4.1613265133e+01    0.3651318    0.2804932  50.44  0.001309873    1.396    0.283
       118 -11.0083    136.2328     57.3892   1.4483069226e+01   4.2464030433e+01    0.3726253     0.251173  87.04  0.001608807    1.684    0.406
       119 -10.9450    154.9854     64.2904   1.3187154454e+01   3.7024222022e+01    0.6285372    0.2795646 -38.90  0.002055828    2.104    0.525
       120 -11.3763    152.0586     59.1891   1.2252956662e+01   3.8482381822e+01    0.3196768    0.2558375   7.73  0.001679734    1.865    0.464
       121 -10.8400    142.1606     55.1043   1.2734757393e+01   4.1412789262e+01    0.2817507    0.2768928  77.45  0.001717073    1.178    0.151
       122 -10.6366    145.9993     52.0348   1.1193154578e+01   4.0969398704e+01    0.3083559    0.2094802  39.92  0.001234548    1.932    0.483
       123 -11.4753    143.3061     67.1581   1.6022036766e+01   3.9223506383e+01    0.5801045    0.4027262  48.90  0.001740256    1.571    0.363
       124 -11.1652    149.6049     66.8105   1.4788481727e+01   3.7838802566e+01    0.5057082    0.2103471 -50.07  0.001598559    2.483    0.597
       125 -11.9521    145.3732     59.4961   1.3457062890e+01   3.9979290061e+01    0.4750045    0.4590383 -37.18  0.001711807    1.194    0.163
       126  -9.8559    162.3133     47.5692   7.5535338253e+00   3.7841524124e+01    0.2159216    0.1555652  50.40 0.0006314908    1.641    0.390
       127 -11.3808    162.3406     57.4568   1.0212891043e+01   3.6418916123e+01    0.3458978    0.3307486  -6.91   0.00217191    1.311    0.237
       128 -10.2307    157.0421     54.3221   1.0133699039e+01   3.8074744659e+01     0.398568    0.2089009  60.98   0.00142565    1.921    0.480
       129 -10.5029    161.2085     51.4752   8.7611991101e+00   3.7542175438e+01    0.2845763    0.2008857 -73.98 0.0009429468    1.423    0.297
       130 -12.6920    173.5706     57.0898   8.5889735950e+00   3.4015492322e+01    0.2738492    0.2387742 -80.49 0.0004581877    1.094    0.086
       131 -11.1636    245.2922     53.1816   9.5919636795e-01   2.1249592291e+01    0.3636133    0.1359942 -38.82  0.001690031    1.904    0.475
       132 -10.6708    127.2470     58.6788   1.6654947909e+01   4.4408748949e+01    0.4418452    0.2538064  37.22   0.00180056    2.478    0.596
       133 -11.1256    123.2718     53.6901   1.5902551497e+01   4.6176588532e+01    0.3047592    0.2343953  70.87 0.0005795473    1.248    0.199
       134 -11.6214    181.9548     49.4970   5.6793918522e+00   3.3292889160e+01    0.5229394    0.4185542  23.89  0.001424703    1.903    0.475
       135 -12.2955    190.1241     44.1005   3.5176912212e+00   3.2310879600e+01    0.5594959    0.3510099 -64.73  0.002195252    1.485    0.326
       136 -11.4498    198.2706     28.1606   3.5907668664e+02   3.2604826278e+01    0.3789817    0.3056688 -34.21  0.001367132    1.349    0.259
       137 -11.0259     15.4194    106.6333   7.1889914067e+01   5.3674791592e+01    0.2794002    0.2346559 -39.88  0.000232767    1.214    0.176
       138 -12.2751    196.0017     34.2880   6.7408278079e-01   3.2338964780e+01    0.4804055    0.3035577 -44.22  0.002917497    1.313    0.238
       139 -12.1596    171.4859     44.1013   5.4989387153e+00   3.6266611083e+01    0.5662134    0.3087844  64.65  0.001487611    1.872    0.466
       140 -10.4010    210.3165    105.1231   1.4819308986e+01   1.9773278564e+01    0.3126861    0.2507071 -84.03  0.002016262    1.587    0.370
       141 -11.1136    185.8265     37.6459   2.3706158445e+00   3.4017528839e+01    0.2723192    0.1816525 -80.57    0.0009784    1.456    0.313
       142 -12.4381    189.4114     34.2042   1.2125522601e+00   3.3693840002e+01    0.3826052    0.2852114 -43.78 0.0004843446    1.212    0.175
       143 -12.2954    125.8119     45.6919   1.2796248500e+01   4.6776879692e+01    0.5972143    0.3519776  76.70 0.0006616514    1.807    0.446
       144 -12.5984    133.6470     46.6387   1.1656065839e+01   4.4719860537e+01    0.5065597    0.3931405 -13.29 0.0006223715    1.732    0.423
       145 -11.4265    133.1219     40.5571   9.8332851953e+00   4.5710037694e+01    0.4592809    0.2728895 -62.89  0.001690045    1.828    0.453
       146 -10.2761    167.8677     51.8152   7.9612191810e+00   3.6007800755e+01    0.3307975    0.1520463  55.80  0.001363506    2.335    0.572
       147 -10.9193    249.4448     49.0197   3.5989643031e+02   2.1102385971e+01    0.3167407     0.165528 -48.69  0.001523152    1.389    0.280
       148 -11.0167    150.2234     22.4828   1.9499825806e+00   4.3821635315e+01    0.4325904    0.2665963  42.02  0.001173809    2.268    0.559
       149 -10.5898    164.7974     31.0886   2.7902319770e+00   3.9418424962e+01    0.7825508    0.2771525 -45.93  0.003326097    2.410    0.585
       150  -8.5803    148.0273     35.2429   5.9694712320e+00   4.2807745278e+01    0.1952058    0.1586152 -48.24  0.001143042    1.194    0.162
       151 -11.9615    159.0385     26.6817   2.1931297263e+00   4.1266177628e+01    0.3022518    0.2398021 -16.80  0.001408814    1.628    0.386
       152 -10.4987    154.0054     25.8400   2.5033055859e+00   4.2540602671e+01     0.289222    0.1840397 -67.46  0.001030178    1.472    0.321
       153  99.0000    143.0978     45.9378   9.8615271436e+00   4.2541592034e+01    0.7339147    0.4776188  45.28  0.003268172    1.866    0.464
       154 -10.9988    156.4958     41.5284   6.6528851224e+00   3.9994531080e+01    0.2614422    0.2253175  77.80 0.0007455014    1.168    0.144
       155 -11.7255    160.8443     40.5618   5.8295431318e+00   3.9122003776e+01    0.5358499    0.3354568  46.11  0.002664431    2.061    0.515
       156 -11.3444    161.4809     35.9402   4.4834190910e+00   3.9573405240e+01    0.2808259    0.2577891 -58.97  0.001023257    1.157    0.136
       157 -11.1929    157.8290     36.1333   4.9729786528e+00   4.0390024146e+01    0.2915687    0.1894832  72.92 0.0007622268    1.489    0.328
       158 -11.7577    149.5259     42.0226   7.7453258899e+00   4.1557936610e+01    0.6680475    0.2954634 -60.86  0.002565793    2.867    0.651
       159 -11.7446    152.0046     40.0039   6.8187351887e+00   4.1245215364e+01    0.4079617    0.2627982 -66.44  0.001131961    1.541    0.351
       160 -10.7051    101.5813     46.4833   1.8479472166e+01   5.2661199365e+01    0.5124767    0.1688421  61.20  0.001461298    3.133    0.681
       161 -10.5448     93.9112     42.2894   1.8951675095e+01   5.5213379831e+01    0.2529219    0.2484944 -56.29 0.0006248005    1.126    0.112
       162  -9.7680     97.3674     42.7256   1.8179789651e+01   5.4290975563e+01    0.2555074    0.1704925  83.17 0.0006771337    1.774    0.436
       163 -10.4503    238.8933     44.9825   3.5980463711e+02   2.3250340155e+01    0.1892038     0.121861 -42.51 0.0003220098    1.186    0.157
       164 -10.5490    241.5105     41.5059   3.5896172058e+02   2.3233339287e+01    0.3285357    0.1103226 -44.92  0.001755494    2.027    0.507
       165 -11.5737    247.2760     41.7084   3.5865066436e+02   2.2290991489e+01    0.3546339    0.1891149 -53.60  0.001598151    1.439    0.305
       166 -10.1859    250.3401     39.2955   3.5801926205e+02   2.2088270835e+01     0.156898    0.1236661 -48.28 0.0006646922    1.150    0.131
       167  -9.2910    109.6825     43.7144   1.5502729181e+01   5.1075045984e+01    0.1424888    0.1091746  35.24 0.0006824062    1.588    0.370
       168  -9.9813    105.5256     43.1218   1.6264255202e+01   5.2201089903e+01     0.304547    0.1791952  76.15  0.001306148    1.923    0.480
       169 -10.1158    124.0425     39.2919   1.1019645146e+01   4.8128557127e+01    0.2013821    0.1685694  81.96 0.0004141036    1.091    0.083
       170 -12.0164     92.7895     33.1209   1.5612739781e+01   5.6840857702e+01    0.5683626    0.3440888  36.03  0.001104114    2.107    0.525
       171 -10.5521     87.5247     34.4836   1.7612834671e+01   5.7961695102e+01    0.2678653    0.2106655 -51.49  0.001414327    1.367    0.268
       172  -9.2316    106.4917     35.9652   1.3407172854e+01   5.2994821303e+01    0.1743023    0.1249251  14.99  0.000798032    2.158    0.537
       173 -10.9299    131.7031     33.7651   7.8938087520e+00   4.6965728730e+01    0.2847449    0.1869113 -57.10 0.0003943588    1.496    0.332
       174 -11.1442    239.7723     31.4114   3.5710839032e+02   2.4667841777e+01    0.3541501    0.2177902 -42.07 0.0004739264    1.240    0.194
       175  -9.6008    112.6358     31.9633   1.0652158448e+01   5.1979647752e+01    0.4211459      0.21618  45.88  0.001781237    2.238    0.553
       176  -8.5559    114.3397     28.2985   9.0044549018e+00   5.2014261177e+01    0.1880361    0.1260622  55.09 0.0007808795    1.468    0.319
       177 -11.0148    148.9541    103.6936   2.4648172218e+01   3.1405661411e+01    0.2008877    0.1918243  74.24  0.001161093    1.091    0.084
       178 -10.5601    144.3649    103.0208   2.5453839458e+01   3.2481444486e+01    0.3255185    0.3033612  12.72 0.0009820377    1.208    0.172
       179 -13.8045    122.2600    100.5720   3.0042428222e+01   3.7643822113e+01     1.951512    0.8362947 -46.99  0.007175236    2.321    0.569
       180  -9.7425    121.9752     32.9455   9.2520640573e+00   4.9496594461e+01    0.2000958    0.1757102 -87.90 0.0003926339    1.009    0.009
       181 -12.0121     97.2755     22.2763   1.0123733955e+01   5.7094334481e+01    0.2514668    0.2387767  83.48 0.0003893133    1.100    0.091
       182  -9.1889    102.4309     15.4817   6.3564764458e+00   5.6527967527e+01     0.207484    0.1339334 -25.85 0.0009755646    1.795    0.443
       183  -9.9334    101.4614     19.4849   8.1321225468e+00   5.6343059009e+01    0.2004075    0.1414059 -29.59 0.0005217323    1.603    0.376
       184 -11.7694    103.4964     29.5604   1.1648879688e+01   5.4610358267e+01    0.4017567    0.3002467  73.71 6.685677e-05    1.221    0.181
       185 -10.5158    102.0133     23.4250   9.5785149673e+00   5.5747671323e+01    0.3177397    0.2027774 -29.88  0.001033025    1.760    0.432
       186 -10.0738    138.1816     30.0262   5.7387342978e+00   4.5842417151e+01    0.1964289     0.152421  17.25  0.001040957    1.919    0.479
       187 -10.1438     80.3325     30.4393   1.8008777295e+01   6.0312746540e+01    0.1998305    0.1303194  60.03 0.0003232312    1.382    0.277
       188 -10.7484     85.4784     28.9998   1.5870381522e+01   5.9234496087e+01    0.4755499    0.2150995  55.10  0.001365888    1.939    0.484
       189 -10.6175     90.3633     27.7910   1.4044132126e+01   5.8168188833e+01    0.2318116    0.2018526  66.71 0.0005428405    1.034    0.033
       190  -8.9263    120.4398     28.4071   7.9575550763e+00   5.0457250190e+01    0.1408628    0.1194917 -85.23 0.0001306864    1.059    0.055
       191 -11.0824    134.5633     25.9100   4.9441485744e+00   4.7228602978e+01    0.3789895    0.2672474 -57.39  0.001481646    1.339    0.253
       192 -11.2949    134.2811     20.8907   3.3729817358e+00   4.7874264707e+01    0.4455895    0.2318562  88.67  0.002028773    1.991    0.498
       193 -10.1947    176.0300     25.1336   1.3587839804e-01   3.7614168735e+01    0.3941376    0.1460327 -62.52  0.001553586    3.143    0.682
       194 -11.8156    137.3947     81.7281   2.1312108358e+01   3.8025840417e+01    0.9410238    0.5867149  71.80  0.003700792    1.981    0.495
       195 -11.1312    124.1516     23.9065   5.8062345750e+00   5.0060567035e+01    0.3590606    0.1877049  73.08  0.001198799    1.757    0.431
       196 -11.4956    141.1343     96.6308   2.4518713062e+01   3.4398573538e+01    0.4309624    0.3433142  83.35 0.0009499617    1.474    0.322
       197  -9.8539    200.5177     15.5720   3.5604854681e+02   3.3546510055e+01    0.1855141    0.1272914 -62.23 9.455316e-05    1.142    0.124
       198 -10.0755    180.2298     20.3814   3.5858537060e+02   3.7235289443e+01    0.2237592    0.1432865 -61.16  0.001328247    1.308    0.235
       199 -11.3471    162.0914     20.1904   9.0196267876e-02   4.1299244040e+01    0.3566243     0.225748 -83.41 0.0007560492    1.462    0.316
       200  -8.9879    170.3895     19.2799   3.5910496973e+02   3.9517624559e+01    0.1196836   0.08950188  48.95 0.0007000744    1.739    0.425
       201 -13.8167    130.8111     95.5685   2.6585008728e+01   3.6827392021e+01     1.036947    0.7653789  55.14  0.003535846    1.389    0.280
       202 -11.9512    132.5848     87.2194   2.3896481890e+01   3.8071722578e+01    0.7009206    0.3016437  47.26  0.002348283    2.409    0.585
       203 -12.5059    125.7072     81.8552   2.3981040615e+01   4.0645777238e+01     1.039884    0.5788141  23.95  0.003052674    4.911    0.796
       204 -11.2833    128.6019     75.9354   2.1586991827e+01   4.1091006350e+01    0.4343288    0.3152616  48.67 0.0009808226    1.426    0.299
       205 -11.5056    148.1392     83.9176   1.9719604167e+01   3.5246509181e+01    0.4001581    0.3154176 -63.58  0.001004184    1.283    0.221
       206 -11.7496    147.1087     79.0709   1.8615373553e+01   3.6330810247e+01    0.3831093    0.2602257 -43.34 0.0009262601    1.402    0.287
       207 -10.9832    215.6218    100.4576   1.3188893916e+01   1.9617529658e+01    0.3993338    0.1874996 -25.55  0.001759551    2.841    0.648
       208 -10.5477    160.2070     13.9716   3.5854558314e+02   4.2398720254e+01     0.201157    0.1511824 -88.87 0.0003019327    1.174    0.148
       209 -10.8528    165.7079    101.6597   2.0898134768e+01   2.8407708462e+01    0.2103634    0.1943304 -17.02 0.0005347651    1.183    0.155
       210  -9.4061    187.6130     13.3012   3.5632177612e+02   3.6421941325e+01    0.1351755    0.0656138 -62.18 0.0007016571    1.790    0.441
       211  -9.5669    107.3204     13.3611   4.6756017081e+00   5.5490696133e+01    0.1869212    0.1414707  13.59 0.0007394055    1.837    0.455
       212 -11.5868    169.6329     97.1730   1.9133980362e+01   2.8423344504e+01    0.5637845    0.3217085 -36.44  0.002692374    1.679    0.404
       213 -11.1809     82.5478     99.5731   4.1878624534e+01   4.6117073202e+01    0.5221854    0.3635063 -77.40  0.002191165    1.901    0.474
       214 -10.3590     87.3655     98.1646   3.9810776302e+01   4.5500971520e+01    0.4093523    0.3192996  32.84  0.001049561    1.318    0.241
       215 -12.1641    182.8360     96.3135   1.6785608702e+01   2.6015256203e+01    0.5742192    0.4451136  -6.34  0.003191296    1.745    0.427
       216 -13.8256      7.1426     67.6455   7.0111488357e+01   6.4906918012e+01     1.181677    0.8881049 -66.51  0.002300446    1.287    0.223
       217  -9.7407    149.3327     93.6771   2.2038754145e+01   3.3213837931e+01    0.2204112    0.1365489 -55.98 0.0009995981    1.715    0.417
       218  -9.6498    102.4684     10.5009   4.3665169949e+00   5.7019257982e+01    0.1373066    0.1171348  69.95 -2.516385e-05    1.097    0.088
       219 -11.7971    153.8294     99.8486   2.2702475407e+01   3.1130779927e+01    0.3498691    0.2441337 -50.59 0.0009726398    1.377    0.274
       220 -10.9176    151.0029     97.2151   2.2605459152e+01   3.2205779806e+01    0.3175085    0.2601284 -24.46   0.00122433    1.367    0.269
       221 -11.5629    250.1617     97.6829   8.9342441708e+00   1.4860636331e+01    0.2761175    0.1379226 -39.58 0.0005836999    1.458    0.314
       222 -11.0918    250.2767     93.4400   8.1406000020e+00   1.5405803582e+01    0.3579803    0.1473695 -45.83  0.001631914    1.912    0.477
       223 -13.0537    102.6608     96.5889   3.4435980609e+01   4.2695185306e+01     1.051251    0.6641001 -29.57 0.0008316983    2.094    0.522
       224 -11.8155     95.3215     90.0447   3.4849782232e+01   4.5718300050e+01    0.6524432    0.4702317  45.42  0.001185952    1.356    0.263
       225 -12.6143    114.0653     86.5410   2.8294325803e+01   4.2349627643e+01    0.9668075    0.3930672  48.27  0.003448247    2.436    0.589
       226 -12.7316    114.6676     80.6907   2.6404995799e+01   4.3389889529e+01    0.7668151    0.4781137 -46.72  0.002345602    1.612    0.380
       227 -11.9856    199.6248     96.4064   1.4387672449e+01   2.2935350998e+01    0.3183566    0.2255563 -52.78  0.001892956    1.304    0.233
       228 -10.6886     11.7794     97.9698   7.2459137066e+01   5.6365336404e+01    0.2356621    0.1841896 -47.90 0.0008159516    1.252    0.202
       229 -11.3061    160.0581     96.0220   2.0561725097e+01   3.0552903953e+01    0.3122196    0.2271942  63.67 0.0005561018    1.528    0.345
       230 -10.2633     16.9407     97.0076   6.9788783787e+01   5.6252340400e+01    0.2165678    0.2079227 -47.93 0.0003147667    1.025    0.025
       231 -12.0334     45.9628     92.8819   5.5008841883e+01   5.4126331529e+01    0.5929603    0.2976363  29.25  0.002310478    1.947    0.486
       232 -13.8273    175.5482     85.6969   1.5411535958e+01   2.9184592901e+01     2.141794     1.321642   6.12   0.00707882    5.392    0.815
       233 -14.4768    232.7630     62.5292   3.7276320589e+00   2.2088236976e+01     2.089612      1.02195  51.56    0.0117532    2.827    0.646
       234 -14.5944    197.1383     81.3455   1.1382891737e+01   2.5698630753e+01     2.862746     1.180717  60.82   0.01109919    2.844    0.648
       235 -11.1597    180.4771    244.1823   4.4183869824e+01   1.9776591804e+00    0.2021164    0.1295819  13.44 0.0007756469    1.265    0.209
       236 -10.2082    226.7039    241.3496   3.5906234908e+01  -1.8215437984e+00   0.08496835   0.07473879 -12.50 0.0003927598    1.681    0.405
       237 -12.7163    214.4521     44.1743   1.4002327029e+00   2.7581370919e+01    0.5296131    0.4935857 -32.59  0.001476549    1.355    0.262
       238 -12.3085    175.9619     70.4952   1.1634840541e+01   3.1515797332e+01    0.9316001    0.4992168  86.23  0.003890506    2.968    0.663
       239 -12.6556    164.7122     65.3281   1.1947209142e+01   3.4705996711e+01     1.233265    0.5088096  52.54   0.00512363    2.642    0.622
       240  -9.8441    218.6723    239.9748   3.6985913161e+01  -9.7851309788e-01    0.1477939    0.1024993 -14.97 0.0005915418    1.098    0.089
       241 -10.2619     16.4382    238.4484   8.0873962231e+01   2.0035618358e+01    0.1236489   0.09776266  38.59 0.0001079752    1.017    0.017
       242  -9.6237    236.7296    146.0311   1.9248493581e+01   9.9188054959e+00    0.1559851    0.1120777 -30.78  0.000334235    1.059    0.056
       243 -12.3129    162.1356     83.3848   1.7022235769e+01   3.2329988476e+01    0.5034027    0.4387194  83.60  0.002956417    1.193    0.161
       244 -13.8158    202.6353     69.2392   8.0219703511e+00   2.6447096114e+01    0.9244649    0.5123844 -57.85  0.004922262    1.788    0.441
       245  -9.6592    250.3558    132.0314   1.5122534111e+01   1.0202604918e+01    0.1503651    0.1020052 -35.06  0.000382641    1.087    0.080
