#   1 NUMBER                 Running object number                                     
#   2 MAG_AUTO               Kron-like elliptical aperture magnitude                    [mag]
#   3 X_IMAGE                Object position along x                                    [pixel]
#   4 Y_IMAGE                Object position along y                                    [pixel]
#   5 X_WORLD                Barycenter position along world x axis                     [deg]
#   6 Y_WORLD                Barycenter position along world y axis                     [deg]
#   7 A_WORLD                Profile RMS along major axis (world units)                 [deg]
#   8 B_WORLD                Profile RMS along minor axis (world units)                 [deg]
#   9 THETA_WORLD            Position angle (CCW/world-x)                               [deg]
#  10 FWHM_WORLD             FWHM assuming a gaussian core                              [deg]
#  11 ELONGATION             A_IMAGE/B_IMAGE                                           
#  12 ELLIPTICITY            1 - B_IMAGE/A_IMAGE                                       
         1 -14.8298    159.2930     42.0587   8.4075934371e+01   4.0193578868e+01     1.389676     1.048123 -18.07  0.004065248    1.298    0.230
         2 -14.4806    171.6633      8.8319   7.0442068662e+01   4.0806002333e+01     1.094694    0.9908252  13.60  0.003994897    1.122    0.109
         3 -11.4043    189.9595     14.7092   7.0247733448e+01   3.5596961496e+01    0.1945102    0.1861505  83.26 0.0006844151    1.088    0.081
         4 -12.8626    188.3965    249.8387   1.2371913050e+02   3.8231518987e+00    0.5058104    0.1262456  33.55  0.002314294    3.098    0.677
         5 -11.8737    176.4570    249.9102   1.2571215716e+02   5.2897151578e+00    0.2530913    0.1371732  12.25  0.001265534    2.212    0.548
         6 -19.9846     79.6628    193.7191   1.3790733047e+02   2.5685364309e+01      12.0955     5.756097 -68.28   0.06549302    2.392    0.582
         7 -12.2444     22.0007    242.5179   1.5169962410e+02   2.3506384882e+01    0.1770595    0.1105456  83.92  0.001462076    1.557    0.358
         8 -10.9641    154.8615    240.0812   1.2830440833e+02   9.1166556768e+00    0.1602974    0.1191073  41.37 0.0007562725    1.288    0.224
         9 -14.3769    207.0559    179.3387   1.1003226102e+02   9.3927009526e+00    0.7478083    0.6108432   1.58  0.004129896    1.096    0.088
        10 -13.7736    196.7821    172.5508   1.1067508912e+02   1.1907893463e+01    0.6487576    0.4227587 -39.01  0.002673993    1.783    0.439
        11 -12.2743    148.1493    189.0853   1.2300611173e+02   1.7077126800e+01    0.3540429    0.1615693  26.43  0.001587859    2.452    0.592
        12 -12.3625     34.2387    187.2218   1.4695491622e+02   3.1737754530e+01    0.4651761    0.3213476  89.71  0.003288318    1.359    0.264
        13 -12.1345     27.8069    179.8032   1.4787356365e+02   3.3742221591e+01    0.2832232    0.2315498 -36.93  0.001888243    1.716    0.417
        14 -11.8354    124.2433    185.5829   1.2747406498e+02   2.1185902530e+01    0.3160561    0.1872398  52.07  0.001694469    1.832    0.454
        15 -12.4787     30.8312    182.4548   1.4738588132e+02   3.2959623263e+01    0.2330452    0.1953503  63.83 0.0003647612    1.059    0.056
        16 -10.5061     13.6923    238.7297   1.5295281575e+02   2.4777873832e+01    0.1020295   0.06662463  73.25 0.0003574657    1.311    0.237
        17 -12.7826    157.3065    178.4848   1.1947197536e+02   1.7336243239e+01    0.3010867     0.222616 -41.94  0.001161598    1.538    0.350
        18 -13.5159    174.9105    193.5476   1.1841400548e+02   1.2389462080e+01    0.4169617     0.357359 -55.74  0.001932698    1.706    0.414
        19 -14.5573    146.2200    170.6309   1.2049016136e+02   2.0381813963e+01    0.7835743    0.5351965 -54.74  0.004346335    1.815    0.449
        20 -13.3739    123.4425    166.2789   1.2479779332e+02   2.4734813581e+01      0.60658    0.3788793 -76.58  0.001484115    2.720    0.632
        21 -13.9101    138.4628    172.3605   1.2244504402e+02   2.1313695086e+01    0.7887302    0.5566745  83.46  0.003905622    2.627    0.619
        22 -13.7053    131.3393    171.1706   1.2380967430e+02   2.2631031010e+01    0.7412759    0.3373503  48.61  0.003249234    2.431    0.589
        23 -12.0466    168.4500    175.8681   1.1676686039e+02   1.5973544620e+01     0.232222    0.1610467  31.97 0.0005609667    1.259    0.206
        24 -13.8645    178.0970    171.6237   1.1409464576e+02   1.5058973293e+01    0.6100248    0.4075271 -37.87  0.003475969    1.645    0.392
        25 -11.9594     25.9558    172.6745   1.4785490012e+02   3.5309590457e+01     0.298041    0.1950698  48.54  0.001275322    1.318    0.241
        26 -12.0951    186.3057    169.4089   1.1208479218e+02   1.4047297860e+01    0.2472302    0.1636611  24.32  0.001386076    1.366    0.268
        27 -11.9262    202.0767    165.7106   1.0840396196e+02   1.1994992907e+01    0.3009401    0.2766718 -87.84  0.001454817    1.876    0.467
        28 -11.5546     20.3393    166.7457   1.4875524000e+02   3.6974906097e+01    0.1861485     0.165324  54.40 0.0006747339    1.184    0.156
        29 -11.5189    223.7683    163.7075   1.0415828388e+02   8.7789091048e+00    0.2187809    0.1788715 -21.08  0.000565125    1.327    0.246
        30 -13.0578    196.4469    236.2201   1.2067850116e+02   4.2186004303e+00    0.2856176    0.1537484 -18.29  0.001312487    2.278    0.561
        31 -10.6990     14.4552    162.4946   1.4984640201e+02   3.8307560405e+01    0.1515177    0.1424186  52.26 0.0006255563    1.260    0.206
        32 -10.9587     12.2158    156.6611   1.5004967445e+02   3.9685629079e+01     0.255932    0.1484609 -35.58  0.001429365    2.741    0.635
        33 -10.6476     23.0462    156.2015   1.4748350773e+02   3.8943524833e+01    0.1582828    0.1451855 -78.16 0.0005483277    1.225    0.183
        34 -13.9410    134.0825    145.9291   1.1878309537e+02   2.6837428869e+01     1.171046    0.3454753 -54.06  0.003442904    5.143    0.806
        35 -11.7266     17.7385    153.4362   1.4856756079e+02   3.9951180000e+01    0.2069001    0.1547386 -74.71 0.0006293405    1.283    0.220
        36 -10.6903      7.9547    239.4516   1.5391114668e+02   2.5136519370e+01     0.115543   0.08114456  68.99  0.000519078    1.177    0.151
        37 -14.7533    145.5126    146.0317   1.1615925761e+02   2.4845182482e+01    0.9021595    0.6907817 -85.46  0.004515387    2.147    0.534
        38 -10.8148      7.5320    149.7217   1.5078645195e+02   4.1482606496e+01    0.2193989    0.1540883 -49.66  0.001036489    1.742    0.426
        39 -12.6800    174.5035    148.3892   1.1034170988e+02   1.9303595231e+01    0.3530604    0.3103556 -66.05   0.00170278    1.627    0.385
        40 -12.3203     27.4203    145.6112   1.4564929573e+02   4.0863684578e+01    0.2909238    0.2760664 -66.45  0.001228862    1.243    0.195
        41 -11.5400    139.8237    148.9495   1.1802803383e+02   2.5289976577e+01    0.2297134      0.18511  31.87 0.0003292799    1.157    0.136
        42 -10.6007     25.9347    228.6843   1.5054359265e+02   2.5288098430e+01   0.09233429    0.0702364  49.60  0.000326726    1.115    0.103
        43 -11.7407      3.4766    138.6887   1.5120626460e+02   4.4129480646e+01    0.2126755    0.1507915 -45.64  0.001410033    1.749    0.428
        44 -13.5629    136.0000    128.5099   1.1474831814e+02   2.9875556820e+01     1.090291    0.2400882 -49.92  0.002727545    6.099    0.836
        45 -13.4932    154.6836    146.4176   1.1417827941e+02   2.3162030792e+01    0.4261426    0.3477073  55.10  0.001802609    1.455    0.313
        46 -12.9547    199.0886    222.7012   1.1838899819e+02   5.3322398711e+00    0.3834698    0.1434295  35.00  0.001088251    2.114    0.527
        47 -12.8683    160.7263    127.9774   1.0886423747e+02   2.5339746024e+01    0.4069964    0.3381144 -46.01  0.002224521    1.348    0.258
        48 -12.3013     22.4657    220.9067   1.5085776047e+02   2.6844583850e+01     0.183325    0.1393751 -71.40 0.0009739587    1.577    0.366
        49 -11.0683     23.6718    215.2411   1.5041631407e+02   2.7680194721e+01     0.123743    0.1017644  74.06 0.0006569101    1.173    0.148
        50 -11.8379    168.1215    243.6827   1.2641162434e+02   7.0132153588e+00    0.1491516    0.1319249  23.77 0.0003276254    1.289    0.224
        51 -10.0945     15.7754    209.6525   1.5165067036e+02   2.9299347683e+01   0.08437745   0.06906608 -66.45 0.0002087379    1.548    0.354
        52 -12.9922     11.5080    206.1151   1.5231482158e+02   3.0257637799e+01     0.401998    0.2294525  25.40  0.002293312    1.921    0.479
        53 -10.7394    205.5205    110.1845   9.5548255886e+01   1.9432877915e+01    0.2481141    0.1919828  35.43 0.0006631592    1.307    0.235
        54 -10.7007    151.0486    243.7510   1.2937019585e+02   9.1598099020e+00    0.1641905    0.1364259   0.99 0.0004796474    1.331    0.249
        55 -12.2636    210.1327    202.8271   1.1348298409e+02   6.0716947586e+00    0.2183577    0.1520407  -1.57  0.001455679    1.299    0.230
        56 -11.9375     26.9654     98.0090   1.4089342199e+02   5.1983593981e+01    0.3816295    0.2960149 -35.53  0.002332469    1.476    0.322
        57 -11.9322    168.8846    202.6706   1.2094737114e+02   1.2019811197e+01    0.1967528    0.1734853  36.54 0.0001951759    1.283    0.221
        58 -12.8781    138.1186    198.2215   1.2633030032e+02   1.7125615379e+01    0.6016325    0.2820418  51.39  0.002792382    2.698    0.629
        59 -11.8189     47.0744     92.4157   1.3318160281e+02   5.1524730728e+01    0.3151919    0.2410137  14.70   0.00178303    1.564    0.361
        60 -11.2241     41.8215     92.0773   1.3493407061e+02   5.2137803654e+01    0.2666264    0.1695777 -81.53 0.0004887144    1.604    0.376
        61 -10.4915    124.0473     90.5049   1.0833745238e+02   3.9868087765e+01    0.2194011    0.1491798  42.73 0.0004434533    1.511    0.338
        62 -14.2397    167.0755    191.0736   1.1953854362e+02   1.3921286727e+01    0.5656187    0.5275397  48.69  0.003989837    1.375    0.273
        63 -12.9028    180.1272    192.5425   1.1726253658e+02   1.1744525005e+01    0.3114344    0.3082234 -52.33  0.001213953    1.480    0.324
        64 -13.8480    176.7634    188.4237   1.1723796073e+02   1.2826752433e+01    0.6381314    0.3864146 -58.31  0.003101424    3.206    0.688
        65 -14.3306    148.6859     56.5895   9.1327601242e+01   4.0639991125e+01     1.080926     0.852516 -13.81  0.000975319    1.272    0.214
        66 -10.4765    159.9284    246.9820   1.2818512876e+02   7.6692845818e+00    0.1916522    0.1232299 -17.98  0.001327115    2.083    0.520
        67 -13.0382    163.1997     33.3492   8.0305519652e+01   4.0347844447e+01    0.4612553    0.3870918  -8.47 0.0008310112    1.175    0.149
        68 -10.9306     13.4107     59.8449   1.4012000787e+02   6.2231105531e+01    0.1863294    0.1692985  60.73 0.0005042699    1.285    0.222
        69 -13.3627    197.5797    245.9003   1.2172681331e+02   3.0863040014e+00    0.3563878     0.187826  41.79  0.002300706    1.912    0.477
