#   1 NUMBER                 Running object number                                     
#   2 MAG_AUTO               Kron-like elliptical aperture magnitude                    [mag]
#   3 X_IMAGE                Object position along x                                    [pixel]
#   4 Y_IMAGE                Object position along y                                    [pixel]
#   5 X_WORLD                Barycenter position along world x axis                     [deg]
#   6 Y_WORLD                Barycenter position along world y axis                     [deg]
#   7 A_WORLD                Profile RMS along major axis (world units)                 [deg]
#   8 B_WORLD                Profile RMS along minor axis (world units)                 [deg]
#   9 THETA_WORLD            Position angle (CCW/world-x)                               [deg]
#  10 FWHM_WORLD             FWHM assuming a gaussian core                              [deg]
#  11 ELONGATION             A_IMAGE/B_IMAGE                                           
#  12 ELLIPTICITY            1 - B_IMAGE/A_IMAGE                                       
         1 -11.4248     36.3545     21.0084   5.3043955600e+01   7.0201515696e+01    0.1819621    0.1440291 -32.52 0.0004843353    1.106    0.096
         2 -11.4195    114.0391      6.9559   1.8593544763e+01   5.6006647389e+01    0.2014364    0.1931882  53.72 0.0003010262    1.014    0.014
         3 -12.0393    121.0182     12.9675   1.9813445179e+01   5.3625898935e+01    0.2735072    0.2353606  53.92 0.0004582746    1.112    0.101
         4 -12.0425    117.0558     10.8107   1.9673631433e+01   5.4860570264e+01    0.2473479     0.233163  27.05 0.0003227328    1.066    0.062
         5 -10.9705     55.0341     11.0194   3.8266303580e+01   6.8774614666e+01    0.2067118    0.1788888   3.81  0.001291838    1.034    0.033
         6 -12.3338     82.1837      9.0991   2.7349826076e+01   6.3440690300e+01    0.3045858    0.2241496  57.46 0.0009487279    1.372    0.271
         7 -12.8937     89.9114      5.1122   2.3143749203e+01   6.2082812231e+01    0.4850681    0.3340659 -72.54  0.002375999    2.065    0.516
         8 -11.4573    106.2416      4.3429   1.8987092757e+01   5.8206170446e+01    0.2204875    0.1788017   6.16 0.0006936355    1.305    0.234
         9 -11.1248      5.1694      3.3472   6.3367032358e+01   7.6761898065e+01    0.2002695    0.1215875 -39.65 0.0004982727    1.309    0.236
        10 -10.9770    133.8071      2.9618   1.3584781141e+01   5.1275589872e+01    0.2228737    0.1750076  41.83 0.0007035041    1.306    0.234
        11 -11.1129    100.6804      2.0902   1.9107185713e+01   5.9780338105e+01    0.2274608    0.1844329  77.64 0.0006678639    1.302    0.232
        12 -10.5096     49.8035      1.8391   3.4927880228e+01   7.0899850822e+01    0.1588623    0.1433542 -31.75 0.0003743774    1.290    0.225
        13 -10.5155    128.9664      1.2008   1.3604141291e+01   5.2687733019e+01    0.1850901    0.1041873  71.65 0.0003428173    1.681    0.405
        14 -10.1448    190.3091    237.2924   6.2114181169e+01   1.1121412117e+00    0.1123298    0.0726839  12.15 0.0002384633    1.584    0.369
        15 -12.7972    247.1809    248.5407   5.4468975882e+01  -7.3278047065e+00    0.3406119    0.1831902  27.81 0.0009983968    1.457    0.314
        16 -11.8205    237.2490    249.2531   5.6084227215e+01  -6.2326476498e+00    0.2420258    0.1705781  18.56  0.001154642    1.085    0.078
        17 -13.6655    111.7086    234.9135   7.6231376788e+01   1.2625400083e+01    0.3902839    0.2608625  29.66  0.002463363    1.471    0.320
        18 -13.3566    115.4507    244.7007   7.6493996138e+01   1.0599895665e+01    0.4949799    0.2418995 -52.91  0.002887129    2.604    0.616
        19 -13.9428    118.2350    235.9945   7.5104487197e+01   1.1540679918e+01    0.5291775    0.2602885  41.72  0.002886607    1.583    0.368
        20 -11.6388     93.8674    249.3502   8.0857657651e+01   1.2777502860e+01    0.2710908    0.1266905  57.34  0.001502034    2.149    0.535
        21 -10.6557     90.1364    250.0976   8.1593729860e+01   1.3145418814e+01      0.14916    0.1018956  60.46  0.001049633    1.306    0.234
        22 -10.5921     80.4916    246.5080   8.3072181476e+01   1.4938994925e+01    0.1119173   0.08285672  51.58 0.0003656475    1.003    0.003
        23 -11.7884     85.0591    250.5841   8.2548546875e+01   1.3719582645e+01    0.2038801   0.09268606  41.83 0.0003432463    1.615    0.381
        24 -12.5824     85.4603    246.3707   8.2153682320e+01   1.4327602497e+01    0.2762738     0.176739  57.62 0.0007803326    1.325    0.245
        25 -10.9433     74.4135    243.8176   8.3988066574e+01   1.6136934736e+01    0.3278651    0.2124614   0.28  0.001543585    4.517    0.779
        26 -12.4524     70.0555    248.6575   8.5116798156e+01   1.5894160842e+01    0.2434156    0.2180037  63.79 0.0009579103    1.271    0.213
        27 -12.1067     66.2708    249.6684   8.5862703139e+01   1.6191898326e+01    0.1570318    0.1117499  55.61 0.0004571557    1.049    0.046
        28 -13.2443     67.9099    244.8048   8.5246819756e+01   1.6779604557e+01    0.3589306    0.3308235 -83.28  0.002960603    1.409    0.290
        29 -12.3789     56.5357    250.7171   8.7659291111e+01   1.7177689481e+01    0.2290018    0.1046609  40.72  0.001407328    1.638    0.390
        30 -13.0579     51.7743    250.3339   8.8478580094e+01   1.7789678754e+01      0.35633    0.2186375  26.38  0.002328609    2.009    0.502
        31 -14.4273      8.5901    186.3800   9.3533498554e+01   3.4313084192e+01     1.185813    0.7520031  63.37  0.007878597    1.216    0.178
        32 -16.1723     69.5325    184.1596   7.9757087350e+01   2.7998429665e+01     2.140468     1.890561 -63.03   0.01404497    1.327    0.246
        33 -14.7905     73.8867    204.4434   8.0838955684e+01   2.3261085117e+01     1.209467    0.7832862  -1.82  0.005293845    4.013    0.751
        34 -13.8132     60.1774    204.6604   8.3755389221e+01   2.4992146435e+01     0.752924    0.4529575  28.90  0.004275594    1.872    0.466
        35 -13.7160     51.6502    189.8693   8.4349940348e+01   2.9068862411e+01    0.9491044      0.45318 -49.51  0.004435098    3.002    0.667
        36 -13.4443     49.7629    183.2026   8.4194150887e+01   3.0720649394e+01    0.5104092    0.4344819 -24.51  0.003262341    1.782    0.439
        37 -13.8268     26.7730    234.1668   9.2143814244e+01   2.3270070338e+01    0.5074067    0.2064607 -89.73  0.002859018    2.502    0.600
        38 -14.9198     27.0118    247.6651   9.2674154872e+01   2.0933544815e+01    0.9681421    0.4315081  25.31  0.005141884    3.232    0.691
        39 -17.3867     11.2720    234.0120   9.4912732300e+01   2.4845388997e+01     2.362109     1.441579 -87.93    0.0173789    1.546    0.353
        40 -12.9971    102.8100    234.1435   7.7851698692e+01   1.3982889583e+01    0.3665882    0.2514506 -58.93  0.002393442    1.792    0.442
        41 -13.4782    113.9680    218.4194   7.4029545118e+01   1.5021801339e+01    0.3193061    0.2563452 -53.11  0.001089516    1.508    0.337
        42 -11.4250    100.4799    227.0647   7.7615706760e+01   1.5479218442e+01    0.2099237    0.1288223  48.58  0.000615717    1.322    0.244
        43 -13.8529    114.5982    226.8251   7.4834156281e+01   1.3521484461e+01    0.3919027    0.3421142   0.77  0.001368299    1.488    0.328
        44 -11.4624     57.0000    233.0038   8.6484849334e+01   2.0096482668e+01    0.2241734    0.1387605  85.53  0.001157798    1.638    0.389
        45 -12.6772     62.6591    232.1077   8.5353071323e+01   1.9569221913e+01    0.4101112    0.3549059  89.82  0.003181542    1.306    0.234
        46 -11.1830    214.1145    233.5925   5.7556767508e+01  -1.6939522981e+00    0.1576272    0.1333572  -0.74 0.0003262893    1.228    0.186
        47 -11.8036     72.1736    234.0824   8.3689368824e+01   1.8044814489e+01    0.3526311    0.1278767  37.93  0.001578328    2.181    0.542
        48 -12.1635     71.4314    229.2698   8.3463808334e+01   1.8973068259e+01    0.5585169    0.2999991  54.25  0.003358347    1.524    0.344
        49 -13.3182    219.8948    230.2228   5.6108251783e+01  -2.0844034740e+00    0.2773104    0.2016708  23.60 0.0006715444    1.121    0.108
        50 -11.7440    133.4593    230.4978   7.1612776017e+01   1.0209262455e+01    0.1511261    0.1107432 -38.94 -1.028092e-05    1.745    0.427
        51 -12.2817    126.2842    231.5676   7.3100868431e+01   1.1082753210e+01    0.2170342    0.1584525   3.57 0.0006678288    1.992    0.498
        52 -11.9037    127.5130    227.4917   7.2404587832e+01   1.1543596123e+01    0.1746754     0.119679 -55.18 0.0008825786    1.792    0.442
        53 -11.0558    194.2362    230.3629   6.0470296524e+01   1.4141931806e+00    0.1819411    0.1587263  -2.68  0.001377941    1.218    0.179
        54 -10.2992    181.6537    231.6848   6.2867817193e+01   3.0324351087e+00    0.1186814    0.0766707  11.27 0.0007047727    1.719    0.418
        55 -13.1614    106.0891    227.0845   7.6521364543e+01   1.4689585870e+01    0.3256922    0.2202794  43.33 0.0004772802    1.185    0.156
        56 -11.3023    178.0530    228.3951   6.3059841907e+01   3.9824675292e+00    0.1698046    0.1392644   7.89 0.0004341288    1.183    0.155
        57 -11.7669    149.8209    229.2170   6.8365531208e+01   8.0055105614e+00    0.1765468    0.1407592  46.82 0.0006879817    1.197    0.164
        58 -10.6208     84.0466    229.5077   8.1042409728e+01   1.7295408377e+01    0.1760447   0.09254559  40.06 0.0005236259    1.534    0.348
        59 -12.2276    231.9498    227.2362   5.3704404912e+01  -3.3368454716e+00    0.2329087    0.1714585 -15.40  0.001723799    1.315    0.239
        60 -12.2058    248.6103    226.0639   5.0918718985e+01  -5.3174948597e+00    0.2283101     0.142265 -28.96 0.0009686674    1.700    0.412
        61 -10.6806    137.3340    226.6585   7.0418337244e+01   1.0231636060e+01    0.1210341   0.08145954  61.04 0.0007051015    1.755    0.430
        62 -11.6177     95.8594    225.2841   7.8348569281e+01   1.6424240374e+01    0.1958408    0.1451007  74.90  0.001092538    1.412    0.292
        63 -11.0572     91.5301    225.9175   7.9260141731e+01   1.6909439382e+01    0.1549642    0.1128961 -74.13 0.0005989413    1.575    0.365
        64 -10.5506    222.4472    225.4773   5.4975658370e+01  -1.8898318450e+00    0.1120254   0.08612952  13.01 9.045824e-05    1.016    0.016
        65 -11.1676     59.0128    230.2335   8.5917913023e+01   2.0342064249e+01    0.1597805    0.1296304  59.42 0.0002778728    1.101    0.092
        66 -11.3285    212.5641    223.4584   5.6313273137e+01  -3.0832660854e-01    0.2529305    0.1590498  -2.40  0.001008803    1.732    0.422
        67 -12.3247    159.7488    222.1236   6.5573417754e+01   7.5681732268e+00    0.3380886    0.1814977  36.26  0.000690951    1.544    0.352
        68 -13.3103    125.0614    221.4652   7.2180605748e+01   1.2874546144e+01    0.4009496    0.2249212  39.64  0.000695966    1.459    0.315
        69 -11.4807    129.7557    218.3401   7.0878109727e+01   1.2686619027e+01    0.1966161    0.1509169 -76.65 0.0008398541    1.676    0.403
        70 -10.6933     55.4757    228.1301   8.6452410239e+01   2.1141325804e+01    0.1448945    0.1007609 -83.69 0.0008778565    1.492    0.330
        71 -11.7769    223.3232    220.3734   5.4045384182e+01  -1.4229125471e+00    0.1912279    0.1561649  11.33 0.0003285033    1.116    0.104
        72 -10.5298    194.7981    220.3502   5.8912220807e+01   2.6036089417e+00    0.1664973   0.08987257  29.44 0.0004298922    1.615    0.381
        73 -11.3954    189.7551    220.0779   5.9767782204e+01   3.3770663330e+00    0.1617497    0.1312854  15.58 0.0003476363    1.058    0.054
        74 -11.8568    173.1105    219.1089   6.2656140909e+01   5.9899861616e+00     0.218202    0.1775106 -45.25  0.001428976    1.525    0.344
        75 -11.7028    231.1747    218.8307   5.2523430013e+01  -2.3043979345e+00    0.1601331    0.1340314  14.08 0.0005664134    1.221    0.181
        76 -13.7686    109.8846    214.8949   7.4452485765e+01   1.6232818353e+01     0.460117    0.2788998 -39.55  0.002490189    2.378    0.579
        77 -11.9550    145.6834    216.1856   6.7471062258e+01   1.0612000198e+01    0.2925699    0.2704755 -34.29  0.002056916    1.279    0.218
        78 -13.1550    141.3402    210.7128   6.7590015601e+01   1.2167075655e+01    0.4187724    0.2744117 -69.83 0.0006758958    2.224    0.550
        79 -10.6475     64.7088    225.0229   8.4445568826e+01   2.0573965396e+01    0.1600083    0.1383734   4.06 0.0006881341    1.757    0.431
        80 -10.6381    225.5537    216.4873   5.3066827751e+01  -1.2750352176e+00    0.1154902   0.08774295   9.76 6.963755e-05    1.040    0.039
        81 -13.5713    119.3393    210.1835   7.1967122006e+01   1.5648365769e+01    0.3270778    0.2597941 -43.48  0.001670484    1.544    0.352
        82 -11.5120    155.3357    213.1264   6.5173772978e+01   9.6019053415e+00    0.3017821    0.2324932 -88.70  0.001795114    2.034    0.508
        83 -12.8535    125.1420    212.9890   7.1136344372e+01   1.4280887261e+01    0.2273037    0.2166873 -71.87 0.0003560484    1.231    0.188
        84 -12.3580    248.2128    212.5194   4.8820101420e+01  -3.8394284160e+00    0.2779137    0.1564135  21.59  0.001329735    1.575    0.365
        85 -12.6917     97.5452    211.5591   7.6608953476e+01   1.8624738155e+01    0.5070505    0.3187361  89.40  0.002810947    2.037    0.509
        86 -12.9032    101.0128    207.6547   7.5458263578e+01   1.8841179266e+01    0.5093271    0.2942637  18.89   0.00236991    2.773    0.639
        87 -11.1472      6.4457    203.5091   9.4703357447e+01   3.1004659588e+01    0.3692716    0.1885524 -87.42    0.0022965    1.704    0.413
        88 -13.2324      2.8650    211.6400   9.5690893409e+01   2.9740625091e+01    0.3328369    0.2266782  50.98  0.002154316    1.223    0.182
        89 -12.8795      2.8885    207.0155   9.5527292696e+01   3.0632475396e+01    0.5155862    0.1404325  40.99  0.002323346    2.491    0.599
        90 -11.7475     97.4791    235.0820   7.8956100433e+01   1.4557990736e+01    0.2520641    0.2124618  -6.97  0.001160942    1.766    0.434
        91 -10.4833    210.3036    211.6824   5.4863907981e+01   1.4616319493e+00    0.1010291   0.09271606  55.64 0.0003156876    1.625    0.385
        92 -10.8135    187.8655    211.6097   5.8826601736e+01   4.8087661342e+00     0.162691   0.09901094  44.13  0.000365673    1.624    0.384
        93 -11.7363    229.5896    208.8168   5.1163836885e+01  -9.2640915556e-01    0.3119734     0.206418  -9.71  0.002022264    1.431    0.301
        94 -11.8324     26.3670    208.5050   9.0973433807e+01   2.8093348454e+01    0.2433161    0.1594522  70.47  0.001363247    1.204    0.169
        95 -10.7687     37.9864    209.3718   8.8684844278e+01   2.6679955110e+01    0.1631828   0.09139597  40.45 0.0004715501    1.549    0.355
        96 -11.0292    181.8149    208.0125   5.9381553509e+01   6.2479786541e+00    0.2081688    0.1329881  -3.70  0.001100078    2.134    0.531
        97 -10.9346    160.2229    206.3398   6.3240287500e+01   9.8976355123e+00    0.2124401    0.1633763 -88.36  0.001212698    2.100    0.524
        98 -12.6244    123.6775    205.5725   7.0490410941e+01   1.5796644458e+01      0.23891    0.2008048 -27.81 0.0003287287    1.509    0.337
        99 -11.0986      1.4076    202.5406   9.5658630408e+01   3.1640857913e+01    0.1509271   0.08439041  86.73 0.0001246757    1.479    0.324
       100 -12.6979     42.6689    205.7397   8.7490584509e+01   2.6870539111e+01    0.2626457    0.1764159  63.63 0.0006387879    1.190    0.160
       101 -11.6249     38.2754    203.8079   8.8270479194e+01   2.7749683052e+01    0.3276523    0.1240007  57.28 0.0009731643    2.316    0.568
       102 -11.3631    205.0392    206.0885   5.4875106613e+01   2.9654479425e+00      0.17469    0.1417625  14.32 0.0002754369    1.011    0.011
       103 -12.5563     31.6773    203.8226   8.9632541091e+01   2.8464439822e+01    0.4175152    0.1784188  76.51  0.001334435    2.409    0.585
       104 -12.5381    145.6389    202.5809   6.5583925270e+01   1.2842080676e+01    0.3857002    0.1994676 -50.29  0.001946026    2.246    0.555
       105 -11.7050     49.0103    203.0809   8.5979491585e+01   2.6665743034e+01    0.2167003    0.1385231  47.59 0.0003608246    1.300    0.231
       106 -10.1607    180.5311    201.4814   5.8588688659e+01   7.4103638508e+00    0.1261079    0.1050538  17.97 0.0002775359    1.064    0.060
       107 -11.0347    212.1272    199.8673   5.2603839744e+01   2.7273422005e+00    0.1698626    0.1585642  22.11 0.0008948615    1.325    0.245
       108 -13.5767    122.8900    196.2021   6.9398903902e+01   1.7619600654e+01    0.4501683    0.2357306  45.09  0.002239364    1.680    0.405
       109 -11.8396    225.0727    198.5542   5.0180987468e+01   9.7745160121e-01    0.2073229    0.1590124 -38.05  0.001079569    1.600    0.375
       110 -13.5036    139.9844    196.9976   6.5922813350e+01   1.4718071994e+01    0.4335212    0.2975892  40.64  0.002474368    1.273    0.215
       111 -11.3153     61.3843    197.3147   8.2863622379e+01   2.6316668337e+01    0.1956369    0.1317933 -86.27 0.0005998988    1.462    0.316
       112 -12.5288    113.8702    197.1104   7.1447904431e+01   1.8871327538e+01    0.1982578    0.1554334  62.05 0.0004207267    1.245    0.197
       113 -10.5513     30.0176    197.4826   8.9593748984e+01   2.9924720537e+01    0.1567515    0.1011592  39.48 0.0005172575    1.472    0.321
       114 -12.4710    168.0034    195.5480   6.0040413433e+01   1.0359803719e+01    0.2381011    0.1942334  32.28 0.0003343633    1.078    0.072
       115 -11.1930    152.8409    195.8032   6.3106835326e+01   1.2816535417e+01    0.1738132    0.1430657  56.42  0.000502688    1.308    0.236
       116 -12.2629    189.3996    193.5012   5.5604964618e+01   7.1802362662e+00     0.341952     0.306678  36.00  0.001540456    1.211    0.175
       117 -11.9702    193.8214    193.3912   5.4767602761e+01   6.4836454870e+00    0.2847181    0.1852065   7.38 0.0009828083    1.840    0.456
       118 -11.3142    217.4562    193.5232   5.0593895333e+01   2.7658142134e+00    0.2032382    0.1710787   7.44 0.0001268832    1.049    0.047
       119 -11.1430    212.5142    193.0380   5.1361355187e+01   3.5877448796e+00    0.1724683    0.1129499 -31.79 0.0005017901    1.554    0.357
       120 -11.6760    162.6448    193.0742   6.0700500159e+01   1.1650281759e+01    0.3155876    0.1489279  38.19  0.001200664    1.897    0.473
       121 -11.5960     18.5826    177.5355   9.0868166119e+01   3.5298128281e+01    0.4598128    0.3152706 -48.25   0.00229716    2.023    0.506
       122 -11.0708     35.9915    191.5398   8.7925755711e+01   3.0517628430e+01    0.4062167    0.2090826 -63.57  0.002243774    2.061    0.515
       123 -12.4814     25.0383    182.0342   8.9699920870e+01   3.3691948088e+01    0.5074064    0.2036787  52.35  0.002553974    2.064    0.516
       124 -13.3571     31.4206    187.5437   8.8650151290e+01   3.1853209553e+01    0.5359389    0.4947847  -8.18  0.002639235    1.622    0.384
       125 -12.1398     29.0210    181.9632   8.8802455011e+01   3.3302264261e+01    0.6445624    0.3664881 -43.56  0.003286802    2.883    0.653
       126 -11.4111    234.0256    190.8150   4.7355992241e+01   6.5022758874e-01    0.2040926    0.1159792  13.69  0.001090379    1.978    0.494
       127 -13.3217    135.3837    186.4561   6.5295818782e+01   1.7387593756e+01    0.5705876    0.2530917 -39.30  0.002327527    3.055    0.673
       128 -12.4470    131.8139    184.8078   6.5810100813e+01   1.8296248273e+01    0.2098235    0.1870241  51.44 0.0005106605    1.051    0.048
       129 -13.0950     26.4943    192.9136   9.0062307538e+01   3.1234719944e+01     0.393189    0.1823771 -80.84  0.001079862    1.990    0.497
       130 -13.4462    121.3625    186.9939   6.8419724770e+01   1.9608784337e+01    0.4453742     0.330095  25.15  0.001579699    1.491    0.329
       131 -13.9098    118.3449    179.6783   6.7999624107e+01   2.1544763730e+01    0.5048558    0.3670681  45.19  0.002561781    1.243    0.196
       132 -12.5668    111.1981    188.2481   7.0836990697e+01   2.1000733613e+01     0.254384    0.2285913   4.91  0.001148234    1.374    0.272
       133 -12.2336    248.3152    185.8724   4.4212552966e+01  -7.8552382362e-01    0.3031064    0.1929126   9.76  0.001482314    1.526    0.345
       134 -11.6261    244.0166    191.9980   4.5975948659e+01  -9.2295829187e-01    0.1850197    0.1153386   2.73  0.001104668    1.602    0.376
       135 -11.6470    121.1469    182.3949   6.7784048570e+01   2.0541242878e+01    0.1904414    0.1795949  41.40 0.0003236643    1.087    0.080
       136 -11.7485    151.0557    183.0366   6.1418353308e+01   1.5346546778e+01     0.200609    0.1789289  33.16 0.0003404819    1.020    0.020
       137 -11.5986    166.9167    181.9250   5.7965939674e+01   1.2801037926e+01    0.2185076    0.1965434  20.50 0.0004337386    1.027    0.026
       138 -11.7088    167.0075    178.2274   5.7294774610e+01   1.3420054919e+01    0.1996825    0.1683163   9.70 0.0002798907    1.216    0.178
       139 -10.7275    142.3157    181.3168   6.2985573778e+01   1.7166292373e+01    0.1326326    0.1032656   1.75 0.0002478574    1.650    0.394
       140 -10.6959     35.4966    198.9531   8.8533392228e+01   2.9036994664e+01    0.1568407    0.1006182 -85.73 0.0005930153    1.442    0.307
       141 -11.9753    198.7643    179.8322   5.1447522801e+01   7.6993526316e+00    0.2092937     0.189905  21.23 0.0002506333    1.128    0.114
       142 -12.0990    192.4354    178.6462   5.2403465511e+01   8.9492652199e+00    0.3137316    0.2262144 -60.41  0.001186826    2.101    0.524
       143 -12.9814    106.5888    175.8238   7.0108180502e+01   2.4259608512e+01    0.2663634    0.2413776  88.73 0.0005995348    1.112    0.101
       144  -9.8633    177.5000    179.4910   5.5426310035e+01   1.1377997726e+01    0.1315536    0.1182488  19.56 -4.805604e-05    1.009    0.009
       145 -10.2676    158.3039    178.2910   5.9093384124e+01   1.4935728154e+01    0.1320704    0.1010847   5.65 0.0002810097    1.571    0.364
       146 -11.4203    250.6066    176.3484   4.2110562078e+01   5.8449433525e-02    0.2048213   0.09861279 -29.04 0.0002173141    1.854    0.461
       147 -12.2786    136.8246    176.1214   6.3315113426e+01   1.9100974344e+01    0.2812922    0.2031427  73.72  0.001426206    1.841    0.457
       148 -11.1715     12.3737    175.1214   9.2130374304e+01   3.6395720583e+01    0.2369914    0.1098045 -68.69   0.00121246    2.043    0.511
       149 -14.6073     44.1363    221.6315   8.8224294954e+01   2.3650337395e+01     1.617564     1.346251 -17.08   0.01122586    2.099    0.524
       150 -11.3364      2.5920    171.8356   9.4167950998e+01   3.7944526333e+01    0.3811627      0.12734 -89.65  0.001728266    2.661    0.624
       151 -12.7093    126.7864    173.7283   6.5154849273e+01   2.1309915621e+01    0.3415851    0.2161264 -48.21  0.001534888    1.721    0.419
       152 -13.3150    131.8692    169.8358   6.3353070697e+01   2.1203310250e+01    0.4716663    0.2804172  49.36  0.002258871    1.642    0.391
       153 -13.4975    124.8102    167.6270   6.4586159155e+01   2.2890015920e+01    0.5411586    0.3112833  42.04   0.00256748    1.616    0.381
       154 -11.0282     40.2600    174.7876   8.5665408982e+01   3.3670827400e+01    0.2325906    0.1640622 -39.68 0.0009403232    2.117    0.528
       155 -14.9899     92.4926    183.7983   7.4451719548e+01   2.4797569350e+01     1.057088    0.5973519  43.69  0.005415916    1.564    0.361
       156 -11.4172     31.9123    172.2764   8.7427003715e+01   3.5136322919e+01    0.3655133    0.1188884  47.44  0.001534214    2.549    0.608
       157 -10.9466     35.9903    171.0000   8.6357213767e+01   3.4989115509e+01    0.3835597    0.1647919  26.89  0.001505524    2.741    0.635
       158 -11.7392    244.0929    171.9953   4.2287444850e+01   1.5686996994e+00    0.1880058    0.1529945  11.16 -0.001320134    1.118    0.106
       159 -13.7286     61.4063    168.9104   8.0005611302e+01   3.2432042412e+01    0.7557047    0.3661643 -57.69  0.003205836    2.142    0.533
       160 -13.5353     56.6282    162.7887   8.0495141929e+01   3.4446136373e+01    0.5678772    0.3896039  13.20  0.001261061    2.176    0.540
       161 -12.5358     59.0041    158.0458   7.9335027926e+01   3.5244793100e+01    0.3467974     0.208328  51.21  0.001797694    1.549    0.354
       162 -12.0064     63.0239    156.9588   7.8166640360e+01   3.4971710908e+01    0.2359508    0.1783828 -85.48 0.0003177036    1.229    0.186
       163 -13.8819     65.9757    154.0627   7.7023086055e+01   3.5254041943e+01    0.5094748    0.4175645 -80.31 0.0005268427    1.138    0.121
       164 -10.4033     27.4296    172.5125   8.8498357159e+01   3.5544371569e+01    0.1205175   0.09971336  81.96 9.687611e-05    1.095    0.086
       165 -10.7542    235.3765    171.4296   4.3554364855e+01   2.9736512231e+00    0.2436443   0.09225206  30.30 0.0009568412    3.416    0.707
       166 -11.6877    197.0040    170.6939   5.0052397892e+01   9.4133448150e+00    0.1896505     0.160143  20.08 0.0007578901    1.087    0.080
       167 -13.2091    152.3978    167.4969   5.8401334258e+01   1.7973308805e+01    0.5105922    0.2343424 -47.08  0.001512279    2.323    0.569
       168 -12.6885    104.7211    168.4996   6.9441198884e+01   2.6113864919e+01    0.3424585    0.2266808  80.96  0.001637075    1.962    0.490
       169 -13.4049     77.3787    218.8727   8.1434355358e+01   2.0065290487e+01    0.4011198    0.2487177  71.44 0.0007154662    1.652    0.395
       170 -12.1749     40.5675    166.9881   8.4902745670e+01   3.5395449087e+01    0.3602513    0.1885476  87.21  0.001793505    1.911    0.477
       171 -11.5468     24.2410    168.9732   8.8993712243e+01   3.6654927937e+01    0.2130353    0.1791223  86.28  0.001461276    1.134    0.118
       172 -10.3472      3.8373    168.3832   9.3719539156e+01   3.8603894564e+01    0.1223723    0.1103451  30.40 0.0001556549    1.463    0.316
       173 -10.8884    172.3266    167.6520   5.4261346934e+01   1.4313774539e+01    0.1337709    0.1096305  84.24  0.000704953    1.753    0.430
       174 -11.6795     10.4877    166.7220   9.2089890651e+01   3.8421227580e+01    0.2815665    0.2171555  17.28  0.001351486    1.764    0.433
       175 -11.1642    200.3064    165.6756   4.8464579026e+01   9.6290370611e+00    0.1217614    0.1078545 -80.78 0.0002828124    1.646    0.392
       176 -12.3614    110.8709    164.3864   6.7317831657e+01   2.5972470314e+01    0.2719955    0.2361242  67.08 0.0003481343    1.111    0.100
       177 -11.1450    205.9565    164.3065   4.7165601744e+01   8.8551548061e+00    0.1869162    0.1560921  20.33 0.0005406297    1.119    0.107
       178 -14.3166     79.1060    212.3769   8.0494879023e+01   2.1039006186e+01     1.370336    0.3033785  38.90  0.005244223    3.332    0.700
       179 -11.5973     46.7190    163.5577   8.3055335754e+01   3.5477719143e+01    0.3026911    0.2057048 -42.20  0.001125993    2.042    0.510
       180 -13.3214     43.0562    160.0374   8.3617712255e+01   3.6717856158e+01    0.6014514    0.2436813  37.83  0.002555741    2.270    0.559
       181 -13.9707     32.3242    155.2225   8.5883555159e+01   3.9010825313e+01    0.8265216    0.5317612  -7.42  0.004020116    3.006    0.667
       182 -15.2344     35.6149    146.8769   8.4207015677e+01   4.0651637278e+01     1.006798    0.7026939  49.77   0.00359883    1.368    0.269
       183 -14.0467     15.0416    108.4318   8.6053409253e+01   5.1992870186e+01     1.597467    0.6534188  73.69  0.006139443    3.284    0.695
       184 -14.3358     26.0578    134.1696   8.5522387912e+01   4.4687943072e+01    0.9799863    0.4336293  67.59 0.0008004798    2.596    0.615
       185 -13.5453     20.6931    160.5669   8.9240781165e+01   3.8907757877e+01    0.9509508    0.2393814  41.77  0.003978416    3.039    0.671
       186 -14.4204      3.9214    119.8924   9.0628704299e+01   4.9941607869e+01     1.279628    0.6334901 -82.44  0.006256406    1.634    0.388
       187 -13.8766      9.8993    116.5788   8.8533108845e+01   5.0347059367e+01    0.7385942    0.4015745  70.16  0.003289905    1.806    0.446
       188 -14.2045     32.5332    139.1444   8.4229810735e+01   4.2841925745e+01    0.8316547    0.4482033   7.57  0.003602984    3.373    0.704
       189 -14.9395     35.2519    130.6430   8.2481550567e+01   4.4652307994e+01     1.228936    0.5116578  49.91  0.001232606    2.443    0.591
       190 -13.8398      9.2433    147.8268   9.1219604363e+01   4.2859246102e+01    0.9264727    0.5230043 -77.91   0.00530695    1.486    0.327
       191 -14.9227     13.4175    134.4619   8.9100988285e+01   4.5711004229e+01     1.200373    0.7061111  47.01  0.005039888    1.648    0.393
       192 -13.4055      7.2834    128.6050   9.0348918445e+01   4.7593736238e+01      0.63212    0.2485095  88.53  0.002779904    2.393    0.582
       193 -11.9701     14.2724    156.5549   9.0541476005e+01   4.0409460524e+01    0.2438132    0.1726992 -84.98 0.0006240935    1.195    0.163
       194 -14.0021     19.1547    151.3102   8.8928103537e+01   4.1202036307e+01    0.7483324    0.5059802 -83.05  0.004041179    1.250    0.200
       195 -13.5562     26.8134    151.0372   8.6927990673e+01   4.0550679066e+01      0.58911    0.3809281 -72.58  0.003423387    1.393    0.282
       196 -12.1270     23.0348    116.7158   8.4481685487e+01   4.9280134807e+01     1.486148    0.4438826 -51.27  0.004604366    3.592    0.722
       197 -12.4576     18.9490    113.6914   8.5409203460e+01   5.0376994961e+01    0.3933464     0.316693 -44.58  0.002443998    1.438    0.305
       198 -11.5442      4.2010    163.0742   9.3365244154e+01   3.9758462633e+01    0.2921975    0.1510429  54.65  0.001454807    1.629    0.386
       199 -10.9604      6.8799    160.1707   9.2570176423e+01   4.0199395436e+01    0.2002893    0.1273699  89.17 0.0007341993    1.269    0.212
       200 -10.8357    242.6414    162.3576   4.0644369500e+01   3.0615473067e+00    0.1600115    0.1379162 -46.47 0.0004720912    1.561    0.359
       201 -13.6957     91.7426    160.6117   7.1389417122e+01   2.9938739883e+01    0.5180523      0.32813  78.82  0.002411031    1.998    0.500
       202 -11.3301     32.9933    162.2800   8.6344113145e+01   3.7296748456e+01    0.1752474    0.1555353 -88.20 0.0003479688    1.181    0.153
       203 -11.9691     34.7609    158.5933   8.5573431499e+01   3.7966392723e+01    0.2244396    0.1377029  46.72  0.001257318    1.507    0.336
       204 -12.7478    169.9732    159.9497   5.3241205748e+01   1.6121497998e+01    0.3194847    0.2411091 -40.90  0.001720714    1.371    0.271
       205 -11.8427    158.9859    160.2901   5.5616267385e+01   1.8116414091e+01    0.1970984     0.168928  36.56 0.0002296569    1.111    0.100
       206 -10.2627    196.2746    159.6706   4.8012257104e+01   1.1313066260e+01    0.1241824    0.1082397 -72.01 0.0005444522    1.591    0.372
       207 -11.1209    104.9308    158.2123   6.7735454952e+01   2.8322324141e+01     0.223314    0.1763015  66.11 0.0005401337    1.277    0.217
       208 -12.5374     81.8685    156.1390   7.3207893584e+01   3.2483776140e+01      0.27658    0.2169225  35.80 0.0008574849    1.351    0.260
       209 -12.2486    121.9098    155.9902   6.3214980265e+01   2.5845614854e+01    0.2116088     0.197322  70.39  0.000278265    1.043    0.041
       210 -11.4196    112.5166    156.4738   6.5575238029e+01   2.7404763256e+01     0.142153     0.130657  67.48 0.0002452157    1.026    0.025
       211 -11.7031    141.4683    154.5047   5.8354224908e+01   2.2546166549e+01    0.2864847    0.1413247 -49.38  0.001082104    2.122    0.529
       212 -11.8605      2.3069    153.1741   9.3290082856e+01   4.2153550565e+01    0.3482473    0.1533272  74.45   0.00175565    2.008    0.502
       213 -12.0635     71.0035    153.2892   7.5604718580e+01   3.4737472600e+01    0.3171458    0.1753345 -76.28  0.001464381    1.899    0.473
       214 -13.1930     50.2483    152.0116   8.0888842395e+01   3.7765014367e+01    0.4347875    0.2602412  59.11  0.001131618    1.610    0.379
       215 -12.1849     44.6515    152.6938   8.2435873242e+01   3.8263420193e+01    0.2607253    0.1737522 -54.42  0.001040567    1.660    0.398
       216 -11.2149    232.1442    151.9321   4.0194698716e+01   6.2112221506e+00     0.191856    0.1598154  -8.35 0.0004181119    1.031    0.030
       217 -12.1391    147.6529    149.6246   5.5973130458e+01   2.2352365013e+01    0.3216687    0.2449934 -60.53 0.0005554847    1.477    0.323
       218 -12.2095    130.4848    150.7686   6.0180656678e+01   2.5384485753e+01    0.3283339    0.2209154  29.16 0.0009721431    1.682    0.405
       219 -14.2099     85.1146    147.4988   7.1014258768e+01   3.3998447949e+01    0.5782458    0.4594546 -71.11    0.0024673    1.221    0.181
       220 -11.7482     57.7986    151.4003   7.8821773261e+01   3.6968756480e+01    0.1683644    0.1307971  21.03 0.0002828727    1.631    0.387
       221 -12.5093    170.2903    149.9656   5.1134045020e+01   1.7891556817e+01    0.2966481    0.2392617  65.31  0.001188418    1.506    0.336
       222 -12.7289    108.5713    148.7676   6.5171431485e+01   2.9804026976e+01    0.3808175    0.2762314 -58.12 0.0009139064    1.398    0.285
       223 -12.9782     97.6000    149.0022   6.8011154489e+01   3.1629535085e+01     0.383142    0.3183672  87.94  0.002106872    1.218    0.179
       224 -10.9446    223.9923    147.9972   4.0701420834e+01   8.1891049827e+00    0.1969787    0.1600299 -59.93 0.0006845325    1.727    0.421
       225 -11.3505    180.8509    148.1393   4.8594835165e+01   1.6176479334e+01    0.1978332    0.1622567   5.15 0.0005829124    1.314    0.239
       226 -11.5304    206.5936    146.7384   4.3426046606e+01   1.1524502672e+01    0.2355309     0.177519  34.73 0.0009547671    1.334    0.250
       227 -11.6481    121.1919    146.7968   6.1651703024e+01   2.7967768567e+01    0.1935021    0.1737102  -0.01 0.0004520642    1.333    0.250
       228 -12.5926      3.6879    142.7549   9.2326583237e+01   4.4473796354e+01    0.3484602    0.2186522 -62.19  0.001443694    1.613    0.380
       229 -12.8536    101.4410    142.2923   6.5803825424e+01   3.2523067045e+01    0.5758327    0.3454827  70.16  0.001621063    2.362    0.577
       230 -12.5275     59.8968    145.1363   7.7428075462e+01   3.8197689496e+01    0.3186403    0.1843725  77.72 0.0009662937    2.019    0.505
       231 -13.3316     56.4405    140.4404   7.7727282235e+01   3.9785146456e+01    0.4094454    0.2996902 -11.22  0.002055102    2.227    0.551
       232 -11.3384    139.8919    140.8882   5.5935765567e+01   2.5662276414e+01    0.2160249    0.1993963 -12.50 0.0005111239    1.188    0.158
       233 -11.9765     94.8887    140.2738   6.7160580731e+01   3.4110695070e+01    0.2797154    0.2011575 -51.73  0.001246907    1.429    0.300
       234 -12.5259    230.2955    139.2431   3.7814370047e+01   8.3871830215e+00    0.2497546    0.2117547  -3.79 0.0004013061    1.079    0.073
       235 -10.8449    189.6718    140.3194   4.5163757046e+01   1.5838250458e+01     0.207532    0.1677036 -73.38 0.0007236339    1.727    0.421
       236 -11.4433    170.7951    135.8098   4.7936983632e+01   2.0447422233e+01    0.2203501    0.1931855   8.25 0.0006803922    1.210    0.173
       237 -12.5982    103.4084    134.3852   6.3749266431e+01   3.4013011973e+01    0.4123493    0.2598422 -42.31  0.001125986    1.790    0.441
       238 -11.7368    104.6902    130.6944   6.2649665762e+01   3.4643221471e+01    0.2591086    0.1769947  53.70 0.0006131025    1.506    0.336
       239 -12.5851     46.4164    135.1547   7.9834077441e+01   4.2308433801e+01    0.2976395    0.2103532  31.42 0.0003220631    1.590    0.371
       240 -11.7160    179.9133    135.0730   4.5901706881e+01   1.8728221866e+01    0.2104272    0.2005145  -5.92 0.0002899414    1.002    0.002
       241 -10.1840    140.6576    135.3159   5.4543248452e+01   2.6681881968e+01    0.1529773    0.1175415  83.46 0.0007048288    1.711    0.415
       242 -12.1894    117.9070    134.8905   6.0059560026e+01   3.1228634490e+01    0.2604305    0.2447144  21.72  0.000615533    1.176    0.150
       243 -13.7050     62.9747    134.2623   7.4967568084e+01   4.0436073163e+01    0.5655485    0.2902686  35.93  0.002564485    2.008    0.502
       244 -11.3918    211.3466    133.3899   3.9660185501e+01   1.2788734624e+01    0.3074749    0.1620834  40.54 0.0008845824    2.006    0.501
       245 -12.1743    126.7728    131.8881   5.7165084576e+01   3.0185895508e+01    0.3321634    0.2584143  80.56 0.0008284589    1.571    0.363
       246 -11.7556    223.0188    139.8523   3.9121383446e+01   9.5967306181e+00    0.2168911    0.1710713 -25.90 0.0002880554    1.143    0.125
       247 -11.5748    201.7354    130.8166   4.0771025415e+01   1.5088498119e+01    0.2239721    0.1842082  26.94 0.0003965559    1.254    0.203
       248 -12.3005    206.7027    129.2361   3.9525034685e+01   1.4371289016e+01    0.2449654    0.2296326 -25.88 0.0003263105    1.086    0.079
       249 -13.4833     82.6203    128.5895   6.8356082804e+01   3.8918667084e+01     0.459668    0.3558362 -30.97  0.002318695    1.668    0.401
       250 -12.9616     48.5836    129.5864   7.8435807162e+01   4.3430937735e+01    0.5118229    0.1407216  39.94  0.001847554    3.289    0.696
       251 -11.1245    130.2671    128.4578   5.5523109358e+01   3.0245331745e+01    0.2516825    0.2027385 -50.59 0.0005419941    1.240    0.194
       252 -12.4133     64.9255    128.0047   7.3379802146e+01   4.1711196788e+01    0.3111849    0.1782795 -84.35  0.001349435    2.048    0.512
       253 -11.1055    121.9032    128.1450   5.7566388772e+01   3.1975182721e+01    0.2322956    0.2009993  83.12 0.0007078607    1.247    0.198
       254 -13.2586     60.3812    125.4844   7.4299442332e+01   4.2957875770e+01    0.4318805    0.2241347 -60.53  0.001412327    1.753    0.430
       255 -11.0070    162.4373    127.5116   4.7796871639e+01   2.3783737928e+01    0.1469924    0.1425292 -14.80 6.958401e-05    1.019    0.018
       256 -13.3137    103.9694    121.3056   6.0815773258e+01   3.6975128677e+01     0.503615    0.4355787  10.33   0.00250747    1.437    0.304
       257 -12.1979     99.2296    118.3563   6.1480897242e+01   3.8542518958e+01    0.2939464    0.2439771  82.27 0.0003548123    1.297    0.229
       258 -13.8208     44.9671    120.5119   7.8181545443e+01   4.6121262831e+01    0.5882971    0.5098535  20.82  0.002502535    1.417    0.294
       259 -11.9596     35.9708    119.6428   8.0836057269e+01   4.7320017019e+01    0.3098946    0.2170278  56.53  0.000509141    1.439    0.305
       260 -12.3203     54.2402    116.9280   7.4715708186e+01   4.5899991071e+01    0.8665973     0.198596  38.46  0.002821042    3.908    0.744
       261 -11.0834    188.9880    121.6901   4.0988692228e+01   1.9276115136e+01    0.1959294    0.1860123  28.58 0.0003039476    1.087    0.080
       262 -10.5994    165.6400    122.3102   4.5857718260e+01   2.4123579939e+01    0.1529768    0.1199011 -85.75 0.0006764909    1.741    0.426
       263 -12.6787     67.9364    121.7444   7.1374947323e+01   4.2836783726e+01    0.2966826    0.2047302 -74.90  0.001478825    1.408    0.290
       264 -11.4113    199.7202    121.0212   3.8843687247e+01   1.7161446872e+01    0.2136856    0.1815064 -27.68  0.001174423    1.099    0.090
       265 -13.0240     73.5376    120.2071   6.9398231145e+01   4.2389292996e+01    0.2823128    0.2381373  57.50 0.0008189078    1.194    0.163
       266 -10.8783    230.5368    119.4410   3.3377489064e+01   1.1324786720e+01    0.3021664    0.1789526  18.27  0.001318484    2.554    0.609
       267 -11.4929     94.0057    116.9181   6.2654904445e+01   3.9823932801e+01    0.3110348    0.2000819 -56.49  0.000857733    1.494    0.331
       268 -11.8062    124.4266    114.4250   5.3668653964e+01   3.4540079760e+01    0.2635507     0.242532 -77.82  0.001389497    1.104    0.094
       269 -11.2709    105.4613    114.4429   5.8811197066e+01   3.8305257013e+01    0.2716424     0.222387   7.40  0.001253135    1.618    0.382
       270 -11.5200    109.0058    112.4863   5.7346809040e+01   3.8078689395e+01    0.3421347    0.2671764  -7.71  0.001576661    1.831    0.454
       271 -12.6717     63.9345    113.5186   7.1044915694e+01   4.5456569445e+01     0.307757    0.2750606  31.81  0.000963165    1.278    0.217
       272 -12.3184     61.5776    110.2888   7.1158558396e+01   4.6593003631e+01    0.3696918    0.2365903 -52.81  0.001162392    1.496    0.331
       273 -12.0108     57.5858    113.2624   7.3002711273e+01   4.6386729524e+01    0.3269161    0.1946295 -66.76  0.001553229    1.530    0.346
       274 -12.4389     53.0683    110.3715   7.3916450785e+01   4.7696997041e+01    0.4426184    0.2936543  82.05  0.001917129    1.712    0.416
       275 -11.9537    219.4838    110.4048   3.2972092543e+01   1.4881621174e+01    0.3562781    0.2811675  -4.83  0.001941256    1.365    0.268
       276 -11.7909     82.1077    111.6614   6.5017179293e+01   4.3135750967e+01    0.3120582    0.1949451 -61.97  0.001422358    1.539    0.350
       277 -11.1372    210.0490    107.9748   3.3902716662e+01   1.7208086361e+01    0.2282685    0.1694571 -62.78  0.001132783    1.699    0.412
       278 -11.9267    170.3271    106.9085   4.0981419827e+01   2.6066495877e+01    0.2678759    0.2226288  39.37 0.0005659504    1.261    0.207
       279 -15.7012     94.3058    197.0935   7.5672615263e+01   2.1840264590e+01     1.433701     1.185149 -34.09  0.008910312    1.645    0.392
       280 -11.5343    120.9671    107.0090   5.2691664499e+01   3.6914117930e+01    0.2248092    0.2160874 -77.51  0.001201541    1.019    0.019
       281 -12.7919      2.7730    105.7050   8.9750680013e+01   5.3490260361e+01      0.45162    0.2081603 -57.99  0.001948324    1.941    0.485
       282 -10.6544    153.6443    106.3523   4.4446623848e+01   2.9928044305e+01    0.2320994    0.1807672 -81.91 0.0005389749    1.662    0.398
       283 -10.1187    116.3270    104.2900   5.3233688449e+01   3.8487165586e+01    0.1518649    0.1243202  -2.97 0.0006325967    1.617    0.381
       284 -11.0359     64.5178    104.0134   6.8905944212e+01   4.7746584397e+01    0.2151894     0.131468 -61.87 0.0003635208    1.494    0.331
       285 -10.5946    230.1232    102.9026   2.9575449207e+01   1.3921412628e+01    0.1817447    0.1494741  -4.86   0.00103142    1.273    0.215
       286 -12.0179     78.8086    101.1553   6.3609370240e+01   4.6247332198e+01    0.3151073    0.2411624  69.01 0.0007126244    1.486    0.327
       287 -12.4470     75.1171     97.4124   6.3892112067e+01   4.7761696630e+01    0.2618933    0.2205127 -54.81  0.000534951    1.118    0.105
       288 -11.9845     59.1684     96.3409   6.9008539519e+01   5.0409337309e+01    0.3214461    0.2550285 -13.20  0.001020452    1.673    0.402
       289 -11.2919    208.0943     99.8018   3.2190078663e+01   1.8964509911e+01    0.2095054    0.1847634 -54.07 0.0003597318    1.187    0.158
       290 -11.8186    105.5033     99.4180   5.4988239664e+01   4.1791375437e+01    0.2597187    0.2334314 -55.45  0.000275577    1.068    0.064
       291 -11.6195     31.4988     99.1435   7.9198452970e+01   5.2927705366e+01    0.3661033    0.1861783 -51.63  0.001723388    1.862    0.463
       292 -11.6137    161.5374     99.0274   4.0726656252e+01   2.9580803568e+01    0.2461765    0.1474441 -40.06  0.001036317    1.610    0.379
       293 -12.2466     23.4460     97.4649   8.1752649637e+01   5.4073853392e+01     0.505549    0.1825778  41.12  0.001897931    2.901    0.655
       294 -11.2913    188.6033     97.7956   3.5028596760e+01   2.3607345192e+01    0.2097115    0.1308813 -44.74 0.0003574198    1.555    0.357
       295 -11.1586    178.7367     98.0134   3.6939474812e+01   2.5813994594e+01    0.2180572    0.1890388 -37.40 0.0004060393    1.096    0.088
       296 -11.8273     89.4751     97.6152   5.9340342583e+01   4.5257987070e+01    0.3039274    0.2047889 -87.29  0.001163224    2.140    0.533
       297 -12.2599     82.5352     95.8440   6.1080377661e+01   4.6905778577e+01    0.4835271    0.2164053 -39.46  0.001675114    2.876    0.652
       298 -11.6074     68.4709     95.3131   6.5592879796e+01   4.9316055288e+01    0.2420066    0.1352881  35.70  0.001029545    1.948    0.487
       299 -10.9369     98.6639     92.8158   5.5206167164e+01   4.4658534774e+01     0.221065    0.1361669 -59.06 0.0004625917    1.696    0.410
       300 -11.0090     56.3469    100.6002   7.0902413098e+01   4.9727473602e+01     0.483817    0.2804047  -9.82  0.001666727    4.238    0.764
       301 -12.3323     25.3762     90.0309   7.9857713672e+01   5.5774687383e+01    0.4653676    0.2549628  39.23 0.0009572174    2.002    0.501
       302 -12.2979    230.5594     89.4780   2.6270579459e+01   1.5860205016e+01    0.2859317    0.2511871  41.56  0.001706262    1.291    0.225
       303 -11.9030      4.2681     88.1044   8.7358723512e+01   5.7747504573e+01    0.3388824    0.1632136 -57.89  0.001735255    1.749    0.428
       304 -11.3174    138.6430     88.2228   4.2895646719e+01   3.7037181321e+01    0.2511092    0.2220869 -66.90 0.0003641603    1.179    0.152
       305 -12.2660    149.4214     86.8581   3.9952673406e+01   3.4783012331e+01    0.4395255    0.1976152 -30.36  0.001460836    2.762    0.638
       306 -11.9855     54.1646     85.7968   6.8303523041e+01   5.3693475168e+01    0.4591887    0.3900568 -45.94   0.00260744    1.164    0.141
       307 -11.5210     50.8707     78.6438   6.7729587972e+01   5.5871642789e+01    0.4542183    0.2634397  67.36    0.0018406    2.804    0.643
       308 -12.3213     60.1241     86.2897   6.6260633223e+01   5.2754770738e+01    0.4333869    0.1801842 -51.56  0.001705023    2.144    0.534
       309 -12.3900     63.6337     82.0863   6.3883975275e+01   5.3262815875e+01    0.3001879    0.2509556  22.05  0.001113098    1.387    0.279
       310 -11.6461    178.6443     86.9177   3.3917349640e+01   2.7829965243e+01    0.2534744    0.2217245  69.71 0.0003159876    1.235    0.190
       311 -11.6103     11.6326     87.0733   8.4499259724e+01   5.7555715118e+01    0.2868115    0.1772196  75.90  0.001059777    1.708    0.414
       312 -10.2700    238.7137     85.2849   2.4182722097e+01   1.4825447383e+01    0.1333763    0.0936518 -54.85 0.0001809395    1.527    0.345
       313 -10.0204    102.6583     85.7415   5.1947486629e+01   4.5471364079e+01    0.1491858    0.1221711   2.29 0.0002729467    1.587    0.370
       314 -11.8576    171.0397     83.6858   3.4459722674e+01   3.0215423312e+01    0.2084813     0.201943  64.82 0.0004398234    1.077    0.072
       315 -10.8189    110.0809     83.5285   4.9083225722e+01   4.4413926135e+01    0.2222225    0.1537028  48.46 0.0003795233    1.502    0.334
       316 -11.5689     77.5167     81.5183   5.8808985038e+01   5.1170122986e+01    0.3275058    0.2335277  65.14  0.001193996    1.766    0.434
       317 -11.3907    206.6377     80.8415   2.7510991691e+01   2.2354721930e+01    0.2223181    0.1720346 -17.78 0.0004472322    1.365    0.268
       318 -11.7810    182.2670     80.9856   3.1584108031e+01   2.8005697547e+01    0.2806773    0.1790875 -38.77  0.000666947    1.463    0.316
       319 -11.1511    182.7486     77.0141   3.0370452314e+01   2.8566942081e+01    0.2196332    0.1940077 -36.24 0.0005297815    1.075    0.070
       320 -11.8387     23.2215     79.8936   7.8848264345e+01   5.8482134161e+01    0.3142644    0.1874656 -55.67 0.0009300953    1.432    0.302
       321 -11.7714    153.3615     79.8908   3.6995038884e+01   3.5174622302e+01    0.2437095    0.2169956  79.23 0.0003859802    1.203    0.169
       322 -12.2781     29.2663     79.7804   7.6436815534e+01   5.7981544374e+01    0.3284672    0.2057148  35.41  0.001383976    1.799    0.444
       323 -13.4932    215.0600     75.8520   2.4965059191e+01   2.1238597705e+01     0.439245     0.300348 -26.80  0.001219611    1.403    0.287
       324 -11.3257     88.3210     79.0445   5.4424866783e+01   4.9792993320e+01    0.2842845    0.2252996  55.50  0.001105965    1.378    0.274
       325 -11.6320    188.4757     77.5288   2.9525958665e+01   2.7111702325e+01    0.2757196    0.2081546  14.02 0.0009157058    1.752    0.429
       326 -11.4633    112.1293     76.3943   4.6248823081e+01   4.5494876588e+01    0.3381969     0.265048 -45.48  0.001315059    1.231    0.187
       327 -11.3308    116.6149     74.7961   4.4464298524e+01   4.4830187656e+01    0.3498404    0.2743668  84.96  0.001622894    1.612    0.380
       328 -11.9513    161.3458     76.3326   3.4233575383e+01   3.3886946105e+01     0.302911    0.2634041 -64.83 0.0007775239    1.197    0.164
       329 -12.3331     75.6364     74.5970   5.7378108505e+01   5.3095595450e+01    0.5242935    0.3133472 -29.16  0.001889864    2.266    0.559
       330 -10.7821     86.0166     75.0623   5.3941374384e+01   5.1122545091e+01     0.221308     0.201738 -21.68 0.0005481143    1.171    0.146
       331 -10.8499     86.4907     71.5874   5.2656620975e+01   5.1803869183e+01    0.2480697    0.1411333 -47.74  9.62208e-05    1.658    0.397
       332 -11.1186    168.7760     73.9662   3.2050745768e+01   3.2485714240e+01    0.2212911    0.1948321 -37.65 0.0005382159    1.092    0.085
       333 -11.1385     31.5243     74.5346   7.4388368744e+01   5.9059319661e+01    0.1350788    0.1158001 -65.77 8.641357e-05    1.021    0.020
       334 -11.2522     50.9037     72.6183   6.6086342159e+01   5.7317362956e+01    0.2854538    0.1741271 -73.96   0.00129187    1.933    0.483
       335 -10.0690     34.6716     73.2877   7.2809110621e+01   5.9050469384e+01    0.1328062   0.09847533  72.40 0.0002633836    1.615    0.381
       336 -11.0988     11.0342     69.9286   8.1980817254e+01   6.1816561983e+01    0.3667721    0.1227656 -79.33  0.001321921    3.360    0.702
       337 -11.8457      2.0818     69.0123   8.5614591353e+01   6.2537055866e+01    0.3486157    0.1750536 -84.57  0.001196209    1.850    0.459
       338 -11.1459    187.4750     69.8301   2.7507432599e+01   2.8614327560e+01    0.2576492    0.2075042  60.74 0.0005500257    1.314    0.239
       339 -11.0172    180.8544     70.3195   2.8767617110e+01   3.0144412502e+01    0.2381875    0.1899606 -82.30 0.0009668828    1.444    0.307
       340 -10.5460     60.4289     67.4722   6.0800513272e+01   5.7183910634e+01    0.1431382    0.1283002 -49.07 8.300829e-05    1.010    0.010
       341 -11.0933     47.4681     67.4924   6.6002905868e+01   5.8975739578e+01    0.2307977    0.1216551  43.91 0.0008885072    2.200    0.545
       342 -10.3196    203.2963     66.3265   2.4082234330e+01   2.5386254275e+01    0.1435682    0.1128439  13.10 0.0003948489    1.629    0.386
       343 -11.9861      8.2452     60.6095   8.1438141463e+01   6.4235376125e+01    0.5035658    0.2678347  56.12  0.001969089    2.488    0.598
       344 -11.8332    178.5565     64.1389   2.7336468070e+01   3.1718222969e+01    0.2584825    0.2485374 -73.24  0.000344966    1.045    0.043
       345 -11.0461    110.0400     64.0056   4.2677153801e+01   4.8477975305e+01     0.226389    0.2022251 -71.73 0.0003227714    1.213    0.175
       346 -13.5790    107.4983     59.2126   4.1702005591e+01   4.9979564015e+01    0.4732314    0.3791844 -67.69  0.001259521    1.459    0.315
       347 -10.9792     54.9726     62.9223   6.1519796266e+01   5.9023971998e+01    0.2253598    0.1715405  87.69  0.001136315    1.769    0.435
       348 -11.1000     43.2596     57.2445   6.4638583028e+01   6.1877146168e+01    0.2247051    0.1650348 -50.02 0.0006729637    1.186    0.157
       349 -11.6839     44.5114     62.4988   6.5748954963e+01   6.0514253569e+01    0.2639668    0.2280357 -19.66  0.001557715    1.253    0.202
       350 -11.8989     41.6774     60.3621   6.6315110429e+01   6.1353492376e+01    0.2391965    0.2108796  84.04 0.0009632772    1.314    0.239
       351 -10.6005    226.0948     61.5184   1.9813412592e+01   2.0891738435e+01    0.1803106    0.1382485  67.12   0.00030637    1.462    0.316
       352 -11.7242    199.0305     65.4916   2.4473435253e+01   2.6522674141e+01    0.2080993    0.1464759  63.96 0.0005093376    1.531    0.347
       353 -10.9231    233.6993     59.0116   1.8303598870e+01   1.9585091268e+01    0.1905736    0.1530515 -36.00 0.0002891149    1.085    0.078
       354 -12.5040     28.6389     55.5132   7.0736529559e+01   6.3881359066e+01    0.4108138    0.2425998  52.40  0.001991141    2.291    0.563
       355 -11.6902    192.9410     57.1558   2.3002047676e+01   2.9255331680e+01    0.2402439    0.1888676 -61.23 0.0009845517    1.290    0.225
       356 -11.4638    160.1607     57.3894   2.8554326844e+01   3.7434402664e+01    0.2105662    0.1471199  76.67 0.0005461475    1.639    0.390
       357 -11.3556     52.2634     56.5597   6.0515137040e+01   6.0839775801e+01    0.2411778    0.2203847  60.84 0.0002436582    1.277    0.217
       358 -11.2402     49.9821     52.1838   5.9950731253e+01   6.2122338835e+01    0.2365944    0.1798012 -64.24 0.0003024122    1.410    0.291
       359 -11.0686    176.3931     56.1934   2.5296808370e+01   3.3513215880e+01    0.2175138    0.1274606 -43.38 0.0003438213    1.618    0.382
       360 -11.2018    100.5004     56.4851   4.2793199800e+01   5.2054229698e+01    0.1497024    0.1441278 -25.36 0.0008104417    1.018    0.018
       361 -11.5505    132.5287     54.1658   3.3302222770e+01   4.4942009000e+01    0.2944438    0.1169967  59.66   0.00098185    2.748    0.636
       362 -11.3888    126.9375     53.9927   3.4583363835e+01   4.6350450620e+01    0.2424393    0.2275133 -61.37  0.001214831    1.079    0.073
       363 -10.9569    115.5821     53.7412   3.7418758361e+01   4.9128330163e+01    0.2103513    0.1386989 -46.89  0.000504872    1.540    0.351
       364 -12.9116     37.3223     52.0106   6.5599792963e+01   6.3768090062e+01    0.3190981    0.2382427 -55.12 0.0003662549    1.186    0.157
       365 -10.9758    233.5055     52.8594   1.6775760299e+01   2.0459898395e+01    0.1911156     0.172944 -69.01 0.0005395707    1.135    0.119
       366 -11.4036     43.5666     52.1182   6.2778526460e+01   6.2990305532e+01    0.2029472    0.1886837   9.13 0.0002413882    1.183    0.155
       367 -13.3734     30.3726     49.3801   6.8022688687e+01   6.5113001478e+01     0.414937    0.3156457 -86.41  0.002135487    1.644    0.392
       368 -11.4885     18.7456     48.8280   7.3573066122e+01   6.6291252357e+01     0.223717    0.1818348 -49.32 0.0006696658    1.044    0.042
       369 -10.3016    155.5009     47.4207   2.6150980264e+01   4.0194548596e+01    0.1486103    0.1455511 -79.07 9.701103e-05    1.027    0.026
       370 -10.4494    190.3164     43.3182   1.9318938829e+01   3.1892883686e+01    0.1451848    0.1118773  25.88 0.0006798651    1.654    0.395
       371 -12.4486      2.3495     42.0995   8.0267439361e+01   6.8881491425e+01    0.3350369    0.1604362 -48.42 0.0008712667    1.684    0.406
       372 -12.6368     36.1792     39.8554   6.1736313489e+01   6.6548903152e+01    0.3299774    0.2629338  16.37 0.0006619648    1.390    0.281
       373 -12.8016    135.7009     38.8981   2.7057833839e+01   4.6566562576e+01    0.3066336    0.2896095  60.71 0.0004641096    1.058    0.055
       374 -11.3251    103.8458     39.8765   3.5268054449e+01   5.4249069502e+01    0.2360583    0.2031152  14.40  0.001241768    1.257    0.205
       375 -12.0162     23.6999     38.8631   6.7799347353e+01   6.8092379595e+01    0.2209143    0.1308616 -41.37 0.0006005044    1.481    0.325
       376 -13.4404    230.3971     34.6790   1.2467249110e+01   2.3484845215e+01    0.3131244    0.2723791 -47.90 0.0006355561    1.036    0.035
       377 -10.0054    151.3406     34.2885   2.2392289432e+01   4.3163193256e+01    0.1536487    0.1107183  33.00 0.0003023993    1.643    0.391
       378 -12.1163     44.0267     33.0813   5.4977122638e+01   6.6895616439e+01    0.3426475    0.2355366 -27.25  0.001036675    1.443    0.307
       379 -13.1199     31.9131     32.2896   6.0813438374e+01   6.8611289727e+01    0.4200442    0.2918541 -44.22  0.002420669    1.234    0.190
       380 -10.4259     65.5486     32.4913   4.5079437597e+01   6.3506928605e+01    0.1370731    0.1264602 -22.83  9.15611e-05    1.051    0.048
       381 -11.0137      8.5599     31.9992   7.3872467161e+01   7.0785697936e+01    0.1712518    0.1500776 -26.65 0.0003296718    1.169    0.144
       382 -11.8494    159.3528     31.0496   1.9939301200e+01   4.1495319127e+01    0.2609934    0.2105051  69.58 0.0002949008    1.228    0.185
       383 -11.2850    134.9821     29.6596   2.3739485034e+01   4.8039399210e+01    0.2952294     0.181749 -28.61    0.0012469    1.639    0.390
       384 -10.7985     22.3304     31.3104   6.5662705698e+01   6.9827408738e+01    0.1337809   0.08142568 -29.28 0.0005020331    1.669    0.401
       385 -11.4431    208.2101     29.2749   1.3170793524e+01   2.9306761272e+01     0.236563    0.1681705  71.18 0.0006323438    1.461    0.316
       386 -13.3611     46.8072     26.6950   5.0594081534e+01   6.7677631407e+01    0.3862008        0.327  84.27  0.002066043    1.815    0.449
       387 -12.7956     78.4487     31.0029   3.9475126953e+01   6.1252978231e+01    0.3084159     0.298953 -62.24  0.001499737    1.180    0.153
       388 -10.5135     95.3270     26.6794   3.2025456135e+01   5.8228547715e+01    0.1447097    0.1110284 -66.60 0.0004651016    1.685    0.406
       389 -12.2521     68.1419     25.8220   4.0827849884e+01   6.4129962559e+01    0.2007977    0.1903925 -53.02 0.0008016787    1.234    0.190
       390 -12.6143    106.5781     32.2151   3.1310278291e+01   5.4790806986e+01    0.3253841    0.2710885 -49.51 0.0008281127    1.275    0.216
       391 -11.2925      4.5213     25.9976   7.4260769065e+01   7.2327351002e+01    0.1835205   0.09932684 -61.27 0.0004347242    1.546    0.353
       392 -13.0104     84.1256     24.0794   3.4262082467e+01   6.1106894524e+01    0.3951929    0.2928176 -54.85 0.0005217684    1.653    0.395
       393 -11.4268     63.2202     24.8081   4.2292988026e+01   6.5220901816e+01    0.1850509    0.1481759   2.86 0.0004109151    1.294    0.227
       394 -11.5435    237.9964     22.6900   8.8290595493e+00   2.3227939293e+01    0.1763839      0.14997 -67.42 0.0003608327    1.111    0.100
       395 -10.7370    250.4904     21.9597   7.7572089756e+00   2.0649441605e+01    0.1866296    0.1060934 -31.99 0.0004459694    1.500    0.333
       396 -10.2161    166.2737     22.3109   1.5983177487e+01   4.0755372268e+01    0.1412305    0.1086874  30.74 0.0001928555    1.553    0.356
       397 -11.4333    139.5927    248.1952   7.2450032902e+01   6.7713771704e+00    0.2112205    0.1679574  36.51 0.0005554467    1.040    0.038
       398 -11.2967     67.4616     17.5009   3.6814606281e+01   6.5507238081e+01     0.133963     0.122793  -3.15 0.0001860983    1.034    0.033
       399 -10.6841    189.6438     20.0281   1.2447484620e+01   3.4989009712e+01    0.1900516    0.1651112 -43.70 0.0005050965    1.099    0.090
       400 -11.8893    224.4293     15.0083   7.9187017225e+00   2.7126075954e+01    0.2289123    0.1816453 -86.75 0.0003488847    1.247    0.198
       401 -12.4376    135.9622    246.0000   7.2871966810e+01   7.5792862727e+00    0.4840338    0.1520813  43.48  0.002249035    2.535    0.606
       402 -10.7253    180.3754    244.1610   6.4741521870e+01   1.6460859213e+00    0.1824691    0.1063569  37.15  0.001149497    1.375    0.272
       403 -11.7949     59.9870    242.4246   8.6537218256e+01   1.8129811595e+01    0.2589685    0.1752009  26.25  0.001733529    1.799    0.444
       404 -10.8327     90.5217     11.5342   2.6200567132e+01   6.1265509201e+01    0.1365535    0.1280821  24.06 4.020898e-05    1.010    0.010
       405 -11.5714    162.6604    246.6467   6.8154207724e+01   3.7799936722e+00    0.2190481    0.1487472  19.30 0.0008213427    1.448    0.309
       406 -10.5171    158.6296    240.8052   6.8173205673e+01   5.1099768667e+00    0.1277278    0.1096318 -66.93 0.0006107832    1.645    0.392
       407 -12.3969     90.3019    238.7596   8.0638210289e+01   1.4918432602e+01    0.3611493    0.2241056 -50.87  0.001879663    2.177    0.541
       408 -10.1488     72.5164    240.4786   8.4097376642e+01   1.6923114198e+01    0.1117762   0.08517897  52.79 0.0002715379    1.035    0.034
       409 -10.7970     49.4061    239.0097   8.8265926977e+01   1.9947125153e+01     0.163253    0.1501887  49.96 0.0008319464    1.391    0.281
       410 -11.3283     52.7902    237.2395   8.7538274354e+01   1.9858704892e+01    0.1857784    0.1273287 -67.93  0.001092254    1.747    0.427
       411 -10.8608    239.9728    239.5109   5.4273257456e+01  -5.6139541028e+00    0.1491357   0.08173926  30.19 0.0003559613    1.490    0.329
       412 -10.9795    148.3909    239.1412   6.9835230533e+01   6.7915903989e+00     0.286077    0.1051758  34.98  0.001171941    2.278    0.561
