#   1 NUMBER                 Running object number                                     
#   2 MAG_AUTO               Kron-like elliptical aperture magnitude                    [mag]
#   3 X_IMAGE                Object position along x                                    [pixel]
#   4 Y_IMAGE                Object position along y                                    [pixel]
#   5 X_WORLD                Barycenter position along world x axis                     [deg]
#   6 Y_WORLD                Barycenter position along world y axis                     [deg]
#   7 A_WORLD                Profile RMS along major axis (world units)                 [deg]
#   8 B_WORLD                Profile RMS along minor axis (world units)                 [deg]
#   9 THETA_WORLD            Position angle (CCW/world-x)                               [deg]
#  10 FWHM_WORLD             FWHM assuming a gaussian core                              [deg]
#  11 ELONGATION             A_IMAGE/B_IMAGE                                           
#  12 ELLIPTICITY            1 - B_IMAGE/A_IMAGE                                       
         1 -15.1882     13.3751    154.1320   1.4238098417e+02   4.1728632183e+01     9.581808     3.532635 -89.76   0.03520425    3.981    0.749
         2 -13.4490    212.2690     10.5990   6.1191708596e+01   3.1290780626e+01     1.197501    0.9050729  43.41  0.005482935    1.707    0.414
         3 -12.4755      1.9947      4.9288   1.1333710384e+02   7.2045300377e+01    0.5403033    0.4353885 -24.41   0.00457058    1.330    0.248
         4 -13.2886    196.1694     30.3332   6.7806617045e+01   3.2853122787e+01     1.298424     1.200513  58.70  0.006919448    1.212    0.175
         5 -10.9335    127.1112    249.4870   1.2971874182e+02   5.5743116713e+00    0.4606462    0.1528617  35.18  0.001582815    4.051    0.753
         6 -12.0179    245.9456    245.3792   1.0686818174e+02  -1.3357669599e+01    0.6780161     0.389611  14.19  0.003776789    1.877    0.467
         7  -9.2922     66.5247    250.0458   1.4087033033e+02   1.4895604520e+01    0.1774137     0.127198  61.16 0.0004088632    1.104    0.094
         8 -10.4858     29.1075    249.1324   1.4712201127e+02   1.9909042662e+01    0.3097725    0.2115527  84.70  0.001509732    1.148    0.129
         9 -10.2808     34.1534    247.8292   1.4621156652e+02   1.9551024327e+01    0.2062413    0.1800045 -65.61  0.001263909    1.703    0.413
        10 -11.2169     35.6657    243.7595   1.4568278103e+02   2.0142358198e+01    0.4520097    0.1787298  43.98  0.002458304    2.207    0.547
        11 -10.9949     15.2473    249.5496   1.4935684752e+02   2.1410663911e+01    0.3214113    0.2078181  36.63  0.002230642    2.030    0.508
        12 -10.1178      2.4995    249.4956   1.5131769127e+02   2.2773409327e+01    0.2698174    0.1342144  52.49  0.001843083    1.621    0.383
        13 -10.9014      2.8192    246.1539   1.5110428959e+02   2.3358908408e+01    0.2638816    0.1637196  77.31 0.0009287636    1.105    0.095
        14 -11.5021    100.5273    246.0954   1.3432917783e+02   1.0535865659e+01    0.4036395    0.3613102 -13.69  0.002638413    1.823    0.452
        15 -10.1156     97.2407    245.4229   1.3487001528e+02   1.1180768784e+01    0.2089998    0.1534581  87.29  0.000492345    1.334    0.250
        16  -8.8159     88.5253    249.4561   1.3688832126e+02   1.1781274483e+01     0.124019    0.0954508  65.37 4.978843e-05    1.004    0.004
        17  -9.6378     46.9006    249.2189   1.4418093215e+02   1.7695239545e+01    0.1841983       0.1157  68.11 0.0005469735    1.219    0.179
        18 -10.2808    198.2190    246.3914   1.1573956793e+02  -6.0420624712e+00    0.1853794    0.1021297  46.94 0.0009105711    1.733    0.423
        19 -11.5982     10.7534    238.8509   1.4946994771e+02   2.3915460369e+01    0.4339922    0.1612542  61.46  0.001893286    2.227    0.551
        20 -10.1348     19.0082    242.0642   1.4832431282e+02   2.2406162568e+01    0.1675077    0.1196165  78.49 0.0004355412    1.055    0.052
        21 -10.3904    185.6010    238.8918   1.1696599922e+02  -2.7580098249e+00     0.235006    0.1609007  68.93  0.000831497    2.239    0.553
        22  -9.6468    120.3082    239.6382   1.2981064715e+02   8.4917950767e+00    0.1362855   0.08711016  71.41 0.0007039981    1.741    0.426
        23 -10.3469     50.4593    235.4420   1.4248790766e+02   1.9899727166e+01    0.2319591    0.1574518  76.21 0.0007652226    1.168    0.144
        24 -11.7618    140.0884    249.2333   1.2722339425e+02   3.4249097476e+00    0.4774608    0.2796142  42.60  0.002604943    1.438    0.305
        25 -12.7560    113.1762    231.0051   1.3012706799e+02   1.1335162986e+01     1.753138    0.1670542  44.44  0.004260505    6.948    0.856
        26 -12.5399      9.6324    207.2655   1.4768862547e+02   3.0370876525e+01    0.6550934    0.5536781  35.10  0.003842942    1.685    0.407
        27  -8.6833    152.5207    212.9578   1.1944965412e+02   7.8270475323e+00    0.1856569    0.1393579 -54.03 0.0003705552    1.470    0.320
        28  -9.3822     34.7243    202.5907   1.4259814212e+02   2.8703559543e+01    0.1807393    0.1552114  89.00 0.0006411505    1.213    0.176
        29  -9.3509    192.1916    193.3652   1.0765775226e+02   3.9360279976e+00    0.3083774    0.1715015 -65.45  0.001089461    3.561    0.719
        30 -11.4285     60.0359    197.8311   1.3698132329e+02   2.6583372491e+01    0.2785742    0.2253565 -63.80 0.0005148075    1.353    0.261
        31 -11.7549     66.4140    189.5760   1.3463026632e+02   2.7571449755e+01    0.2853864     0.238229 -64.03 0.0004817893    1.290    0.225
        32  -9.6863      6.9759    215.0203   1.4867179638e+02   2.9026417273e+01    0.1714162    0.1248484  86.16 0.0004562979    1.077    0.071
        33 -10.7635     76.6842    176.9223   1.3059990626e+02   2.9018539927e+01    0.2527853    0.2146296 -74.51 0.0003795145    1.110    0.099
        34 -13.1149     63.4382    174.8199   1.3336554289e+02   3.1407992091e+01    0.5159531     0.281976 -46.29    0.0019292    2.281    0.562
        35 -12.5883     32.9823    231.4487   1.4526471575e+02   2.2876895719e+01    0.2910686    0.2222071 -76.38  0.000758121    1.376    0.273
        36  -9.8093     96.5986    173.2921   1.2535344284e+02   2.6703900019e+01     0.259866    0.2305341  89.05 0.0007600752    1.013    0.013
        37 -11.6657     84.3686    167.7688   1.2736979542e+02   3.0006203832e+01    0.6382464    0.5778672 -55.34  0.003749903    1.231    0.187
        38 -13.6526     38.5411    224.0454   1.4370585510e+02   2.3708943017e+01    0.7480124    0.5473549  75.52  0.002370796    1.035    0.033
        39  -9.6593     97.1695    152.0895   1.2141998041e+02   3.1657483945e+01    0.2963746    0.2439119 -51.37 0.0007292547    1.234    0.190
        40  -9.0665    100.0920    147.9167   1.1985697847e+02   3.2151319157e+01    0.2196954    0.1770456 -26.41 0.0004006961    1.599    0.375
        41 -11.9413     85.7432    151.0604   1.2414000924e+02   3.3794464954e+01    0.3069629     0.249847 -47.74 0.0005917527    1.299    0.230
        42 -12.2290     67.4858    143.6541   1.2753104403e+02   3.8291942525e+01    0.6966352    0.4598088  67.80  0.003041166    1.795    0.443
        43  -8.2984    192.2691    144.2632   9.7198108012e+01   1.3705574771e+01    0.1445156    0.1209972   4.15 0.0002284038    1.462    0.316
        44 -10.9393    229.4521    229.6971   1.0713471184e+02  -8.7359709199e+00    0.5228744    0.3174023 -62.14  0.002169939    4.190    0.761
        45  -9.6248    109.3186    137.0707   1.1518620163e+02   3.3067284814e+01    0.4007907    0.2691837 -23.36  0.001568209    2.322    0.569
        46 -10.2601     96.3264    134.3427   1.1803647759e+02   3.6050635463e+01    0.2656529    0.2348513 -36.98 0.0005105619    1.232    0.189
        47 -10.9213     30.9624    131.2694   1.3514070302e+02   4.5459652460e+01    0.2385694     0.220137  68.74 0.0004989826    1.225    0.183
        48  -9.7534     78.3770    130.9627   1.2219935404e+02   3.9761002904e+01     0.242799    0.1960018  59.49 0.0004789493    1.340    0.254
        49 -12.1625     22.3375    126.8345   1.3677474156e+02   4.7251058075e+01      0.37114    0.3135556  53.91  0.001348078    1.370    0.270
        50  -8.7087    134.0000    145.9944   1.1088813126e+02   2.6098734425e+01    0.4414731    0.0873138 -49.49  0.001060039    5.014    0.801
        51  -8.9081    106.4866    123.9266   1.1294367192e+02   3.6681681893e+01    0.2115298     0.143044 -52.32 0.0003012923    1.412    0.292
        52 -10.3154    167.8721    112.9389   9.4816925667e+01   2.5870838576e+01    0.3513072    0.2822626 -82.88 0.0006906728    1.463    0.317
        53 -12.0527     91.8954    226.8691   1.3383643183e+02   1.5638400140e+01     1.423245    0.1820937  47.43  0.003737617    6.325    0.842
        54 -10.2331    242.4856     93.5126   7.6433696841e+01   1.2179130891e+01    0.1420528    0.1263735 -58.21 6.494069e-05    1.014    0.014
        55  -8.6349     67.9005     83.0409   1.1389619666e+02   5.2060426353e+01     0.153023    0.1417073 -24.42 0.0003955775    1.051    0.049
        56  -9.6762    158.1378     77.1714   8.7277924888e+01   3.5191449005e+01    0.2140475    0.1795942 -76.75 0.0005251613    1.324    0.245
        57 -11.1716      9.9320    227.8035   1.4895906968e+02   2.6155401882e+01    0.5006858    0.1574374 -87.39  0.002198485    3.318    0.699
        58  -8.6452     45.8686     68.8711   1.1733838922e+02   5.7665079885e+01    0.1492252    0.1444272 -69.12 0.0003411901    1.294    0.227
        59  -8.8966     31.8697     62.1325   1.2045896018e+02   6.0377828708e+01    0.1622186    0.1529843 -42.81 0.0005252025    1.248    0.199
        60 -11.6941     12.8543     54.5419   1.2550853512e+02   6.3308490464e+01    0.3425962    0.2015993  30.13  0.001417371    2.097    0.523
        61  -9.0328     55.5147    230.0507   1.4110919436e+02   2.0311831208e+01    0.2381814     0.126674  59.39 0.0009377445    1.604    0.377
        62 -10.3999    217.8799    248.7380   1.1246168995e+02  -9.5563550590e+00    0.2028493    0.1679245 -76.18  0.001247949    2.125    0.529
        63 -10.2016      2.3850     27.2232   1.2164959376e+02   6.8724831805e+01    0.1435712   0.08671581 -54.60 0.0009531439    1.706    0.414
        64 -10.4281    162.7247    249.4178   1.2292998207e+02  -4.8273505040e-01    0.2613761    0.1017121  45.51  0.001143889    2.161    0.537
