#   1 NUMBER                 Running object number                                     
#   2 MAG_AUTO               Kron-like elliptical aperture magnitude                    [mag]
#   3 X_IMAGE                Object position along x                                    [pixel]
#   4 Y_IMAGE                Object position along y                                    [pixel]
#   5 X_WORLD                Barycenter position along world x axis                     [deg]
#   6 Y_WORLD                Barycenter position along world y axis                     [deg]
#   7 A_WORLD                Profile RMS along major axis (world units)                 [deg]
#   8 B_WORLD                Profile RMS along minor axis (world units)                 [deg]
#   9 THETA_WORLD            Position angle (CCW/world-x)                               [deg]
#  10 FWHM_WORLD             FWHM assuming a gaussian core                              [deg]
#  11 ELONGATION             A_IMAGE/B_IMAGE                                           
#  12 ELLIPTICITY            1 - B_IMAGE/A_IMAGE                                       
         1  -9.4811     61.7199     26.9872   6.7029645774e+01   6.3565247091e+01    0.3473485    0.2110131   3.87 0.0005586668    1.970    0.492
         2 -11.5164     80.7559     23.1403   5.8572686993e+01   6.0457000548e+01    0.4762385    0.2377345  37.17 0.0001964272    1.852    0.460
         3  -8.9214     46.0615     20.6558   7.0727830571e+01   6.6948177789e+01    0.4586982    0.2041294 -29.96  0.002122307    2.216    0.549
         4  -9.4594     27.4320     21.4666   8.0164028330e+01   6.9328908702e+01    0.5575323    0.2950031 -23.35  0.003019669    1.803    0.445
         5  -9.0962      8.4750     19.9331   8.9971155411e+01   7.1403870342e+01    0.3407998    0.2362224  -0.08  0.001579241    1.278    0.218
         6 -10.3054     77.1921     13.3763   5.5528402199e+01   6.2222112699e+01      0.76259      0.24912  44.31  0.002737962    2.522    0.604
         7  -8.9333     64.4927     13.9000   6.0064827001e+01   6.4631726024e+01    0.3250772    0.1744241  20.66  0.001008714    2.104    0.525
         8  -8.6023    133.8503     13.4772   4.2250224513e+01   4.9408449663e+01    0.2464049    0.1885223  30.69 0.0005152256    1.432    0.302
         9  -8.9273    107.0339     10.4339   4.6428075873e+01   5.6014967411e+01    0.3273647    0.2118554  76.08  0.001709819    1.758    0.431
        10  -8.3770     96.7205     12.1351   4.9511481055e+01   5.8191565167e+01    0.2602515    0.1596811  28.73  0.001069146    1.671    0.402
        11  -8.2201     38.0000     12.4825   7.0484944220e+01   6.9182075614e+01      0.24906   0.06209343 -33.82 0.0009381708    3.962    0.748
        12  -7.5746    155.6797     12.1505   3.8475265475e+01   4.4235610836e+01    0.1614787    0.1232296  -5.34 0.0002586227    1.688    0.408
        13  -9.2356     31.3927     11.1557   7.3072429902e+01   7.0262860882e+01    0.3073659    0.1705198  14.58 0.0004250847    1.799    0.444
        14  -9.1060     32.2223      6.1218   7.0021827358e+01   7.0759770652e+01    0.3106688    0.1729202  27.43 0.0002073092    1.567    0.362
        15  -9.0185    124.9938     10.1746   4.2728517765e+01   5.1829731494e+01    0.3390747    0.1593067  48.65 0.0007698477    1.867    0.464
        16  -7.7402    113.0373     10.9271   4.5321568593e+01   5.4583712914e+01    0.2122739     0.131869  33.41 0.0005980131    1.660    0.398
        17  -8.1928     13.8861     10.9056   8.2566918183e+01   7.2321260444e+01    0.1618127    0.1335059  -5.66 0.0003881374    1.243    0.195
        18  -9.7323     20.2682      8.6782   7.7748894563e+01   7.1955355585e+01    0.3607225    0.1980396  13.13  0.002099848    1.741    0.426
        19  -8.8392      3.6019      7.1763   8.6988667077e+01   7.3775342850e+01    0.4018404    0.1636185 -19.59  0.001879326    2.936    0.659
        20  -7.4954    142.7696      9.4811   3.9548097946e+01   4.7613028720e+01    0.1787342    0.1026877  56.26 0.0005087983    1.499    0.333
        21  -8.5115     71.4100      8.6511   5.5278556669e+01   6.3828520522e+01    0.2052339    0.1563589 -15.23 0.0009324973    1.389    0.280
        22  -8.9111     76.8784      6.9007   5.2782751283e+01   6.2888445034e+01    0.2686116    0.1345697  49.42  0.001342692    1.655    0.396
        23  -8.7074     40.9461      5.7436   6.5645512209e+01   6.9516464591e+01    0.2474913    0.1425225  -5.80 0.0009759789    1.799    0.444
        24  -7.6062    131.9865      5.6965   4.0045731840e+01   5.0535608185e+01    0.2277286    0.1056266 -57.31 0.0009042342    3.333    0.700
        25  -9.6465     84.8944      5.3134   4.9807345328e+01   6.1351129419e+01    0.2689581    0.2179018   8.58  0.001121903    1.251    0.200
        26 -10.2346     13.6058      4.4979   7.9395877728e+01   7.3232924095e+01    0.3044515    0.1880683  15.07 -0.0002018367    1.410    0.291
        27  -8.1810     47.0169      5.1651   6.2675387065e+01   6.8603016571e+01    0.2143788    0.1080965  23.51   0.00109069    2.003    0.501
        28  -8.4520    125.2541      3.5329   4.0450040037e+01   5.2316035004e+01    0.1944543    0.1773995 -14.19  0.000684234    1.286    0.222
        29  -9.0956     57.6806      3.3447   5.7532430613e+01   6.6919251823e+01    0.2410731    0.1770835  18.25 0.0005890108    1.150    0.131
        30  -8.5542    166.9682      2.0677   3.4273062907e+01   4.2424268275e+01     0.224823    0.1682674  51.03   0.00105429    1.394    0.283
        31  -7.4250    153.6422      3.1907   3.6169393131e+01   4.5526096374e+01    0.1464885    0.1224995   2.77 0.0002920166    1.516    0.341
        32  -7.3504    134.2954      3.2984   3.8912487560e+01   5.0175133203e+01    0.1310275   0.08314308  42.69 0.0002226483    1.569    0.363
        33  -8.5976    105.3913      1.6667   4.3502680582e+01   5.7096653601e+01    0.2595847    0.1308885  58.87 0.0009415675    1.610    0.379
        34  -7.8569    159.7446      1.3235   3.4896856690e+01   4.4215108497e+01    0.1712931   0.09552789  64.94 0.0002811909    1.502    0.334
        35  -8.2930     91.0457      5.5232   4.8287176084e+01   6.0008658197e+01    0.2000844    0.1089838  57.43  0.000644927    1.589    0.371
        36  -7.8701     12.3926    120.7831   1.1317542990e+02   4.9201474462e+01    0.2017939   0.09220381 -60.39 0.0009534433    1.710    0.415
        37  -9.9441    198.7099    248.5276   8.6012185803e+01  -5.6973095830e+00    0.3276249    0.2772316  50.66  0.001290454    1.735    0.424
        38  -8.8064    160.2923    250.0161   9.3973960298e+01  -3.4228331105e-01    0.1771694    0.1559015  13.24  0.001175578    1.097    0.088
        39  -8.5488     86.2555    250.4041   1.0938243616e+02   1.0499393172e+01    0.1782165    0.1393864  30.40 0.0003803374    1.315    0.240
        40  -7.3768    120.3021    118.3442   7.8248112722e+01   3.4897227428e+01    0.1653903    0.1254046 -11.10 0.0003347874    1.682    0.405
        41  -7.7720    240.7032    112.3360   5.1395058844e+01   1.0475863717e+01     0.138097   0.09538829 -61.17 0.0003930916    1.651    0.394
        42  -8.4132     29.1975    112.4149   1.0636074920e+02   5.0027585422e+01    0.1821679    0.1208137  39.10 0.0009511384    1.734    0.423
        43  -9.5245    248.7228    108.9418   4.9539096759e+01   9.5766116005e+00     0.467659    0.1555599 -48.89  0.001671728    3.217    0.689
        44  -9.7930    247.3275    102.9730   4.8450227591e+01   1.0815922160e+01    0.4238583    0.2327566 -63.57   0.00184519    2.634    0.620
        45  -7.9629     75.4806    110.1676   9.0051443366e+01   4.5032769729e+01    0.2222249    0.1418518 -54.05 0.0005687478    1.486    0.327
        46  -8.0428      1.5024    110.0504   1.1525615888e+02   5.2475727307e+01    0.1996828      0.10093 -69.58  0.000543569    1.556    0.357
        47  -8.1813    134.0541    106.3880   7.1225916732e+01   3.4649664431e+01    0.3149884    0.2196243 -24.91 0.0009473341    1.687    0.407
        48  -7.3145    124.6771    106.6746   7.3865344813e+01   3.6628346597e+01     0.164456    0.1258609  -2.62  0.000704797    1.686    0.407
        49  -8.1997    109.1916    106.3539   7.8271160658e+01   3.9914932995e+01    0.2246108    0.1977651 -27.22  0.001121006    1.137    0.121
        50  -7.6680     76.6480    106.6896   8.8780067549e+01   4.5693180946e+01    0.1591585    0.1126891 -18.71 0.0007044504    1.721    0.419
        51  -8.8708     14.9693    105.1332   1.1001030642e+02   5.2906273470e+01    0.4012947    0.1573402 -32.71   0.00155584    3.286    0.696
        52  -8.1245     68.2553    104.3036   9.1039071572e+01   4.7541224283e+01    0.4601979    0.1491432  24.20  0.001240719    5.131    0.805
        53  -8.0462     94.1338    102.8388   8.1981131696e+01   4.3615750539e+01    0.2175114    0.1809266   0.65  0.000737323    1.336    0.251
        54  -7.6143    188.4168     96.7560   5.6322611682e+01   2.4135660617e+01    0.2097456    0.1411161 -27.50 0.0009398481    1.640    0.390
        55  -9.7418     11.6209     94.2351   1.0936239755e+02   5.5758382582e+01    0.5213223    0.2353386 -26.51  0.002074641    2.736    0.634
        56  -9.4821     93.3707     91.8067   7.9064551672e+01   4.6246210446e+01    0.2967514    0.2580858  28.69 0.0003315286    1.163    0.140
        57  -7.9198     97.6739     89.6453   7.7023222657e+01   4.5896579046e+01     0.301431    0.1953323 -10.10  0.001175871    2.362    0.577
        58  -8.5264     43.6375     92.0994   9.6901860629e+01   5.3599511352e+01     0.356014    0.2405374 -10.54  0.001780514    1.751    0.429
        59  -9.1554     21.0911     91.5160   1.0531814216e+02   5.5782581548e+01    0.5178116    0.1959597 -27.36  0.001757168    4.264    0.765
        60  -7.9535     56.4007     91.8048   9.2047452705e+01   5.2144910968e+01       0.2066    0.1166845 -43.43  0.000245719    1.609    0.378
        61  -7.2551    109.6711     90.6519   7.3593031840e+01   4.3271871664e+01    0.1639939    0.1211141  -2.57 0.0001603237    1.760    0.432
        62 -10.2647     37.2504     81.3741   9.6672353391e+01   5.6762287238e+01    0.7779108    0.3844515 -20.97   0.00308566    2.932    0.659
        63  -8.6296     66.0651     84.0923   8.6295459738e+01   5.2555965841e+01    0.2545213    0.2093095 -17.59 0.0003782306    1.195    0.163
        64  -8.0345     20.9148     84.6167   1.0393936856e+02   5.7424835139e+01    0.1701385    0.1513564 -30.40 0.0003929368    1.124    0.110
        65  -8.6105    242.5287     83.4584   4.4857503451e+01   1.4876965786e+01    0.1326947    0.1116199 -52.17 0.0008084957    1.006    0.006
        66  -7.7206    127.4530     83.1752   6.6245779367e+01   4.0916773319e+01    0.2972869    0.1737962  27.89  0.001026855    2.303    0.566
        67  -8.6988     87.3690     79.3082   7.7223013116e+01   5.0026527494e+01    0.4495196    0.2582787  18.70  0.001745063    2.463    0.594
        68  -8.1288    250.4980     79.5067   4.3064173083e+01   1.3962131429e+01    0.1301321    0.1069284 -52.32 0.0008106498    1.006    0.006
        69  -9.2166     50.3528     76.4913   9.0079003014e+01   5.6381525666e+01     0.522222    0.2832806   0.03   0.00206189    2.928    0.658
        70  -9.4719      9.0750     76.7426   1.0700180647e+02   6.0002395539e+01    0.5311593    0.2251671 -29.68  0.002382217    2.549    0.608
        71  -7.7265    184.2440     78.2341   5.2270732963e+01   2.8394968478e+01    0.2013708    0.1652651 -74.74 0.0008051952    1.305    0.234
        72  -7.9869    105.8048     76.4080   7.0329174957e+01   4.6968719023e+01    0.2160707    0.1385686  32.95 0.0007585845    1.635    0.388
        73  -8.3311     74.8168     74.3063   8.0033518570e+01   5.3265065852e+01    0.2394717    0.1972669 -29.17 0.0003165989    1.137    0.120
        74  -9.0028     29.6099     68.6878   9.6400422616e+01   6.0319053782e+01    0.4936199    0.2184175 -12.66   0.00168749    4.366    0.771
        75  -9.1276     23.9165     73.7160   1.0015821668e+02   5.9693145566e+01    0.4895981    0.1687807 -42.15  0.001992916    2.499    0.600
        76  -8.1118     23.4729     69.4595   9.9243959443e+01   6.0673037010e+01     0.264791    0.1976054 -48.01 0.0008354645    1.133    0.118
        77  -8.8957     48.5967     71.0518   8.9142678728e+01   5.7773998795e+01    0.3321357    0.1897213  31.39  0.001584237    1.863    0.463
        78  -7.9349    128.6752     69.6241   6.1708645706e+01   4.3145127206e+01    0.2474909    0.1801495  16.84  0.001117876    1.742    0.426
        79  -8.4621    106.2896     67.0900   6.7114636636e+01   4.8610117382e+01    0.3412076    0.2196647  19.10  0.001441062    2.053    0.513
        80  -9.0704     83.4126     64.6754   7.3714229163e+01   5.3636910518e+01    0.5178377    0.3161463   1.63  0.002044147    2.652    0.623
        81  -9.4099     17.6772     62.3542   9.9875614307e+01   6.2653156607e+01    0.5292063    0.2285367 -33.69  0.002432302    2.216    0.549
        82 -10.0514     62.0189     61.2082   8.0473384172e+01   5.7917689274e+01    0.6173282    0.2742241  26.38 0.0004370198    2.627    0.619
        83  -9.7845     35.7837     59.2667   9.0855593221e+01   6.1697092023e+01    0.5829551     0.323456  10.61  0.002855758    2.064    0.516
        84  -8.5772    245.5112     61.4916   3.9813474342e+01   1.7619901621e+01    0.1286998    0.1049824 -58.54 -1.40983e-05    1.013    0.013
        85  -8.5011     11.4462     60.8583   1.0228088949e+02   6.3387163557e+01    0.2074171     0.154242 -54.65  0.001094894    1.205    0.170
        86  -8.0082    249.3260     58.9958   3.8899416760e+01   1.7230756500e+01    0.1879745    0.1040342 -15.24 0.0007047739    4.280    0.766
        87  -8.0090     49.3783     58.6652   8.4761769256e+01   6.0205514493e+01    0.1817361      0.16536  76.90  0.001077732    1.631    0.387
        88  -8.0588    111.4858     58.0556   6.2532063737e+01   4.9029147205e+01    0.3221351    0.1553845  35.59  0.000769155    2.389    0.581
        89  -9.2719     99.5891     55.0214   6.4977040176e+01   5.2109425234e+01     0.358608    0.2781627 -22.69 0.0007179977    1.327    0.246
        90 -10.1857     74.9777     50.3696   7.1540158004e+01   5.7711666547e+01    0.4113385     0.276507   2.88 0.0003507842    1.779    0.438
        91  -8.3369    118.4802     51.0307   5.8229961844e+01   4.8546403034e+01    0.2500216    0.1976067  67.37 0.0007083019    1.406    0.289
        92  -8.7079    106.4662     48.9401   6.0769307688e+01   5.1577329152e+01    0.4087873    0.2451179  11.08  0.001614161    2.708    0.631
        93  -7.8007    172.1088     49.9322   4.6692111304e+01   3.5745830420e+01    0.1944384    0.1701117 -72.65            0    1.128    0.114
        94  -9.0351     45.2565     48.8948   8.3025001165e+01   6.2590675434e+01    0.3124863    0.2018956 -14.76  0.001105748    1.605    0.377
        95  -8.5663     10.0271     47.4979   9.9190992789e+01   6.6248108476e+01    0.2711885    0.1716655 -28.90  0.001211375    1.327    0.246
        96  -9.0458     13.5105     45.5168   9.6847099068e+01   6.6408521362e+01    0.2988186    0.2389103 -68.82  0.001475285    1.634    0.388
        97  -9.1566     55.4946     43.4538   7.6500399602e+01   6.2103845867e+01    0.6330649    0.2497853 -25.19  0.002020228    4.493    0.777
        98  -9.1097     58.6558     40.6577   7.4062184992e+01   6.2070184599e+01    0.2862899    0.1615325  12.59   0.00127739    2.311    0.567
        99  -8.4236      3.4007     40.2241   1.0029478968e+02   6.8074468271e+01    0.2446105    0.0954197 -43.69  0.001242104    1.867    0.464
       100 -10.7286     82.9604     40.2061   6.4788310594e+01   5.7793974795e+01    0.4088169    0.2602063 -11.89            0    1.840    0.456
       101  -8.4744     87.5258     37.9944   6.2414556845e+01   5.7193071085e+01    0.2946008    0.2003283  23.38  0.000818839    1.512    0.339
       102  -8.5133     92.4841     43.3938   6.2914860887e+01   5.5401289411e+01    0.4866698    0.2406798  24.20  0.001696593    3.262    0.693
       103  -7.9800     98.0042     42.0000   6.0700373700e+01   5.4436431639e+01    0.3322153    0.1501354  55.14  0.001327062    2.358    0.576
       104  -7.3226    162.9791     43.0285   4.6271385703e+01   3.8929176551e+01    0.1653161    0.1520773  78.29 0.0003676314    1.005    0.004
       105  -7.8014    122.9299     40.7742   5.3618144374e+01   4.8962311527e+01    0.2802697    0.1713436  10.70  0.001156373    2.576    0.612
       106  -8.3601     17.9493     39.0000   9.2373205379e+01   6.7313679667e+01    0.1656499    0.1505931  50.89 0.0008070357    1.682    0.405
       107  -9.3347     20.8270     36.2425   8.9869660758e+01   6.7567688083e+01    0.4371724    0.1480459  28.93  0.001947492    3.041    0.671
       108  -8.2153    105.0234     37.2557   5.6931190908e+01   5.3547484202e+01    0.3927849    0.1900861  31.94  0.001534758    2.602    0.616
       109  -9.4371     67.5067     37.5468   6.9276164435e+01   6.1068214362e+01    0.2669352    0.1826097  27.84  0.001008502    1.355    0.262
       110  -9.3907     70.8193     35.3913   6.7140595908e+01   6.0789956361e+01    0.3111351    0.2195966  20.76   0.00126276    1.350    0.259
       111  -7.1317     52.3878     38.2436   7.5706490231e+01   6.3424110140e+01    0.1357054   0.08803717   5.90 0.0006936245    1.656    0.396
       112  -8.6513     35.6508     37.6753   8.3078255446e+01   6.5766629963e+01    0.2192639    0.1487179 -26.45 0.0007585973    1.275    0.215
       113  -8.8941     38.7955     35.3969   8.0650389660e+01   6.5764212667e+01    0.3224735    0.1797213  21.57  0.001241301    1.785    0.440
       114  -8.2551     92.3863     36.4125   6.0272077188e+01   5.6402151198e+01    0.2430459    0.1808963  10.30 0.0005711008    1.431    0.301
       115  -8.4882      2.4795     45.0662   1.0221774684e+02   6.7164373396e+01    0.2671436    0.1549578 -40.47  0.001610416    1.305    0.234
       116  -9.0023      5.7234     33.9509   9.6993173891e+01   6.9135638499e+01    0.3006254     0.266891 -52.88  0.002186197    1.419    0.295
       117  -8.6878      1.8777     30.1992   9.7778817782e+01   7.0056502367e+01     0.298386    0.1862812 -73.41  0.001622867    2.670    0.625
       118  -8.4097     55.6297     34.6778   7.2836350011e+01   6.3480892752e+01    0.2502016    0.1492098 -35.47   0.00131774    1.670    0.401
       119  -8.8690     96.3192     32.9515   5.7762600953e+01   5.6015291647e+01    0.2462908    0.1716175  37.83 0.0003387914    1.299    0.230
       120  -7.8623    133.9407     31.2712   4.8028804262e+01   4.7517129853e+01    0.1902666    0.1640227  46.57 0.0004371147    1.093    0.085
       121  -9.0079     21.1936     32.0235   8.8020184867e+01   6.8276975626e+01    0.3191692    0.1630023  18.96 0.0007260162    1.972    0.493
       122  -8.2691    228.9984     29.7432   3.4670902424e+01   2.5293244260e+01    0.1687945    0.1519017  77.83 0.0005112787    1.257    0.205
       123  -8.7312    213.3852    249.2122   8.3287946830e+01  -7.7958534428e+00    0.1513361    0.1100189 -39.39 0.0009516832    1.710    0.415
       124  -9.7245     71.3422     25.7104   6.2861144286e+01   6.1988451884e+01    0.4928047    0.2943054  24.64  0.001457327    1.701    0.412
       125  -9.2175    206.8710    248.8095   8.4470808751e+01  -6.8628224589e+00    0.2539224    0.1884262  55.37  0.001447543    2.387    0.581
       126  -8.7610     41.8934     27.9075   7.5964302934e+01   6.6531483516e+01    0.2372351    0.1609442  -0.99            0    1.399    0.285
       127  -9.3609    191.6187    247.6884   8.7279466622e+01  -4.5739558539e+00    0.3203238     0.154364 -49.58  0.001513425    2.938    0.660
       128  -8.3255    109.5166     25.5378   5.1448251470e+01   5.3949544624e+01     0.229895     0.215256  36.25 0.0006374242    1.072    0.067
       129  -9.0164    150.9866    248.5295   9.5691355702e+01   1.2988063147e+00    0.2873544    0.1205869 -36.38  0.001193543    3.333    0.700
       130  -8.0278      3.3258     24.6550   9.4900562048e+01   7.0964582024e+01    0.2181066    0.1151873 -44.46 0.0008524976    1.519    0.342
       131  -7.7602    240.9732     24.4927   3.2562003080e+01   2.3444083038e+01    0.1628573    0.1054256  81.07 0.0004124589    1.479    0.324
       132  -8.0394    128.8723     22.5799   4.6163966890e+01   4.9709074930e+01    0.2100446    0.1794865  21.49 0.0005829114    1.272    0.214
       133  -8.9684     92.3578     20.7011   5.4081719505e+01   5.8300567476e+01    0.3169294    0.2035408  24.36  0.001144628    1.634    0.388
       134  -7.8665    172.6727    246.6710   9.0944765858e+01  -1.6559990788e+00    0.1319461   0.08819582   2.57 0.0003135081    1.706    0.414
       135  -8.9653     14.1770     18.0029   8.5811640777e+01   7.1230707773e+01    0.3070755    0.1650037   6.21 0.0008456931    1.876    0.467
       136  -7.6130    140.6422     19.9559   4.3148291588e+01   4.7131293718e+01    0.1734478    0.1624153  67.92  0.000466073    1.063    0.059
       137  -8.5763    222.6242    248.1992   8.1384724875e+01  -8.8704005334e+00    0.1660087   0.09506883 -21.80 0.0006041532    1.703    0.413
       138  -8.0030    127.7824     16.7916   4.4437001061e+01   5.0554851209e+01    0.1961628     0.159194  45.82  0.000452975    1.144    0.126
       139  -7.4602    189.5160     15.5248   3.5274448770e+01   3.5789627799e+01    0.1281381    0.1091559 -87.97 0.0008099246    1.012    0.011
       140  -8.1966    237.9929    243.3055   7.7760825296e+01  -1.0163118962e+01    0.1641153     0.120195   9.64 0.0003203551    1.103    0.093
       141  -7.0528    178.3111     14.3279   3.6213944060e+01   3.8563878979e+01    0.1279083   0.09118043  42.56 0.0007041395    1.664    0.399
       142  -9.1558    187.9876    233.9504   8.5814383462e+01  -1.9256058434e+00     0.229627     0.202122 -56.44 0.0008491516    1.614    0.380
       143  -7.7000    219.9467    234.4802   7.9605538656e+01  -6.6027293006e+00    0.1762414    0.1061977  28.40 0.0003882082    1.498    0.332
       144  -7.2689    151.0108     12.9940   3.9382976443e+01   4.5290496011e+01    0.1497522    0.1373167  77.44 0.0003716206    1.062    0.059
       145  -7.9676    198.8462    232.1019   8.3313402047e+01  -3.2497653362e+00    0.1775189     0.160596  13.27 0.0004629371    1.235    0.190
       146  -8.2020     88.3136     13.0504   5.2100809676e+01   5.9938855758e+01    0.2304412    0.1457362  41.22 0.0006788115    1.342    0.255
       147  -9.1836    186.4602    225.4965   8.4715950055e+01  -3.0873288432e-01    0.3045053    0.2140579  37.37 -0.000498668    1.399    0.285
       148  -8.5323    217.9763    225.1257   7.8360931611e+01  -4.9432873601e+00    0.1880441    0.1523199   3.58 0.0003625365    1.034    0.033
       149  -7.0964     78.2572    222.3204   1.0817344161e+02   1.7248775848e+01    0.1182714    0.1007956 -31.53 0.0003228762    1.543    0.352
       150  -8.4802    187.6084    220.7888   8.3668655073e+01   3.0579431563e-01      0.22565    0.1939822  32.21 0.0002949233    1.237    0.191
       151  -7.1965     55.9633    219.9866   1.1286501699e+02   2.0718968214e+01    0.1467501    0.1239147  72.16            0    1.028    0.027
       152  -8.2054    188.0886    216.0669   8.2739362116e+01   1.0401206893e+00    0.1989982     0.171452   7.28 0.0002909499    1.013    0.013
       153  -7.0886    100.7550    215.0323   1.0215605420e+02   1.5503825476e+01    0.1498619    0.1162734 -66.83 0.0008219548    1.390    0.281
       154  -7.8683     56.1190    214.9053   1.1234483010e+02   2.1816410347e+01    0.1578866    0.1405905 -65.28   0.00101129    1.273    0.214
       155  -7.6762    215.1782    213.2239   7.6762439142e+01  -2.6773512602e+00    0.1592439    0.1515303   4.82 0.0003496361    1.353    0.261
       156 -10.2633    155.1040    210.2802   8.8891131420e+01   7.5635455285e+00    0.2500292    0.2348949 -10.61 0.0002670846    1.097    0.088
       157  -7.9315    107.0334    206.6559   9.9507914952e+01   1.6341078380e+01    0.1945476    0.1649582  39.64 0.0003094443    1.102    0.093
       158  -8.4331    220.0141    204.8092   7.4264096336e+01  -2.0391812409e+00    0.1975449    0.1667761   1.10 0.0005700815    1.059    0.056
       159  -8.1532    139.1137    198.9566   9.0626259661e+01   1.2626181767e+01    0.2057434    0.1837078  56.32  0.001135275    1.199    0.166
       160  -8.0036    132.9796    198.9994   9.2090965127e+01   1.3682266848e+01    0.2040417    0.1904363  25.06            0    1.026    0.026
       161  -7.7571    223.1678    188.0120   7.0412719278e+01   2.7968844968e-01    0.1779497    0.1470324 -14.05            0    1.029    0.028
       162  -7.5333     86.0957    184.0197   1.0132046959e+02   2.4863679773e+01    0.1666482    0.1559744  63.44 0.0003926877    1.027    0.026
       163  -7.9272     41.8258    179.2006   1.1201809185e+02   3.1900718051e+01    0.2006009    0.1589971  72.26 0.0004401406    1.176    0.150
       164  -7.1178    101.0336    176.0010   9.6130001718e+01   2.4431546698e+01    0.1665681    0.1613509  77.06            0    1.007    0.007
       165  -7.4006    136.5826    165.4420   8.4860866760e+01   2.0557601225e+01    0.1546214     0.145665  -7.39 2.894822e-05    1.079    0.073
       166  -8.9060     67.2447    144.5771   1.0001514094e+02   3.7535393138e+01    0.5871953    0.3222067  61.37  0.002266719    2.609    0.617
       167  -7.6882      4.9779    134.0000   1.1699357526e+02   4.6383776128e+01    0.1738101   0.07455231  17.50 0.0007948243    2.890    0.654
       168  -7.3241    187.6777    132.3526   6.5311390950e+01   1.7365820436e+01    0.1560876    0.1210243 -75.41 0.0007047547    1.754    0.430
       169  -7.3976    113.6817    128.6672   8.2759785959e+01   3.3776950454e+01    0.1652139    0.1247159 -13.41 0.0005495028    1.693    0.409
       170  -7.6351     84.9805    121.6860   8.9757008542e+01   4.0677112035e+01    0.2426836    0.1297071   9.01 0.0007045907    4.254    0.765
