#   1 NUMBER                 Running object number                                     
#   2 MAG_AUTO               Kron-like elliptical aperture magnitude                    [mag]
#   3 X_IMAGE                Object position along x                                    [pixel]
#   4 Y_IMAGE                Object position along y                                    [pixel]
#   5 X_WORLD                Barycenter position along world x axis                     [deg]
#   6 Y_WORLD                Barycenter position along world y axis                     [deg]
#   7 A_WORLD                Profile RMS along major axis (world units)                 [deg]
#   8 B_WORLD                Profile RMS along minor axis (world units)                 [deg]
#   9 THETA_WORLD            Position angle (CCW/world-x)                               [deg]
#  10 FWHM_WORLD             FWHM assuming a gaussian core                              [deg]
#  11 ELONGATION             A_IMAGE/B_IMAGE                                           
#  12 ELLIPTICITY            1 - B_IMAGE/A_IMAGE                                       
         1  -8.5289    113.8573     71.0140   7.8986799179e+01   4.6296090912e+01    0.2766705    0.2058937  26.36  0.001056026    1.499    0.333
         2  -9.8087    214.2893    237.9783   9.3699396224e+01  -5.1118744147e+00    0.7876338    0.4146172   7.74  0.003512064    3.256    0.693
         3 -10.4454    235.1877    216.8126   8.6490578726e+01  -5.7448479367e+00     1.072064    0.5425871  20.51  0.005225968    2.228    0.551
         4 -11.7442    247.0220    190.9704   7.9652647190e+01  -4.2536099950e+00     1.177748     0.692425 -16.53  0.006252915    1.737    0.424
         5 -10.6630    239.3943    205.9120   8.3796678799e+01  -5.0120274917e+00     1.368819    0.6109654  20.70  0.005415673    3.370    0.703
         6 -10.8955    218.0683    246.9063   9.4400702483e+01  -6.7465043483e+00     1.018055      0.60038   1.06  0.005755785    2.169    0.539
         7 -10.6742    236.9416    226.1698   8.7797128516e+01  -7.1610431219e+00      1.10704    0.5446928   1.78  0.004449344    3.931    0.746
         8 -10.6094    204.3066    248.6663   9.7073357850e+01  -4.8645229444e+00    0.8915124    0.3771694  32.46  0.004499171    2.041    0.510
         9  -9.6294    211.7920    245.5030   9.5288675732e+01  -5.6334204859e+00    0.4563102     0.250977  14.40  0.002215196    2.272    0.560
        10 -11.4998    248.5423    214.2324   8.3725693634e+01  -7.4747009280e+00     1.499162    0.5438236 -27.90  0.006714787    2.941    0.660
        11 -10.4930    226.0170    240.5418   9.2039593679e+01  -7.2043067724e+00    0.6730093    0.3908767   3.16  0.003745508    2.109    0.526
        12  -9.8758    248.1443    223.5815   8.5435317741e+01  -8.5242189183e+00     0.477756    0.2479227  23.98  0.001951272    1.781    0.439
        13 -10.8150    243.8077    228.7179   8.7048177433e+01  -8.4811535695e+00    0.8384748    0.3297733  38.93  0.004186362    2.228    0.551
        14 -11.2754    233.0500    243.9564   9.1362779684e+01  -8.6259012031e+00     1.101591    0.5328088  13.47  0.005169869    2.962    0.662
        15 -11.4867    244.9372    237.3117   8.8282341423e+01  -9.6068807598e+00     1.175403    0.5374594  38.71   0.00650507    1.921    0.479
        16 -10.7905    246.5533    250.1908   9.0062373572e+01  -1.1187644728e+01     1.023883    0.1769978  38.26  0.003709414    4.626    0.784
        17 -11.3174    245.5208    244.5046   8.9341750163e+01  -1.0459149954e+01     1.245831    0.3664834  30.65  0.005125172    3.482    0.713
        18  -8.9004    185.0233    250.3404   1.0073732475e+02  -2.0737147792e+00    0.3004754    0.1222716  38.98  0.001507082    1.916    0.478
        19  -7.9634    177.9880    250.5717   1.0202958185e+02  -9.9554996098e-01    0.1857977   0.09168052  38.93  0.001013787    1.573    0.364
        20  -9.9578    167.5806    249.9897   1.0382856129e+02   7.3148179271e-01    0.6415192    0.1968286  41.64  0.002793697    2.521    0.603
        21  -9.1872    171.4061    245.8372   1.0258953065e+02   6.8679106098e-01     0.476808    0.1371221  36.94  0.001856119    3.151    0.683
        22  -9.8450    140.4198    245.5382   1.0823005175e+02   5.7037812071e+00    0.3783609    0.1516988  49.28  0.001798659    2.170    0.539
        23  -9.1601    138.7416    250.2564   1.0908333404e+02   5.2635297643e+00    0.2947299    0.1251652  42.82  0.001230815    1.813    0.449
        24  -9.3844    144.8306    249.2729   1.0786529490e+02   4.4483447173e+00    0.3517536    0.1935964  38.08   0.00202003    1.499    0.333
        25 -11.2239    127.3094    240.1423   1.1002580263e+02   8.6279817680e+00    0.5135954    0.2650825  47.10  0.002824622    1.544    0.352
        26  -9.7048    119.2376    249.0125   1.1247205503e+02   8.4795096254e+00    0.3119574    0.2300615  -0.23  0.001790001    2.668    0.625
        27  -9.2357    115.0117    247.5238   1.1308099812e+02   9.3587268500e+00     0.254487    0.1192428  42.65  0.001212383    1.687    0.407
        28 -10.2583    119.4943    244.7566   1.1197731894e+02   9.1121600056e+00    0.2825067    0.1504342  33.30  0.001507231    1.980    0.495
        29  -9.9169    129.0964    248.9064   1.1067901172e+02   6.9746117647e+00    0.5461365    0.1543897  46.31   0.00228821    2.786    0.641
        30  -9.3425    125.0486    245.4865   1.1104104992e+02   8.1347703127e+00     0.263268   0.09486962  41.40 0.0009936771    2.206    0.547
        31  -9.6668    108.9276    249.0612   1.1432866295e+02   1.0031791246e+01    0.3634423    0.2060011  25.10  0.001816252    2.859    0.650
        32  -8.1371     96.0631    250.5238   1.1674877819e+02   1.1687388981e+01    0.1782537   0.08994136  43.28  0.001028724    1.584    0.369
        33  -9.0047     88.9350    249.6376   1.1792250277e+02   1.2850455992e+01    0.2663818    0.1706598  44.31  0.001559478    1.326    0.246
        34  -9.4068     73.9514    250.1699   1.2056233131e+02   1.4829663131e+01    0.2937443    0.1419462  38.37  0.001682858    1.965    0.491
        35  -9.8674     63.0556    248.5232   1.2229921768e+02   1.6542506126e+01    0.3845257    0.2127455  34.27  0.002314135    2.096    0.523
        36  -9.3504     49.0510    249.7028   1.2471940652e+02   1.8098860837e+01    0.2664729      0.18632  32.54    0.0018637    1.899    0.473
        37 -11.2146     12.7320    239.6005   1.3006199362e+02   2.3906120750e+01    0.5625954    0.1388756  44.88  0.003006843    2.691    0.628
        38 -10.3675      5.3495    235.2924   1.3104622912e+02   2.5398098966e+01    0.3552884    0.1533381  40.12  0.002284511    2.134    0.531
        39 -10.4354      3.3796    242.0935   1.3162377230e+02   2.4396416463e+01     0.768782    0.2038133  71.11  0.003383834    4.102    0.756
        40  -9.6201      3.5402    248.5153   1.3184110654e+02   2.3282982227e+01    0.4106067   0.08817793  43.13  0.002206854    2.948    0.661
        41 -10.5785     10.8640    247.4502   1.3068778623e+02   2.2737171126e+01    0.4647534    0.1363059  40.31  0.002597686    2.746    0.636
        42  -8.9802    187.5203    245.5055   9.9619030054e+01  -1.8459596919e+00    0.3055233    0.1479364  35.08  0.001308798    1.691    0.409
        43  -8.8458    192.9506    242.2172   9.8167282939e+01  -2.2837385692e+00    0.3436616    0.1645159  31.71  0.001614323    1.863    0.463
        44  -9.5834    152.2503    249.1416   1.0650136404e+02   3.2897866720e+00    0.4256419    0.1393533  44.26  0.001899332    2.386    0.581
        45  -8.7967    191.9479    248.5578   9.9252752001e+01  -2.9340956882e+00     0.265695    0.1627277  26.49  0.001599626    1.471    0.320
        46  -8.6060     32.2966    247.7737   1.2733637481e+02   2.0391654417e+01    0.1911035    0.1276663  39.36  0.001394522    1.682    0.405
        47  -8.7343     25.2984    248.5544   1.2849048893e+02   2.1033487122e+01    0.1879081   0.06959657  45.32  0.001120611    2.027    0.507
        48  -9.5130     99.4786    247.0322   1.1582415933e+02   1.1759515401e+01    0.2141653    0.1435951  35.07  0.001016339    1.582    0.368
        49  -9.8629    104.8857    245.9512   1.1475092923e+02   1.1137197140e+01    0.2965249    0.1252137  41.87  0.001264158    1.908    0.476
        50  -7.7591     56.3354    247.2943   1.2335036278e+02   1.7608067738e+01   0.08878697   0.08477148  38.85 0.0006137685    1.644    0.392
        51  -8.4168    206.0983    240.1733   9.5497142758e+01  -4.1042421798e+00      0.21998    0.1291139  33.26  0.000595132    1.363    0.266
        52  -9.4691    198.6738    244.4778   9.7466119534e+01  -3.4768366344e+00    0.3729481    0.2378806   2.88  0.001896627    2.043    0.510
        53  -8.8504    201.5299    239.5362   9.6221472228e+01  -3.3034995118e+00    0.2194679    0.1558037  21.85 0.0007952092    1.238    0.192
        54 -10.1419    158.3519    244.8441   1.0484955781e+02   2.9292332355e+00    0.4516371    0.2581125  22.46  0.002297575    2.357    0.576
        55  -9.5760    163.9711    243.9648   1.0370281263e+02   2.1469838598e+00    0.3147504    0.1599352  40.02  0.001308217    1.556    0.357
        56  -9.1356    147.8564    244.8123   1.0677573718e+02   4.6234780100e+00    0.3144371    0.1360643  34.51  0.001487601    2.237    0.553
        57  -9.4753     95.0997    244.7344   1.1639471720e+02   1.2778445760e+01    0.2394098    0.1990714  18.67  0.001642801    1.785    0.440
        58  -9.4184     82.1020    244.1745   1.1866107881e+02   1.4723644118e+01    0.3240781    0.1848457  38.38  0.001957306    1.697    0.411
        59  -9.2952     42.3248    244.3879   1.2550826923e+02   1.9818456372e+01    0.2449119    0.1815531  30.76  0.001757157    1.911    0.477
        60  -9.5664    178.5098    243.3644   1.0095654772e+02  -1.1951300001e-01    0.4663568    0.2075536  36.97  0.001932401    1.836    0.455
        61  -8.6454    153.1658    243.7794   1.0566905304e+02   3.9211280221e+00    0.1666204    0.1217125  28.67 0.0006032338    1.349    0.259
        62  -9.6075     21.8217    244.0839   1.2882542128e+02   2.2177376591e+01    0.3286405   0.07937051  42.85  0.001682811    2.857    0.650
        63 -10.0962    114.3704    242.7652   1.1270438759e+02   1.0222235415e+01    0.2902885    0.1633175  35.37  0.001629115    1.750    0.429
        64 -10.2725     29.3204    242.0148   1.2751296971e+02   2.1722266429e+01    0.3088083    0.1939985  20.58  0.001818169    3.256    0.693
        65  -9.2576    104.4461    241.5204   1.1439416902e+02   1.1934319498e+01    0.2031448    0.1011007  33.52  0.000786991    2.230    0.552
        66  -9.3065    170.6690    239.6271   1.0188286869e+02   1.6729151446e+00    0.3229713    0.1849132  35.62  0.001494661    1.453    0.312
        67  -9.1679    155.8703    240.3244   1.0472551158e+02   3.9922246009e+00    0.2027341    0.1261496  49.72 0.0008356765    1.412    0.292
        68  -9.6062    138.6849    239.9853   1.0788722814e+02   6.8343998377e+00    0.2171125    0.1503042  27.30  0.001299753    1.598    0.374
        69  -9.0440     50.8191    239.1004   1.2373799264e+02   1.9722261476e+01    0.2247397    0.2151862  83.53  0.001650514    1.548    0.354
        70  -9.2671    143.4522    241.8526   1.0722723754e+02   5.7776650782e+00    0.2480564    0.1364902  30.79  0.001172269    1.927    0.481
        71  -9.6191     70.3692    239.4552   1.2035181823e+02   1.7144525489e+01    0.3333122    0.2758246  22.69  0.002338141    1.842    0.457
        72  -8.9020    220.4631    237.6853   9.2561671597e+01  -6.0282773016e+00    0.2910027    0.1824264  -3.12  0.001611779    1.857    0.461
        73  -9.1516    230.3359    226.1869   8.8952327552e+01  -6.1546977209e+00    0.3661728    0.2129724  -4.90  0.001963298    2.104    0.525
        74  -8.4663    222.3916    232.7911   9.1440752598e+01  -5.7341403925e+00    0.2434358    0.1415786  11.07  0.001154248    1.998    0.499
        75  -8.5869    225.9575    229.8194   9.0326782818e+01  -5.9227743748e+00    0.2642746    0.1351981  26.00  0.001059444    1.833    0.454
        76  -9.6814    149.9686    237.4936   1.0546242516e+02   5.3848249233e+00     0.308209    0.1407197  41.53  0.001447513    1.756    0.431
        77 -10.6427    132.6752    245.0480   1.0959485189e+02   7.0066748923e+00    0.4420493    0.2005239  45.78  0.002312948    1.729    0.422
        78  -7.9542    113.2116    237.5771   1.1236680397e+02   1.1257764372e+01    0.1630461   0.09974834  36.48 0.0006024721    1.574    0.365
        79  -9.1223     79.4929    235.9355   1.1842178246e+02   1.6517331309e+01    0.3011961    0.1924872  38.77  0.001886865    1.565    0.361
        80  -8.5877     42.3361    236.1971   1.2500219974e+02   2.1264787699e+01    0.1817822    0.1710012  17.35  0.001442471    1.793    0.442
        81  -9.1099    185.2810    236.0477   9.8668556776e+01  -2.2075032909e-01    0.3459348    0.1503937  42.23  0.001475466    1.887    0.470
        82  -8.4330    190.2275    234.5710   9.7536410323e+01  -8.2853283577e-01    0.2049111     0.120432  21.11 0.0005056068    1.904    0.475
        83  -8.3921    176.6496    236.6159   1.0035058127e+02   1.1178453928e+00    0.2494536   0.09684907  37.74  0.001130224    2.154    0.536
        84  -9.3014     92.0953    235.4786   1.1607219312e+02   1.4797841091e+01    0.3185547    0.1915238  32.89  0.001820915    1.898    0.473
        85  -8.6439    207.4908    234.5304   9.4379445296e+01  -3.6121966345e+00    0.2797218    0.1648887  32.64  0.001549719    1.383    0.277
        86  -9.5487    162.7776    234.5861   1.0266311163e+02   3.7094727991e+00    0.3795897    0.1744267  35.36  0.001834868    1.958    0.489
        87  -9.8872    140.9864    234.2940   1.0674968305e+02   7.3589307961e+00    0.3168818    0.1685394  48.48  0.001693228    1.582    0.368
        88  -9.0182    129.9358    234.8393   1.0891199399e+02   9.0680382136e+00    0.2310372    0.1820211  34.52  0.001321228    1.273    0.214
        89  -8.2912    101.8150    233.7844   1.1409644757e+02   1.3649032877e+01    0.1740727    0.1119527  58.78   0.00105403    1.329    0.248
        90  -9.2296    109.5247    232.6467   1.1252509120e+02   1.2666885958e+01    0.2486901    0.1288879  40.17  0.001330746    1.680    0.405
        91  -9.2439     57.2738    231.1624   1.2204111839e+02   2.0345607053e+01    0.3155886    0.2729906  -5.29  0.002190209    2.166    0.538
        92  -8.2640    171.4158    232.5181   1.0074373717e+02   2.5765798156e+00    0.2243309   0.09974176  33.09  0.001021069    2.189    0.543
        93  -8.2424    177.2669    231.7662   9.9533365419e+01   1.7089586793e+00     0.203153   0.08384237  33.26 0.0008779884    2.384    0.581
        94  -9.2736    126.6804    228.6831   1.0878876926e+02   1.0622334437e+01    0.1993034    0.1432985  33.51  0.001160753    1.409    0.290
        95  -9.0761    195.8624    236.1950   9.6746512748e+01  -1.9628496621e+00    0.3562556    0.1759295  28.05  0.001771998    2.034    0.508
        96  -8.2038     86.0051    231.0063   1.1677588432e+02   1.6474460724e+01    0.1587949    0.1467029   4.81 0.0008070468    1.667    0.400
        97  -9.0958    216.6669    229.2852   9.1892103623e+01  -4.4023661792e+00    0.3423385    0.2006817  16.20  0.001504665    1.862    0.463
        98  -8.4106    207.9938    229.9727   9.3569188883e+01  -3.1041754485e+00    0.1984781    0.1277498  13.10  0.001085736    1.678    0.404
        99  -8.3815    188.5887    229.6795   9.7099517561e+01   1.1839201877e-01    0.2445505    0.1249285  31.87  0.001231947    1.787    0.440
       100  -9.7790    147.8812    229.7954   1.0484745197e+02   6.9369647167e+00     0.306193    0.1369545  45.80  0.001471224    1.859    0.462
       101  -8.1345     45.5024    228.7869   1.2396381357e+02   2.2239649470e+01    0.1736619    0.1465108 -22.00  0.001189124    2.328    0.570
       102 -10.0320      4.7803    229.5235   1.3089554461e+02   2.6487430824e+01    0.2914058   0.09087232  39.90  0.001457397    2.670    0.625
       103  -8.3583      1.4954    226.5034   1.3129919606e+02   2.7346289895e+01    0.1547743   0.07001586  82.19 0.0009754993    1.755    0.430
       104  -8.2064    184.7977    226.3714   9.7302927016e+01   1.2254007247e+00    0.1866541   0.09857817  32.42 0.0005215281    1.719    0.418
       105  -8.7881     93.3465    227.4047   1.1504075650e+02   1.6051599965e+01    0.2267361    0.1868076  40.23  0.001470417    1.330    0.248
       106  -8.3114    196.0227    229.4927   9.5689084614e+01  -1.0872785105e+00    0.1960314     0.101918  37.50  0.001025755    1.584    0.369
       107  -8.3778    113.4724    227.4811   1.1119353597e+02   1.2949033479e+01    0.1236281    0.1022391  53.06 0.0001717075    1.055    0.052
       108  -8.2624    108.2395    227.6123   1.1221549637e+02   1.3747081230e+01    0.1698931     0.103442  35.97 0.0007993331    1.638    0.390
       109  -8.6583    212.7615    225.1879   9.1927125576e+01  -3.2478898112e+00     0.239063    0.1673191  12.47  0.001228316    1.394    0.283
       110  -7.7812    175.9852    226.7278   9.9027887582e+01   2.6643554841e+00     0.174562   0.09362296  40.06 0.0008996098    1.539    0.350
       111  -8.3569     79.8855    228.2560   1.1766083532e+02   1.7845316382e+01    0.1950941    0.1516974 -38.81  0.001233687    2.097    0.523
       112  -9.5209     69.5110    223.5177   1.1917649664e+02   2.0159325390e+01    0.3975917    0.3111874 -21.68  0.002381532    2.587    0.614
       113  -8.2714    200.4103    224.6636   9.4110145161e+01  -1.1500068753e+00    0.2267451   0.09855373  39.07  0.001072888    1.926    0.481
       114  -8.5174    207.2258    222.2449   9.2454856869e+01  -1.9484131216e+00    0.2584565    0.1633223  19.48  0.001431767    1.601    0.375
       115  -8.4301    164.3834    223.8257   1.0082371052e+02   5.0881443921e+00     0.256369   0.07990475  43.31 0.0009963231    2.673    0.626
       116  -8.4552    133.2282    222.6064   1.0674321855e+02   1.0583862135e+01    0.1836916    0.1064911  35.16 0.0009509799    1.661    0.398
       117  -8.5063     50.6569    221.7949   1.2253271449e+02   2.2925638701e+01    0.2439926    0.1606291  22.51  0.001420839    2.493    0.599
       118 -10.4877      3.4928    220.8816   1.3073120489e+02   2.8196827813e+01    0.3353315    0.1628616  78.32  0.002188535    1.600    0.375
       119  -8.9216    217.3195    220.3692   9.0294713739e+01  -3.3522410754e+00    0.2579987    0.1793512   4.94   0.00105312    1.484    0.326
       120  -8.9719    226.4239    219.3338   8.8479483955e+01  -4.6826192450e+00    0.2924752    0.1903396   6.26   0.00162633    1.615    0.381
       121  -8.2180    228.9301    214.9958   8.7278053696e+01  -4.5223952024e+00    0.2077783    0.1285896   9.80  0.001124007    1.757    0.431
       122  -7.7438    149.3354    220.3144   1.0325602021e+02   8.2424034897e+00    0.1264529   0.09582489  13.46 0.0007046661    1.690    0.408
       123  -7.7680    116.0085    220.5121   1.0987329100e+02   1.3785162215e+01    0.1691129    0.1067616  21.03 0.0008097311    2.511    0.602
       124  -8.5380    202.7711    218.7964   9.2708980780e+01  -7.2731149903e-01    0.2100755    0.1198569   9.89  0.000936844    2.684    0.627
       125  -7.5889    104.3175    218.6949   1.1196779005e+02   1.5977319117e+01    0.1307555   0.08182938  66.22 0.0005858308    1.628    0.386
       126  -8.2778    211.6707    215.8303   9.0555062422e+01  -1.8074361955e+00    0.1950068    0.1403451  -0.85 0.0008123502    1.474    0.321
       127  -8.2291    161.3267    216.3032   1.0029669366e+02   6.8267920347e+00    0.1289531   0.09560233  14.10 0.0006917552    1.644    0.392
       128  -8.1583    121.7870    216.2254   1.0818499130e+02   1.3618034616e+01    0.2086976   0.09559278  33.05  0.000890156    2.498    0.600
       129  -7.9409    194.7602    215.4135   9.3654911542e+01   1.1263503713e+00      0.19444     0.104391  31.87 0.0009571454    1.718    0.418
       130  -7.8552    180.7554    215.2186   9.6315843802e+01   3.5921125146e+00    0.2127732   0.08842374  33.71 0.0008043901    2.419    0.587
       131  -8.7396    224.2983    224.6989   8.9770160055e+01  -5.0287006094e+00    0.2580174    0.1521227  22.89  0.001447635    1.570    0.363
       132  -8.5919    222.0224    212.9579   8.8161546880e+01  -3.1317221972e+00    0.2873088    0.1419351  22.01  0.001282462    2.471    0.595
       133  -7.9583    172.6746    213.3067   9.7588800817e+01   5.3164057478e+00    0.1276586   0.09773831  65.76 0.0004142347    1.649    0.393
       134  -8.4376     64.3150    211.0803   1.1905394423e+02   2.3260541183e+01    0.2311455    0.1940873  -5.14  0.001461636    2.124    0.529
       135  -8.8777      1.7992    211.7895   1.3060606061e+02   3.0070421550e+01    0.1542332   0.08560948  68.99  0.001058363    1.337    0.252
       136  -7.9789     96.4928    210.4507   1.1257733404e+02   1.8759906868e+01    0.1277511    0.1054734  62.87   0.00030412    1.007    0.007
       137 -10.4743      9.3516    209.2605   1.2917044237e+02   2.9860272371e+01    0.5113306    0.1507526  72.59   0.00201488    4.346    0.770
       138  -8.6039    215.8288    208.2635   8.8463705259e+01  -1.4510889292e+00    0.2452523     0.152026  -2.19  0.001073964    2.071    0.517
       139  -9.1085    229.4474    204.1886   8.5243397848e+01  -3.1672569269e+00    0.3253852    0.1755543  27.42  0.001644882    1.791    0.442
       140  -7.8336     87.3286    204.3194   1.1374009067e+02   2.1364535727e+01     0.113471    0.1017893 -15.93 0.0006471295    1.686    0.407
       141  -8.8772    236.1227    201.5364   8.3562914113e+01  -3.9047592456e+00    0.2530931    0.1708956   3.17  0.001137771    1.497    0.332
       142  -7.7210    228.2844    200.3462   8.4741928170e+01  -2.4437388486e+00    0.1334447   0.08786583   5.16 0.0005299873    1.647    0.393
       143  -8.1245    231.3887    197.7265   8.3691878765e+01  -2.5997522469e+00    0.2203817    0.1344625  -2.12  0.001097243    1.989    0.497
       144  -8.0886     53.1971    212.1973   1.2129868592e+02   2.4472550607e+01    0.1705157    0.1213753 -32.89 0.0009495382    2.830    0.647
       145  -9.1323    237.1796    196.6199   8.2451499292e+01  -3.4107585833e+00    0.3008092    0.1752723  11.71  0.001477255    2.053    0.513
       146  -8.7276    231.9010    191.4285   8.2397497458e+01  -1.7983648711e+00     0.324537    0.2032625  16.00  0.001652954    1.712    0.416
       147  -8.6615    223.9807    190.7043   8.3696570564e+01  -3.2277930071e-01    0.2767366    0.1550721  -6.73  0.001175911    2.696    0.629
       148  -8.0698    216.2118    187.7835   8.4574381764e+01   1.4991766367e+00    0.3182068    0.1587911 -12.46  0.001067026    4.251    0.765
       149  -9.1315      2.6574    188.3332   1.2926601418e+02   3.4651663306e+01    0.1871724   0.08959949  67.08  0.001114229    1.744    0.426
       150  -9.4357    237.9571    186.2227   8.0302675666e+01  -2.0883975792e+00    0.2911786    0.1767401 -18.02    0.0014774    1.701    0.412
       151  -8.2430    230.2109    185.7478   8.1592971206e+01  -6.8389693629e-01    0.1910886    0.1380059   8.28 0.0009999311    1.375    0.273
       152 -10.2405    244.4408    179.7845   7.7887874259e+01  -2.2724634601e+00    0.4199953    0.2233635  23.14  0.001797194    2.189    0.543
       153  -9.0778    235.7840    179.5063   7.9348325331e+01  -7.4076107333e-01    0.2629009    0.1552807   1.39  0.001187408    2.300    0.565
       154  -9.7645    248.4983    174.5113   7.6124153940e+01  -2.2080291744e+00    0.2528926    0.1736648 -16.58  0.001252434    1.356    0.263
       155  -8.4067    233.0000    172.9790   7.8513085257e+01   7.3044380602e-01    0.2160242   0.07233314 -35.31 0.0007992085    2.920    0.658
       156 -10.1738    246.6865    165.5533   7.4577849900e+01  -5.9167012643e-01     0.314591    0.2111488 -12.61  0.001677951    1.489    0.329
       157  -9.2513    247.8358    161.1434   7.3453177057e+01  -1.3868618320e-01    0.1966924    0.1590412 -16.63  0.000737956    1.094    0.086
       158  -8.8611      7.0067    165.6652   1.2697558535e+02   3.9088854956e+01    0.1886907    0.0361823  49.37 0.0007050863    4.448    0.775
       159  -8.8286    238.0025    157.1957   7.4290558531e+01   2.2496255507e+00    0.2559986    0.1608877 -18.77  0.001087097    1.645    0.392
       160  -9.8937    246.8494    155.9028   7.2498703908e+01   8.2693534742e-01    0.3100994    0.1945665  -4.01  0.001479842    1.947    0.486
       161  -7.6911    226.6819    155.3143   7.5894386652e+01   4.7025642068e+00    0.1323184    0.1138078 -71.70 0.0007037563    1.649    0.394
       162  -9.6702    249.3534    150.0795   7.0820597606e+01   1.2595615057e+00    0.3438472    0.1971431  24.82  0.001586715    2.130    0.531
       163  -9.7409    244.0177    147.2199   7.1080293951e+01   2.6864252996e+00    0.2505119    0.1727237 -20.11 0.0008275681    1.386    0.278
       164  -9.3771    247.0096    142.9897   6.9646220513e+01   2.7863349758e+00    0.2785963    0.1716524  -5.99  0.001261503    2.102    0.524
       165  -8.3228      1.6706    147.6817   1.2681834683e+02   4.3461353593e+01    0.1125647   0.07195094 -55.08 0.0007047146    1.685    0.406
       166  -8.2587    234.5910    144.1931   7.2015330141e+01   4.9740677504e+00    0.2049934    0.1250771 -22.06 0.0009480921    1.696    0.410
       167  -9.5574    243.6456    138.4425   6.9183073396e+01   4.1411190497e+00    0.2778097    0.1626326 -28.89  0.001323015    1.588    0.370
       168  -9.3436      3.8487    135.9957   1.2534595659e+02   4.5937757119e+01    0.2055233    0.1017915  78.86  0.001089125    1.984    0.496
       169  -9.3146    242.1525    131.8860   6.7938296975e+01   5.4807081656e+00    0.2142829    0.1859464 -42.54 0.0007522795    1.219    0.180
       170  -9.9232    248.1192    127.6425   6.6004125814e+01   4.9895886519e+00    0.3788186    0.2629643   9.74   0.00177125    1.800    0.445
       171  -9.7549    238.1576    121.7170   6.6229788186e+01   7.9388693471e+00    0.4472931    0.1851791 -33.90  0.001744649    2.224    0.550
       172  -8.8966    247.4710    116.4771   6.3524453370e+01   6.8943766405e+00    0.2620911    0.1875187   2.54  0.001299432    1.738    0.425
       173  -8.5141      3.6498    116.3300   1.2348761724e+02   5.0441819584e+01    0.1232551   0.07305299  70.83 0.0007048187    1.768    0.434
       174  -8.6068    241.2172    107.2522   6.2305352427e+01   9.6651912305e+00    0.2723437    0.1661308 -31.03  0.001281977    1.512    0.339
       175  -8.2488    141.6520    101.6802   8.0786834410e+01   3.3854044261e+01    0.1646183     0.126651   6.28 0.0007048835    1.735    0.424
       176  -9.2308      5.4958     94.5017   1.2029329203e+02   5.5340161518e+01    0.1204165    0.0928713 -72.61 6.773441e-05    1.036    0.035
