#   1 NUMBER                 Running object number                                     
#   2 MAG_AUTO               Kron-like elliptical aperture magnitude                    [mag]
#   3 X_IMAGE                Object position along x                                    [pixel]
#   4 Y_IMAGE                Object position along y                                    [pixel]
#   5 X_WORLD                Barycenter position along world x axis                     [deg]
#   6 Y_WORLD                Barycenter position along world y axis                     [deg]
#   7 A_WORLD                Profile RMS along major axis (world units)                 [deg]
#   8 B_WORLD                Profile RMS along minor axis (world units)                 [deg]
#   9 THETA_WORLD            Position angle (CCW/world-x)                               [deg]
#  10 FWHM_WORLD             FWHM assuming a gaussian core                              [deg]
#  11 ELONGATION             A_IMAGE/B_IMAGE                                           
#  12 ELLIPTICITY            1 - B_IMAGE/A_IMAGE                                       
         1 -17.0416    143.8732    105.1884   8.5036762824e+01   3.2679771547e+01     5.975873     3.473953 -54.36   0.02123717    1.945    0.486
         2 -14.5469     22.1204     69.5574   1.1376326206e+02   5.9678442618e+01     2.696913     1.278629 -64.33   0.01388069    1.650    0.394
         3 -14.0981     49.1539     89.5407   1.0848665348e+02   5.2507994182e+01     2.466572     1.492173 -81.14   0.01214673    1.869    0.465
         4 -15.2643     65.4212     47.3432   9.0679087515e+01   5.9794693526e+01       2.4354     1.997776  34.45   0.01427252    1.363    0.266
         5 -14.4403     17.3647      9.7347   9.7106796880e+01   7.2590815576e+01     1.346878    0.9217597  -8.53  0.008115622    1.499    0.333
         6 -14.9336    187.9368      8.4267   4.6384752068e+01   3.6839812923e+01      2.53981     1.063054  59.68   0.01024722    2.190    0.543
         7 -14.3380    163.9301      5.5369   4.8428400151e+01   4.3481359708e+01     1.566077    0.9606605  77.85  0.007286529    1.657    0.397
         8 -13.8010     56.5349      6.3604   7.5538433243e+01   6.8145040374e+01     1.023152    0.7119406   1.48  0.005902993    1.429    0.300
         9 -12.5561     88.9839      3.2242   6.2444950780e+01   6.2283429057e+01    0.5143927    0.3404491  54.47   0.00273121    1.524    0.344
        10 -12.1240     14.1981    236.3691   1.3034977708e+02   2.5351072267e+01     0.269141    0.1493777 -82.06  0.002049358    1.710    0.415
        11 -12.2327    185.9772    248.7456   1.0256299728e+02   1.0509236506e+00    0.4874342    0.2048468  42.94  0.002730458    1.851    0.460
        12 -12.3242    192.4652    244.9470   1.0100583322e+02   5.2577138714e-01    0.2616384    0.1903501  21.16  0.001900469    1.240    0.193
        13 -12.9140     10.3937    229.1229   1.3068675284e+02   2.6910762035e+01    0.4275309     0.236497  68.99  0.002377818    1.286    0.222
        14 -12.4266     15.4816    226.8778   1.2978184756e+02   2.6804744400e+01    0.5444025    0.1978141  71.38  0.003122503    2.421    0.587
        15 -12.9599    222.9750    218.5609   9.2116165815e+01  -1.0874156283e+00    0.7925071    0.3847729 -12.81  0.003713896    3.286    0.696
        16 -10.1642    139.9960    232.7607   1.0857538791e+02   9.9734342870e+00    0.1591547   0.07698865  41.63 0.0008820033    1.612    0.380
        17 -11.3442    164.3352    228.5050   1.0372854613e+02   6.8214571018e+00    0.3420624     0.185541  28.18  0.001865525    1.959    0.490
        18 -13.7631    207.8064    228.7981   9.6218164458e+01   5.7631072355e-02    0.9346859    0.3245519  36.95  0.004471805    2.336    0.572
        19 -12.0947    187.1887    226.7075   9.9459266209e+01   3.4830835003e+00      0.21272    0.1567122 -15.98  0.001320959    1.645    0.392
        20 -11.5073    196.8120    217.7654   9.6477676630e+01   3.0891499885e+00     0.306527    0.1138752  37.09   0.00142008    2.268    0.559
        21 -15.4495     94.5155    192.0005   1.1257316866e+02   2.3648624381e+01     1.631671      1.05161 -89.00  0.009310824    1.766    0.434
        22 -16.1369     72.5491    198.3894   1.1765562699e+02   2.5491292507e+01     2.848913     1.168884  54.62   0.01406582    2.229    0.551
        23 -12.6252    151.5327    211.4319   1.0381414794e+02   1.1322782612e+01    0.5663953    0.3642583 -26.32   0.00277487    2.371    0.578
        24 -12.7127    147.3330    209.7695   1.0438244382e+02   1.2263719470e+01    0.4072112    0.3849603  50.38  0.002142956    1.146    0.128
        25 -12.4211    201.9598    207.9399   9.4045069786e+01   3.5138206474e+00    0.2544503    0.1531621  46.83  0.001442012    1.636    0.389
        26 -11.3340    135.8866    210.6489   1.0667429905e+02   1.3969218123e+01    0.2195756    0.2036128  17.05  0.001559898    1.273    0.215
        27 -11.8250    193.1614    210.3412   9.5990578830e+01   4.6381418016e+00    0.1694495    0.1409581  12.74  0.001148056    1.152    0.132
        28 -12.0670    168.5079    206.5628   9.9933555191e+01   9.2548232430e+00    0.3203321    0.1604467  40.13  0.001649186    1.669    0.401
        29 -10.6092    185.6622    205.2893   9.6560749786e+01   6.5671396627e+00    0.1174101   0.09133628  61.38 0.0002969099    1.639    0.390
        30 -10.3189    130.3377    201.3184   1.0653575266e+02   1.6406654373e+01    0.1190263   0.09491847  10.37 0.0007049195    1.705    0.414
        31 -11.5481    139.4269    200.2948   1.0461108085e+02   1.5093567674e+01    0.2255532    0.1304683  55.78  0.001174158    1.769    0.435
        32 -12.5384    123.6782    194.4876   1.0695216481e+02   1.8675780346e+01    0.4016198    0.2260361  47.86  0.002141393    1.537    0.349
        33 -13.0900    192.3063    191.9779   9.3154171588e+01   7.3269505360e+00     0.486817    0.3580568 -52.92  0.002836566    1.836    0.455
        34 -12.6529    112.7488    186.9961   1.0818697746e+02   2.1805227882e+01    0.3989939    0.2799763 -63.22  0.002346965    1.558    0.358
        35 -12.6962    149.1363    186.8992   1.0069616617e+02   1.5718637982e+01    0.3307093    0.2820822  43.85   0.00179288    1.026    0.025
        36 -13.2797    143.9789    183.6885   1.0124016876e+02   1.7179811661e+01    0.5052982    0.3192237 -64.41  0.002593865    2.051    0.512
        37 -12.4441    147.1019    179.5641   9.9935028413e+01   1.7362384843e+01    0.3829313    0.2317801  53.58  0.001369068    1.660    0.397
        38 -11.7725      8.0061    187.5115   1.2937279810e+02   3.4649825256e+01    0.2355844    0.1625432  55.98  0.001147602    1.252    0.201
        39 -11.1557      9.3414    184.3296   1.2896613331e+02   3.5154253628e+01    0.1598448    0.1412318 -87.94  0.001316825    1.373    0.272
        40 -11.9976    160.1051    185.8963   9.8334044283e+01   1.3957690175e+01    0.3904735    0.1737888  40.35  0.001749311    1.997    0.499
        41 -11.8002    130.3433    183.6104   1.0404532281e+02   1.9541842741e+01    0.2434441    0.1646208 -53.33  0.001352914    1.654    0.396
        42 -12.7289    121.2625    179.9009   1.0540318310e+02   2.1761829827e+01    0.5516324    0.2909611  25.09  0.002254548    3.082    0.676
        43 -11.5769    166.7729    179.5761   9.5936062961e+01   1.3816381780e+01    0.2399847    0.1925776 -40.42  0.001415265    1.394    0.283
        44 -11.4906    161.4151    179.2604   9.6958717292e+01   1.4842868663e+01    0.2230748    0.1536648  59.97 0.0005943368    1.672    0.402
        45 -11.5238    131.3379    178.1363   1.0300227800e+02   2.0386788126e+01    0.2302663    0.1698581  36.23  0.001297268    1.326    0.246
        46 -12.1820    139.9723    175.6524   1.0078219042e+02   1.9338582221e+01    0.3399521    0.1967507 -46.62  0.001604657    1.933    0.483
        47 -15.1604     74.1769    182.8722   1.1577485773e+02   2.8299548343e+01      1.43365    0.7883202  45.63  0.008008639    1.607    0.378
        48 -10.0641    165.3169    175.3250   9.5483223108e+01   1.4801813782e+01    0.1353391    0.1015296   8.79 0.0007044299    1.671    0.402
        49 -13.0702    148.3500    201.9983   1.0311062533e+02   1.3332206297e+01      0.62672    0.3933559  76.47  0.002958891    2.869    0.651
        50 -11.0870    170.3976    171.2628   9.3721917421e+01   1.4551582541e+01    0.1740517    0.1307997 -53.65 0.0009435341    1.577    0.366
        51 -11.5867    107.6182    170.8986   1.0703347744e+02   2.5768572353e+01     0.263426    0.1750891  51.32  0.001054202    1.375    0.273
        52 -12.3048    135.2957    168.5834   1.0060547944e+02   2.1501860404e+01    0.3441332    0.2183428  43.16  0.001363145    1.444    0.308
        53 -12.2390    130.9661    167.9946   1.0144762337e+02   2.2385700686e+01    0.3203498    0.2238213  67.39  0.001652979    1.656    0.396
        54 -11.4811     91.9635    166.3798   1.0988351054e+02   2.9148023590e+01    0.3849933    0.1818746 -72.65  0.001663592    2.597    0.615
        55 -11.4846    206.4175    166.2622   8.5774442567e+01   8.5879851001e+00    0.2642936    0.1477513  33.39  0.001266633    1.737    0.424
        56 -10.8737    130.2090    162.4269   1.0066841135e+02   2.3612509400e+01    0.1944141    0.1189334  52.49 0.0003409239    1.602    0.376
        57 -12.5338     20.4968    153.5592   1.2474303931e+02   4.0528805877e+01    0.5902764    0.4983471  65.29  0.004394035    1.203    0.169
        58 -11.4889    180.0016    151.3138   8.7849166663e+01   1.6140001543e+01    0.2097758    0.1784964  38.24  0.001168534    1.110    0.099
        59 -12.2966    198.8616    150.0659   8.3859542335e+01   1.2583008483e+01    0.4322786    0.1891783  38.13  0.001727835    2.319    0.569
        60 -12.1096    107.1942    147.8042   1.0343528045e+02   3.0669152172e+01    0.3499891     0.316687  18.33  0.001338854    1.335    0.251
        61 -13.2072    106.4887    142.1570   1.0259915004e+02   3.2016646070e+01    0.7876904    0.6306666  43.88  0.003075371    1.250    0.200
        62 -11.4025    188.7828    145.9739   8.4944621092e+01   1.5292241560e+01    0.2609701    0.2020589  41.81 0.0007480177    1.243    0.195
        63 -13.5832    178.1720    141.7145   8.6163829656e+01   1.8214159403e+01     0.649009    0.4475173 -69.43   0.00285762    2.319    0.569
        64 -15.4495    149.4049    130.8107   8.9998356528e+01   2.6268150999e+01     1.770598     1.436753  58.13  0.008479798    1.283    0.221
        65 -14.4573    135.0567    117.7488   9.0363065121e+01   3.1931453528e+01     1.588502     1.040899 -56.12  0.007197458    1.633    0.388
        66 -10.5995    174.1839    249.3013   1.0459493596e+02   2.7131798748e+00    0.2381702    0.0750348  36.43  0.001090172    2.678    0.627
        67 -10.7953    182.4876    129.4920   8.2492740579e+01   1.9506959018e+01    0.1465752    0.1400859  11.51 4.354042e-05    1.008    0.008
        68 -12.2230    185.1956    118.7857   7.9356362145e+01   2.0844105916e+01    0.4899892    0.3472367 -23.27  0.002308831    1.520    0.342
        69 -14.4084    186.1866    111.1507   7.7233488163e+01   2.1991822558e+01     1.565003     1.074745  26.28  0.007048112    1.720    0.419
        70 -14.0994     38.3642    109.9050   1.1541823964e+02   4.8817860365e+01     2.369251      1.31532  59.30   0.01206286    2.066    0.516
        71  -9.6837    198.8129    247.3982   1.0027196009e+02  -6.6863399178e-01    0.1597342   0.07772463  32.42 0.0007180041    1.646    0.392
        72 -10.3583    131.9989    241.7181   1.1094608406e+02   9.8957002518e+00    0.1678496    0.1141388  45.98  0.001160587    1.114    0.102
        73 -11.8636     95.4370     74.9375   8.9672144262e+01   4.9018506065e+01    0.5751254    0.4783481 -89.72   0.00297955    1.504    0.335
        74 -12.0547    103.9251     76.0840   8.7444567877e+01   4.7165951469e+01    0.6891394    0.4645023 -55.59   0.00319442    1.556    0.357
        75 -12.2108    105.1193     69.4607   8.4982713239e+01   4.8308831248e+01    0.6222479     0.491934  87.91  0.002473331    1.739    0.425
        76 -12.0073     98.8323     69.4234   8.6880775670e+01   4.9546882697e+01    0.4010632    0.3859964 -26.85  0.001539733    1.034    0.033
        77 -12.7572    165.0114    132.4092   8.6868097475e+01   2.2691021672e+01    0.6516749    0.2386485 -44.14  0.002272523    2.815    0.645
        78 -11.6325    178.1463     64.9321   6.5772656035e+01   3.1966350672e+01    0.4389193    0.3180475  48.59  0.001410963    1.403    0.287
        79 -10.8700      7.6782    241.5071   1.3153122810e+02   2.5141298957e+01    0.1922208    0.1264014  66.41  0.001332663    1.020    0.019
        80 -13.6916     82.8556     49.6995   8.5225733310e+01   5.6466474330e+01     1.029506    0.7606422 -41.34  0.004764759    1.253    0.202
        81 -12.0154      3.3231     50.7914   1.1736229962e+02   6.5054406558e+01    0.7169139    0.1726799 -56.34  0.003157456    2.536    0.606
        82 -12.1893      9.9694     47.0188   1.1371885002e+02   6.5545718901e+01    0.4713444    0.3547042 -45.96  0.002619072    1.164    0.141
        83 -12.0480    249.8116     48.8589   5.0876263536e+01   1.6861223981e+01    0.8354275    0.2515479 -25.02  0.002783202    3.429    0.708
        84 -11.7275    123.5112     40.5041   6.9407983252e+01   4.9548695489e+01    0.5138388    0.3089386  55.88  0.002258987    1.723    0.420
        85 -13.0129    187.2919    237.2569   1.0087469144e+02   2.1813669699e+00    0.4519822    0.2498392 -16.79  0.002386078    3.109    0.678
        86 -12.9641    181.6169    238.4758   1.0200140100e+02   2.8928698061e+00    0.3151276    0.3009244 -64.76  0.002535446    1.477    0.323
        87 -11.5133    201.0529    237.7383   9.8615577913e+01   6.1750024427e-02     0.283546    0.1560313 -25.95  0.001714463    2.323    0.569
        88 -10.8063    172.2004    237.3895   1.0347987288e+02   4.4532368607e+00     0.170671   0.08419926  46.47 0.0009571764    1.720    0.419
