#   1 NUMBER                 Running object number                                     
#   2 MAG_AUTO               Kron-like elliptical aperture magnitude                    [mag]
#   3 X_IMAGE                Object position along x                                    [pixel]
#   4 Y_IMAGE                Object position along y                                    [pixel]
#   5 X_WORLD                Barycenter position along world x axis                     [deg]
#   6 Y_WORLD                Barycenter position along world y axis                     [deg]
#   7 A_WORLD                Profile RMS along major axis (world units)                 [deg]
#   8 B_WORLD                Profile RMS along minor axis (world units)                 [deg]
#   9 THETA_WORLD            Position angle (CCW/world-x)                               [deg]
#  10 FWHM_WORLD             FWHM assuming a gaussian core                              [deg]
#  11 ELONGATION             A_IMAGE/B_IMAGE                                           
#  12 ELLIPTICITY            1 - B_IMAGE/A_IMAGE                                       
         1 -12.2247    119.8402     37.5232   4.0565680577e+01   5.0328772744e+01    0.9697757    0.5373785 -49.83  0.003270781    2.013    0.503
         2 -11.4124    106.0871     20.6650   3.6408351146e+01   5.6071529841e+01    0.5052901    0.3838107 -66.22  0.002383597    1.496    0.331
         3 -11.7931    107.4775     31.1885   4.0776873024e+01   5.4381451710e+01     1.035453    0.5492492   6.88  0.003170742    4.295    0.767
         4 -11.4235    240.3972     32.3250   2.4069691159e+01   2.2789564357e+01    0.2873807     0.200475 -15.02  0.001779743    1.469    0.319
         5 -12.3040     20.0136     22.1040   7.5604762258e+01   7.3893218893e+01    0.5800176     0.302948 -46.57  0.002033064    1.708    0.414
         6 -10.2621     90.9070     21.7641   4.0665749305e+01   5.9834271151e+01     0.446532    0.2067365 -32.76   0.00180273    2.124    0.529
         7 -10.3451     88.6908      7.8198   3.4052023784e+01   6.1949405858e+01    0.2502206    0.1769043  47.97 0.0005951481    1.341    0.254
         8 -11.3081     85.9327     14.5031   3.8301897506e+01   6.1957089691e+01    0.7510947    0.3277937 -30.61  0.003026971    2.249    0.555
         9 -11.5430     36.1137     18.4271   6.2027843896e+01   7.2287536060e+01    0.7759045    0.4444297 -36.63  0.003762594    1.680    0.405
        10 -12.1192     48.4941     12.9530   5.1340508961e+01   7.0838745564e+01    0.6447891    0.3165008  51.51  0.002569767    2.080    0.519
        11 -13.2746    163.9160     19.0285   2.6826583667e+01   4.1155189879e+01    0.4427578    0.3160629  40.84  0.001010022    1.622    0.383
        12 -11.6012     68.0334     18.0381   4.6017193058e+01   6.5859351366e+01    0.4805877    0.4580449  80.15   0.00257445    1.177    0.150
        13 -10.6382     13.8411      8.9036   7.2519997187e+01   7.7278741308e+01    0.2848976    0.2606688 -17.25  0.001475503    1.104    0.095
        14 -12.3460     16.2203     14.1436   7.3957288351e+01   7.5971244047e+01    0.8293996    0.4329334 -24.05  0.003549341    2.503    0.600
        15 -11.7191     22.4844     11.5026   6.6981230536e+01   7.5662030430e+01    0.4523021     0.318227  -6.14  0.002083684    1.593    0.372
        16 -12.0722    228.7865     16.0468   2.0887056021e+01   2.6659044375e+01    0.3571619    0.2375354  88.51 0.0004716772    1.654    0.395
        17 -10.4302    127.1773     12.0027   2.8860621078e+01   5.1404839762e+01    0.3778113    0.2025604 -56.70  0.001592628    2.115    0.527
        18 -11.2951    134.3681     15.0190   2.9027588294e+01   4.9207772706e+01    0.6946589    0.2576571  60.18  0.002640091    2.426    0.588
        19 -10.7898    225.3187     12.6990   2.0258469311e+01   2.7674414769e+01    0.2366249    0.1541888 -43.22  0.000792726    1.236    0.191
        20 -12.1690    104.6741     13.0440   3.3181152928e+01   5.7270843334e+01    0.4914829     0.374584 -22.30  0.002064513    1.363    0.266
        21 -11.5065    244.1020     13.6339   1.9513572186e+01   2.3905882344e+01    0.2207698    0.1208957 -37.96 0.0007183149    1.377    0.274
        22 -11.3506    192.2242      8.8661   2.1263550053e+01   3.5253838073e+01    0.5793766    0.2950042   3.27  0.002385446    3.185    0.686
        23 -10.5826      4.9856     11.1892   8.2557982189e+01   7.7697386669e+01    0.4146269      0.22725 -54.27  0.002178478    1.603    0.376
        24 -11.7590    212.0524      9.3731   2.0160680593e+01   3.0764945285e+01    0.5626761    0.3031543  -2.05  0.002638457    2.635    0.620
        25 -10.2582    169.6886      9.3182   2.3120280192e+01   4.0636485333e+01    0.3385219    0.1679693  54.40  0.001072399    2.149    0.535
        26 -10.7177    145.4863      9.4712   2.5541106389e+01   4.6805081958e+01    0.2570035    0.2197354  35.05 0.0005658061    1.303    0.233
        27 -12.3759    234.4295      3.2083   1.7525913036e+01   2.6694685872e+01    0.5254896    0.2313365 -57.61  0.002750365    2.048    0.512
        28  -9.4983      1.0000      7.9059   8.4780402289e+01   7.8696627947e+01    0.2020811   0.06351461 -61.14 0.0007939751    2.884    0.653
        29 -11.0923    185.6719      6.7111   2.1089512428e+01   3.6982720395e+01    0.2277042    0.1869692  53.29 0.0008498672    1.387    0.279
        30 -11.1063    183.3396      4.7149   2.0659977594e+01   3.7710261858e+01    0.2269034    0.1931112 -87.28 0.0005344498    1.158    0.136
        31 -10.1060    163.6648      6.1512   2.2609705488e+01   4.2422420090e+01    0.3096142    0.1579395  10.35  0.001139039    3.176    0.685
        32 -10.9531    122.2661      5.2469   2.6762134832e+01   5.3312683852e+01    0.2531587      0.22935  -8.62 0.0005587181    1.190    0.160
        33  -9.4890     78.1435      7.3828   3.6514035426e+01   6.4670600876e+01    0.2766607    0.1744215  86.09 0.0004384058    2.028    0.507
        34 -10.6465     74.6818      3.5589   3.5227218047e+01   6.5900932325e+01    0.5349696    0.2664147  66.05  0.002330786    1.955    0.488
        35  -9.8210     62.8928      6.5796   4.0872111012e+01   6.8458472867e+01    0.2451781    0.1850592  -1.68  0.001309211    1.396    0.284
        36 -11.4705    245.4733      4.8046   1.7441417853e+01   2.4437746819e+01    0.5086347    0.1579279 -62.36  0.002148364    3.564    0.719
        37 -10.9698    177.2579      5.9744   2.1471317956e+01   3.9068447150e+01    0.2722706    0.1833484  89.11 0.0004743306    1.476    0.323
        38 -10.6792     22.1152      4.2988   6.1709660965e+01   7.6959212537e+01    0.3049822    0.1778147 -48.21 0.0009491313    1.984    0.496
        39 -10.3882    137.5690      4.4758   2.4560372472e+01   4.9312717925e+01    0.2489462    0.2118401  82.49 0.0001089795    1.118    0.105
        40 -11.9346    132.7958      2.9111   2.4491503221e+01   5.0701142179e+01    0.7941074    0.2954699  73.89  0.003031112    2.513    0.602
        41  -9.9669     41.5364      4.1648   4.8614810900e+01   7.3450470760e+01    0.3291698    0.1632878  24.30  0.001264623    3.049    0.672
        42 -11.3223    218.9976      3.7414   1.8351071288e+01   2.9784102128e+01    0.2957295    0.2266097  84.43  0.001006289    1.400    0.286
        43 -11.0985    223.9490      2.9236   1.7915630710e+01   2.8826247431e+01     0.245485    0.1685895 -50.46 0.0005897847    1.197    0.165
        44 -11.1039    206.5164      2.8008   1.8736387202e+01   3.2548924003e+01     0.396829    0.2533698 -75.13  0.002280717    1.535    0.349
        45  -9.6238     57.8532      4.1430   4.1126734453e+01   6.9893368253e+01    0.1772356    0.1397426  23.48 0.0009779549    1.246    0.197
        46 -10.1775    115.6643      2.8096   2.6637037616e+01   5.5271254123e+01    0.3495696    0.1083168  57.24  0.001244619    2.741    0.635
        47 -10.6118    105.4163      2.0066   2.7832578921e+01   5.8063958369e+01    0.3298742    0.2285594 -68.94  0.001638577    1.598    0.374
        48 -11.0036      2.7064      1.8842   7.8836282945e+01   7.9803903479e+01    0.3481658    0.2001733   2.61  0.001692811    1.978    0.494
        49  -9.3090    152.5156      1.4164   2.1968779845e+01   4.5655535770e+01     0.135938      0.12254 -72.34 0.0001940597    1.020    0.019
        50 -10.5294     82.1832      1.3159   3.2002728342e+01   6.4198790529e+01     0.221277    0.1195654  65.86   0.00033066    1.723    0.420
        51  -9.4936    217.2481    138.6074   5.1224297318e+01   1.3609390444e+01    0.1616917    0.1083121  26.49 0.0005334469    1.549    0.354
        52  -9.4892     79.4217    138.2529   8.2455385785e+01   3.7605968232e+01     0.198952     0.137666 -78.33 0.0009465061    1.680    0.405
        53  -9.9582     32.0530    137.6914   9.7236320360e+01   4.3647026814e+01    0.2837306    0.2135222  40.98  0.001031023    1.273    0.214
        54 -11.9989     22.2609    136.3003   1.0025343786e+02   4.4883961618e+01     0.593176    0.3601946  35.25  0.002746957    1.574    0.365
        55 -11.3862     30.1189    133.0295   9.7373958904e+01   4.5001742657e+01    0.3631095    0.3135754 -42.18 0.0007123122    1.325    0.245
        56  -9.5741     47.3806    135.1593   9.1991390549e+01   4.2650566273e+01    0.1987335    0.1254745 -87.34 0.0009459294    1.697    0.411
        57 -10.1368     39.4508    133.3676   9.4343273641e+01   4.3980232444e+01    0.2221054    0.2029217  24.20  0.000325406    1.197    0.164
        58  -9.9219     73.3117    133.3348   8.3456460220e+01   3.9688467543e+01    0.1464219    0.1101648 -25.81 0.0006476227    1.682    0.405
        59  -9.7426     93.1720    129.6359   7.6711592436e+01   3.7432996935e+01    0.2057562    0.1896543  88.10  0.001134022    1.147    0.128
        60 -11.4009     10.1698    127.9210   1.0355284989e+02   4.7921080903e+01    0.5221268    0.2819845 -54.74  0.002160346    1.928    0.481
        61 -10.4745     22.8616    126.9706   9.9181300488e+01   4.7190072637e+01    0.2021878    0.1840989  45.75  0.000276705    1.133    0.117
        62  -9.1795    224.2842    126.6599   4.7634396595e+01   1.4106696150e+01    0.1193876   0.08988941 -47.65 0.0004345067    1.633    0.388
        63  -9.1304     95.2693    126.2623   7.5384920721e+01   3.7855675176e+01    0.1386476    0.1141959 -12.57 -0.000275831    1.461    0.316
        64  -9.5879     33.4924    126.4740   9.5495868164e+01   4.6340217392e+01    0.1381781    0.1237871  76.10 0.0008099542    1.024    0.023
        65 -10.2961      2.3058    126.0233   1.0606174400e+02   4.8899198966e+01    0.2454266    0.1452032  53.66 0.0009619421    1.558    0.358
        66 -12.7140    103.8734    122.4472   7.2027834722e+01   3.7203161999e+01    0.3361805    0.3084176  28.33 0.0004133766    1.091    0.084
        67  -9.9340     27.3317    124.2935   9.7362382139e+01   4.7483022738e+01    0.1365672   0.09796496 -39.09 0.0005651786    1.634    0.388
        68  -9.4237     84.8353    123.3412   7.7939588618e+01   4.0297342358e+01    0.2008012    0.1373245  22.09 0.0004103529    1.680    0.405
        69 -10.2506     49.5517    122.9933   8.9496307387e+01   4.5460056913e+01     0.298283    0.1844779   0.21  0.001270765    2.438    0.590
        70  -9.7902     56.2981    122.0026   8.7023854915e+01   4.4860379055e+01    0.1986177    0.1801646 -82.94  0.000445443    1.064    0.060
        71 -10.0257     44.9886    120.4595   9.0685003101e+01   4.6648367343e+01    0.1989738    0.1851104  56.60  0.000867199    1.067    0.063
        72 -10.1561     43.7720    116.7682   9.0541034527e+01   4.7737651431e+01    0.3050584    0.2151277 -85.85 0.0007635469    1.447    0.309
        73 -10.6017      7.1739    114.8411   1.0361448516e+02   5.1457421705e+01    0.3811645    0.2523271 -69.62  0.001249781    1.382    0.277
        74 -12.3859      2.4610    111.9509   1.0511963735e+02   5.2475714505e+01    0.5219126    0.2622011 -80.95 0.0007741698    1.741    0.426
        75 -11.2020      4.0762    104.8134   1.0397866685e+02   5.4236244773e+01    0.4218101    0.3038712  35.40  0.001953088    1.446    0.308
        76  -9.6026     79.1456    114.8309   7.7936135172e+01   4.3277911235e+01    0.2052069    0.1769652 -23.87  0.001065104    1.318    0.241
        77  -9.6576     67.9787    115.1523   8.1746031645e+01   4.4946010650e+01    0.2615288    0.1555768  59.29  0.001088461    2.075    0.518
        78 -10.4284     34.2653    103.8605   9.2032376809e+01   5.2131292641e+01    0.3343828    0.1960987  -5.68  0.001094722    2.565    0.610
        79 -12.0276     17.8446    101.2829   9.8187008925e+01   5.4269811395e+01    0.4501557    0.3645409  40.74   0.00110002    1.282    0.220
        80 -11.8179     24.9232    107.3352   9.6178612166e+01   5.2102881131e+01    0.8326437    0.5205165 -55.97  0.004174245    1.542    0.351
        81 -11.4340     21.4084    114.5055   9.8378431033e+01   5.0524979273e+01    0.4495046    0.2799689  -8.73  0.001342967    2.200    0.545
        82 -11.4425     28.2734    113.1744   9.5679568561e+01   5.0275060165e+01    0.5366433    0.2965212   6.48  0.002360767    2.409    0.585
        83  -9.5121     93.4327    112.2237   7.2764055747e+01   4.1439527215e+01    0.2110949    0.1452648 -66.89 0.0006060933    1.673    0.402
        84  -9.9514     48.8915    112.1840   8.7921959309e+01   4.8309661309e+01    0.2277319    0.1858172  63.81 0.0009517616    1.248    0.198
        85  -9.6192     66.1159    110.8274   8.1492300796e+01   4.6304822815e+01    0.2019378    0.1750373 -25.88 0.0008728878    1.308    0.235
        86  -9.4772    170.4891    110.4363   5.2927481332e+01   2.6399597967e+01     0.142521    0.1302549  -8.33 0.0001192916    1.032    0.031
        87 -11.3339     80.1652    108.2667   7.6101605022e+01   4.4701331330e+01    0.4614751    0.3356249  28.83 0.0005568332    1.463    0.317
        88 -10.4003     15.4027    109.2444   1.0005033651e+02   5.2360650940e+01    0.3766358    0.1414064  39.99  0.001540481    2.524    0.604
        89  -9.2438    120.2949    109.3548   6.4238845670e+01   3.6911790400e+01    0.1555797    0.1186308  -7.73 0.0007032469    1.690    0.408
        90 -10.1008    102.0157    109.0351   6.9356141943e+01   4.0579220825e+01     0.236798    0.1858461  -7.22 0.0004743719    1.636    0.389
        91  -9.7062    143.0508    105.9945   5.7639605550e+01   3.2879263919e+01    0.2326689    0.1866282 -79.09  0.001123997    1.688    0.408
        92 -10.0553     87.3584    104.1708   7.2714977536e+01   4.4427190735e+01    0.4264006     0.152866  46.50  0.001369896    3.084    0.676
        93 -10.6440     51.7821     99.1636   8.4293654754e+01   5.1294996293e+01    0.6902369    0.1786229 -49.11  0.002018071    3.952    0.747
        94 -11.7880      9.2874     97.3581   1.0121222066e+02   5.5887099632e+01    0.5099635    0.3524529  58.03 0.0004485702    1.451    0.311
        95 -12.6266      7.2776     89.4844   1.0120729914e+02   5.8078278409e+01    0.5517082    0.3718708  32.99 0.0002331946    1.578    0.366
        96  -9.8110     28.0340     99.9234   9.3887639307e+01   5.3773702687e+01      0.21821    0.1502895 -40.34 0.0004698068    1.594    0.373
        97 -10.5779     80.5192     98.4652   7.3546048528e+01   4.7005726283e+01    0.5326204    0.3175525  64.65  0.002023969    2.556    0.609
        98 -11.3733     83.1244     93.0298   7.1179465527e+01   4.7831764858e+01    0.5460622    0.3339846  57.49 0.0002865223    2.037    0.509
        99 -10.4004     77.6803     93.1693   7.3128237673e+01   4.8777493938e+01    0.4130688    0.2718025  44.08  0.001664242    1.554    0.356
       100 -11.4444    125.7892     94.8091   5.8801831390e+01   3.8769380830e+01    0.2847352    0.2697122 -27.76 0.0002228842    1.040    0.038
       101 -10.6456    121.6945     93.5233   5.9510934287e+01   3.9915879365e+01    0.5149886    0.2220743 -50.97  0.001773066    2.665    0.625
       102 -11.3206     69.2546     95.6116   7.6828646511e+01   4.9609267527e+01    0.3607106    0.2663989  36.49  0.000613159    1.385    0.278
       103 -10.5244     42.7524     94.7752   8.6966330895e+01   5.3569402314e+01    0.3432763    0.3005241 -86.91  0.001445059    1.123    0.110
       104 -11.3235     27.1896     86.1036   9.1901812994e+01   5.7495008590e+01    0.9205706     0.464597  21.00  0.003836961    2.186    0.543
       105 -10.4231     30.8655     95.6744   9.2033478954e+01   5.4623747373e+01    0.2924207    0.2530747 -71.72 0.0009646672    1.063    0.060
       106 -11.0833     35.0920     92.3174   8.9654338402e+01   5.5075049831e+01    0.6179942    0.3073809 -83.86  0.002093391    2.476    0.596
       107 -11.5098     44.1210     85.4780   8.4342228283e+01   5.5810916340e+01    0.5590795    0.3451532  28.51  0.002264927    1.718    0.418
       108 -10.2682     37.2820     85.9070   8.7404468378e+01   5.6512122652e+01    0.2936918     0.209868  27.03 0.0007164886    1.497    0.332
       109 -11.6618     22.5330     94.4532   9.5321435609e+01   5.5700816903e+01    0.3447613    0.2940468 -33.18  0.001087007    1.293    0.226
       110 -11.8587     18.1073     90.6189   9.6644772525e+01   5.7065763812e+01    0.4297071    0.2959105  86.69 0.0004770336    1.434    0.303
       111 -11.2002     98.5885     91.1151   6.5522431622e+01   4.5283693734e+01    0.2977668    0.2441874  44.61  0.001479252    1.235    0.190
       112 -11.7307     89.2346     89.9169   6.8210474147e+01   4.7405376425e+01    0.4321589    0.3303817 -38.07 0.0005313646    1.351    0.260
       113 -10.4194     49.4728     91.4858   8.3506323607e+01   5.3575322509e+01    0.2839441    0.2112203  40.95   0.00133906    1.387    0.279
       114 -10.0116     66.1758     88.7409   7.6183205660e+01   5.1803765457e+01    0.2953582    0.1856507 -31.09  0.001016413    2.046    0.511
       115 -10.0395    104.1387     88.0531   6.2893629789e+01   4.4811899615e+01    0.2457716    0.2081995 -16.19  0.001214962    1.334    0.250
       116 -10.8237     80.2709     84.0560   6.9581595667e+01   5.0465750502e+01    0.4324202    0.3203028 -50.60  0.001700291    1.320    0.243
       117 -10.8318     76.4743     78.5305   6.9263921862e+01   5.2457735421e+01    0.6418442    0.2942191 -58.01  0.002287446    2.527    0.604
       118 -10.5111     72.9919     78.4882   7.0568000353e+01   5.3105570148e+01     0.400916    0.2995337 -79.30  0.001846184    1.704    0.413
       119 -10.8578    143.2232     84.4817   5.1543680551e+01   3.6861635524e+01    0.2667649    0.2414522 -34.15 0.0003482804    1.068    0.064
       120 -10.5807    113.2340     82.9255   5.8640139611e+01   4.3931471530e+01    0.4115017    0.2974341 -62.53  0.001851621    1.653    0.395
       121 -10.1046     67.2858     81.6924   7.3757427836e+01   5.3339879110e+01    0.3774764    0.2675625 -18.23  0.001668609    1.925    0.480
       122 -10.9102     58.2683     77.8162   7.6274153132e+01   5.5751090652e+01    0.3107264    0.2383021 -48.14 0.0007763375    1.254    0.202
       123 -11.2942     53.3957     76.4032   7.7939871539e+01   5.6841058056e+01    0.5485301    0.4034437 -61.68  0.002718928    1.327    0.246
       124 -11.5502     13.9324     74.3607   9.6013901449e+01   6.1653917341e+01    0.5640264     0.339697 -85.76  0.002746124    1.650    0.394
       125 -10.4444     13.9555     67.5165   9.4760827017e+01   6.3442989189e+01    0.3104832    0.1888767  22.01  0.001557711    1.800    0.444
       126 -10.5445     94.9473     76.5524   6.2145634207e+01   4.9223472745e+01    0.4573822    0.2586113  52.41  0.001556603    1.932    0.482
       127 -11.2723     79.3568     68.0155   6.4653327721e+01   5.4277047525e+01    0.9361416    0.6072432  81.49  0.003381626    3.094    0.677
       128 -10.7978     82.7389     73.6663   6.5370153419e+01   5.2357682110e+01    0.6019671    0.2379449  46.24   0.00162026    2.653    0.623
       129 -11.3206    248.0030     76.4986   3.3618554954e+01   1.6520272321e+01    0.2689782    0.1226718  61.22  0.001378996    2.791    0.642
       130  -9.8781    103.8749     74.8629   5.8766962634e+01   4.7649639049e+01    0.2417874    0.2150368  14.42  0.001230674    1.236    0.191
       131 -11.0554    187.4090     71.0559   3.9538517865e+01   2.9029878719e+01       0.5627    0.2402103 -35.36  0.002323453    2.041    0.510
       132 -11.0943     88.0220     72.7665   6.3198381811e+01   5.1484796081e+01    0.6601621    0.2784834  40.35   0.00233891    2.499    0.600
       133 -10.2052     29.2201     71.9972   8.7975360092e+01   6.0982639842e+01    0.2561797    0.2034518  47.81  0.001053624    1.366    0.268
       134 -11.1891     40.7486     71.9333   8.2396644235e+01   5.9693197540e+01    0.5503911    0.3263032 -70.27  0.002453335    1.783    0.439
       135 -10.9923     34.9318     71.7490   8.5127841840e+01   6.0434734644e+01    0.5603455    0.2425099  30.12  0.002267082    2.375    0.579
       136 -10.2635     24.2983     73.6491   9.0767998324e+01   6.1023211491e+01    0.2683829    0.1770102 -71.27  0.001341452    1.406    0.289
       137 -10.9715      2.0540     71.6086   1.0152556501e+02   6.3039696630e+01    0.3839024    0.2026806 -72.06  0.001353749    1.599    0.375
       138  -9.0679    153.6865     72.6542   4.5759911009e+01   3.6481357281e+01    0.1539387     0.115316  12.74 0.0007046995    1.713    0.416
       139 -11.1645    122.9520     68.8518   5.1412285530e+01   4.4435253525e+01    0.4523995     0.295406  40.45  0.001514743    1.644    0.392
       140 -10.7939    219.9184     66.8011   3.4254498707e+01   2.2828952220e+01    0.3900046    0.2121247  66.85  0.001963074    2.262    0.558
       141 -10.5979     58.8595     64.0794   7.1588155363e+01   5.8944173444e+01    0.5312527    0.2322339 -55.93  0.001966874    2.372    0.578
       142 -12.4662      6.3174     62.3145   9.7907183516e+01   6.5258990893e+01    0.6973361     0.465529 -13.85  0.003162091    1.730    0.422
       143 -11.4399     40.9396     56.9652   7.7648728616e+01   6.3360579921e+01    0.4541707    0.2491753  43.88  0.001984399    2.043    0.511
       144 -10.8564     51.7805     61.6975   7.3972163046e+01   6.0649382583e+01    0.3835165    0.2430912  48.30  0.001745197    1.786    0.440
       145 -11.3289     43.4081     62.2967   7.8205311416e+01   6.1735444561e+01    0.3386216    0.2494095 -60.25 0.0003142312    1.313    0.238
       146 -10.9757     46.3187     59.0414   7.5663838935e+01   6.2104489889e+01    0.3408713    0.2779773 -83.20 0.0008580334    1.454    0.312
       147  -9.8806    158.3517     62.8993   4.1864077093e+01   3.6921821766e+01    0.4823094    0.1382611  47.25  0.001441247    3.962    0.748
       148 -10.6765     91.7013     62.7581   5.8360889340e+01   5.2795610673e+01    0.3681427    0.2679501  68.26  0.001319498    1.715    0.417
       149 -12.0290     74.8282     52.6568   6.0489084390e+01   5.8435855440e+01     1.003412    0.4008994 -50.96  0.002838464    2.940    0.660
       150 -10.9202     72.5274     47.5044   5.9206506935e+01   5.9936818009e+01    0.3043444    0.2551963 -57.39  0.000842296    1.303    0.233
       151 -10.9663    234.6705     60.8886   3.1300867938e+01   2.0724300551e+01    0.2018729    0.1740183  39.33  0.001353236    1.399    0.285
       152 -11.3370    118.4235     56.6790   4.8263185658e+01   4.7684725261e+01      1.52415    0.6144823 -54.26   0.00414896    4.621    0.784
       153 -10.5599    109.4212     41.8443   4.4798611441e+01   5.2337464857e+01     0.584812    0.3047738 -22.44   0.00225265    2.286    0.563
       154 -10.2792    111.7867     50.4302   4.7614338802e+01   5.0369065985e+01     0.447052    0.2598623  59.40  0.001879823    1.790    0.441
       155 -11.9059    117.8417     44.0147   4.3592656555e+01   4.9884515182e+01     0.604741    0.5387909 -48.75  0.002656904    1.131    0.116
       156  -9.9573    142.5069    249.5188   8.2829209686e+01   8.6672279240e+00    0.1101382   0.08106825  23.19 0.0008103335    1.010    0.010
       157 -10.0010     81.7060     60.0063   6.0818452104e+01   5.5502850863e+01    0.5469202    0.2944364  68.03  0.001656607    4.176    0.761
       158 -10.8284     24.7804     59.5928   8.7103652950e+01   6.4591961568e+01    0.7634313    0.2540648  23.02  0.002773191    3.237    0.691
       159 -11.4296     25.0218     56.0002   8.5948539789e+01   6.5471420462e+01    0.6032589    0.3561386  14.25  0.002716311    1.959    0.490
       160  -9.5849    113.6436     61.1961   5.1165610047e+01   4.8043888891e+01    0.2296676    0.1445078 -26.58 0.0009617364    1.773    0.436
       161 -10.1199     91.6342     57.1471   5.6236820612e+01   5.3918748394e+01     0.282389    0.2158962  69.24 0.0006101842    1.567    0.362
       162  -9.9731     87.6157     56.6871   5.7417425862e+01   5.4901578113e+01    0.3763114    0.2026469 -37.42  0.001342431    1.880    0.468
       163  -9.8466     51.1331     56.4884   7.2388353393e+01   6.1965727335e+01    0.2393365    0.1959446 -23.85    0.0010027    1.300    0.231
       164  -9.3779    125.3295     56.3221   4.6445428119e+01   4.6048830182e+01    0.1579536    0.1180319  19.46 0.0004666114    1.694    0.410
       165  -9.6179    106.5736     58.7467   5.2231738501e+01   5.0169783232e+01    0.2171182    0.1404868 -48.38  0.000938431    1.613    0.380
       166 -10.2394    157.7520     54.6281   3.9350772998e+01   3.8298489493e+01     0.395213    0.2239687 -70.32  0.001478556    2.830    0.647
       167  -9.4777     67.1556     55.1719   6.4635602757e+01   5.9441113039e+01     0.199153    0.1775965 -77.33  0.001028332    1.291    0.225
       168 -10.3621      6.6179     54.7235   9.6318763107e+01   6.7200559762e+01    0.3685346    0.1984152 -31.94  0.001746419    2.001    0.500
       169 -11.2987     60.7455     48.1844   6.4520730266e+01   6.2127917520e+01    0.8150514    0.3296799 -40.31  0.002952316    2.532    0.605
       170 -10.2471     33.4831     52.2768   8.0002420533e+01   6.5450490187e+01    0.5330086    0.2767202   9.80  0.002084533    2.864    0.651
       171 -11.2772     45.3301     48.3003   7.2080026092e+01   6.4737836356e+01    0.5106316    0.3775305 -45.25  0.002633411    1.271    0.213
       172 -11.1842     44.0371     43.9855   7.0939161059e+01   6.5896033881e+01    0.3478137    0.2625306  39.72 0.0003157397    1.410    0.291
       173 -10.7014     38.8740     44.1682   7.3855201353e+01   6.6626670310e+01    0.3544022    0.2540927   8.48  0.001480222    1.658    0.397
       174 -10.1107    240.1977     50.8368   2.8435147297e+01   2.0847971855e+01    0.1607915    0.1344101  -3.76 0.0007582724    1.327    0.246
       175 -10.4088     51.6104     48.3201   6.8899260128e+01   6.3721105685e+01     0.275815    0.2612846 -18.23 0.0007789204    1.024    0.024
       176 -11.7511     20.8721     46.2564   8.5365755727e+01   6.8277684270e+01     0.386103    0.2868509 -59.18  0.001186759    1.222    0.182
       177 -10.2605     26.4910     43.0061   8.0710686613e+01   6.8477203508e+01    0.2323852    0.1905186 -59.32  0.000748758    1.179    0.151
       178 -10.8168     21.8602     36.9812   8.1320300636e+01   7.0388389458e+01    0.5708865    0.2513356  43.70  0.002300138    2.891    0.654
       179  -9.7785      2.2600     49.1710   9.7866023877e+01   6.8830895174e+01    0.2477031    0.1726287  28.65  0.001384001    1.617    0.382
       180  -9.5124    201.6521     48.7080   3.1568942037e+01   2.8863333896e+01    0.1316866   0.09944121  24.23 0.0007028804    1.667    0.400
       181  -9.7300    146.4156     47.3312   3.8913461025e+01   4.2157342059e+01    0.2779624    0.1454845 -24.03  0.001019565    2.046    0.511
       182 -10.1959     13.2886     47.1141   9.0397219098e+01   6.8702545284e+01    0.3562362    0.1517776 -48.39  0.001535299    2.044    0.511
       183  -9.3504     82.3229     47.3238   5.5413405392e+01   5.7863199085e+01    0.1553227    0.1179027   8.60 0.0007047199    1.682    0.406
       184 -10.0451    133.9914     45.7375   4.0714146117e+01   4.5529339679e+01    0.2207053    0.2149762  89.61 0.0003292205    1.028    0.027
       185 -10.1132    138.7632     44.2208   3.9234801293e+01   4.4534535577e+01    0.4134539    0.1993704  35.65  0.001353996    3.094    0.677
       186 -10.0945    200.1396     45.2434   3.0786590550e+01   2.9613746402e+01    0.3422235    0.1652389  85.43  0.001391462    3.039    0.671
       187 -10.5269    155.9782     42.2965   3.5607908404e+01   4.0444995983e+01    0.2778192     0.242303  16.68 0.0009192843    1.306    0.234
       188  -9.7213     17.4508     41.8663   8.6077170127e+01   6.9655286684e+01    0.2732338    0.1384509 -30.78  0.001171598    2.303    0.566
       189 -10.2069     92.3987     41.2554   4.9375248183e+01   5.6605870872e+01    0.3635125    0.1988759  56.83  0.001501319    1.882    0.469
       190 -11.0806    231.7968     39.1137   2.6310219486e+01   2.3727098961e+01    0.3422448     0.110599 -34.77  0.001504495    2.245    0.555
       191 -11.0873     78.3571     37.1731   5.2244984733e+01   6.0561247808e+01    0.6317403    0.3783195 -65.36  0.002245951    2.983    0.665
       192 -10.8413     80.0365     32.6402   4.9454019484e+01   6.0921855209e+01    0.4578243    0.3310503  17.60  0.002151576    1.702    0.412
       193  -9.6309    183.5035     38.0631   3.0583964887e+01   3.4265775490e+01    0.1983239    0.1245783 -30.53 0.0003351044    1.450    0.311
       194 -11.1373     60.6492     36.2941   5.9034831940e+01   6.4500303110e+01    0.3887648    0.2777649 -25.87  0.001319377    1.481    0.325
       195 -10.1034     67.3437     32.4762   5.4196971133e+01   6.3794709368e+01    0.4182826    0.2459934  30.37  0.001307927    2.075    0.518
       196 -11.7903     57.8441     30.0610   5.7098651289e+01   6.6192671567e+01    0.4335414    0.3347099 -17.37  0.001197362    1.376    0.273
       197 -11.3341     48.7895     30.4857   6.1819209600e+01   6.7854264635e+01    0.7792606    0.3637036  32.12  0.003048631    2.576    0.612
       198 -10.2727     43.0226     28.0559   6.3643185981e+01   6.9337314278e+01    0.2058391    0.1872303 -10.18  0.001205004    1.028    0.027
       199  -8.9310    206.3228     37.3274   2.8016784764e+01   2.9177547467e+01    0.1286615   0.09760548  21.95 0.0007048693    1.691    0.408
       200 -11.2244      4.6864     35.9513   9.3050154990e+01   7.2010379187e+01    0.3681833    0.2746549   4.07  0.001502723    1.472    0.321
       201 -10.0354    176.5614     35.7536   3.0699995971e+01   3.6192850803e+01    0.2738599    0.1697083 -51.21 0.0008329573    1.580    0.367
       202 -10.0060    153.1452     36.1302   3.3963458341e+01   4.1951499194e+01    0.2080993    0.1957529  32.71 0.0004905596    1.155    0.134
       203  -9.2736     94.2916     35.6717   4.6304126462e+01   5.7040776618e+01    0.1515862    0.1147396 -65.67 0.0005519862    1.623    0.384
       204  -9.7281    174.8098    246.5810   7.6619323512e+01   5.2890453480e+00    0.1510245   0.07816131  34.79 0.0009521598    1.664    0.399
       205 -12.2361    126.5410    241.9912   8.5074542541e+01   1.1549798694e+01    0.3143451    0.2674409  45.15  0.002141183    1.345    0.256
       206 -11.2071     73.8630    238.8459   9.5401711642e+01   1.8114924557e+01     0.452611    0.1495769  42.43  0.002250686    2.293    0.564
       207 -11.8803    160.0517     29.7111   3.0827121486e+01   4.0973821031e+01    0.3973293    0.3657527  -9.96 0.0004180883    1.170    0.145
       208 -11.7673    164.3540     27.6623   2.9609450116e+01   4.0124775000e+01     0.289275    0.2758583 -40.55 0.0004970365    1.061    0.057
       209 -10.2398     11.2919     30.7916   8.6383876605e+01   7.2805546817e+01    0.3028574     0.219608 -35.30 0.0009255359    1.277    0.217
       210 -10.0207      7.0220     30.4879   8.9540407260e+01   7.3186161901e+01    0.3206537    0.1517864 -21.68  0.001371339    2.623    0.619
       211 -11.9855     26.8283     27.8828   7.3733252295e+01   7.1831340157e+01    0.4821839    0.4413002   3.84 0.0008151967    1.108    0.097
       212 -11.3925    147.3540    237.7325   8.0585178090e+01   9.6234180960e+00    0.4346895    0.1920609  35.98  0.002437676    1.832    0.454
       213 -10.5806     13.8975     23.4377   8.1123673711e+01   7.4255410612e+01    0.2356412    0.1632732 -44.69 0.0003921503    1.262    0.208
       214 -10.1135    176.4848     30.6754   2.9149655283e+01   3.6797477781e+01     0.230065    0.1258973  70.84 0.0008586721    1.903    0.475
       215 -11.7906    125.6894     28.2240   3.5657321670e+01   5.0035831511e+01     0.535491    0.4400662  84.61  0.002808234    1.259    0.206
       216  -9.6498     98.9867     29.9795   4.2392055467e+01   5.6706652477e+01    0.2508136    0.1759974 -66.70  0.001133571    1.820    0.451
       217 -10.2613    197.8388     29.2200   2.6572633375e+01   3.1952172138e+01    0.3117092    0.1655932  66.54  0.001525715    1.998    0.499
       218 -11.1116    189.1413     27.5148   2.6894049770e+01   3.4134379538e+01    0.3443184    0.2802848  17.84  0.001626353    1.504    0.335
       219 -11.3740    182.9994     25.7106   2.6957530078e+01   3.5776365555e+01    0.3588706    0.2744102  67.42  0.002024563    1.378    0.274
       220  -9.3896    150.4349     27.4627   3.1358191175e+01   4.3682716199e+01    0.1417427    0.1337928 -60.39 6.646593e-05    1.007    0.007
       221  -9.4816    169.5213     33.5367   3.0865696474e+01   3.8168403161e+01    0.1392688    0.1300617 -51.77 0.0001598735    1.012    0.012
       222 -10.1002    230.7512     26.2456   2.3254346830e+01   2.5272694476e+01    0.1551366    0.1375435  -0.16  0.001057097    1.330    0.248
       223 -10.7155    143.0991     25.1188   3.1573193226e+01   4.5847376044e+01    0.2649955    0.1968145  79.67  0.001066974    1.368    0.269
       224 -10.8788    135.5056     22.3679   3.1691917709e+01   4.8140222543e+01    0.5194451    0.3306994  60.62  0.002394919    1.523    0.343
       225  -9.7565     59.6141     23.7150   5.2761425137e+01   6.6890618032e+01      0.19079    0.1293526 -42.23 0.0004881476    1.537    0.350
       226  -9.5473    199.6719    234.6950   7.0781754273e+01   3.7903443849e+00    0.1118402   0.06416851   4.92 0.0003437416    1.651    0.394
       227  -9.8018    246.6765    231.3133   6.2925193617e+01  -9.1705799495e-01   0.08359512    0.0706538   5.39 0.0007040678    1.659    0.397
       228 -11.3499     67.6564    240.8127   9.6814102472e+01   1.8471685223e+01     0.260546    0.1759947   1.86  0.001143439    2.035    0.509
       229  -9.9967     89.5005     16.5106   3.8392178560e+01   6.0825542222e+01    0.2528792    0.2156665  -7.12 0.0008934714    1.231    0.187
       230 -10.0867    233.4834    227.4807   6.4330039175e+01   8.1589316600e-01    0.1045298   0.07317235   4.08 1.883306e-05    1.035    0.034
       231 -10.1393    164.7233    212.0166   7.3879410479e+01   1.0930904749e+01    0.2019656    0.1423371  25.45 0.0006199721    1.170    0.146
       232 -12.0179    247.5103     20.4417   2.0896440360e+01   2.2634894583e+01    0.4269828    0.1997744 -65.41  0.002234121    2.380    0.580
       233  -9.5682    223.6917     22.3142   2.2747987113e+01   2.7087648601e+01    0.1335104   0.07306398 -51.57 0.0003512653    1.628    0.386
       234 -10.8696    178.9717     20.7667   2.5853598068e+01   3.7259405265e+01    0.4761094     0.224987  42.44   0.00190365    2.820    0.645
       235 -10.1375    149.5084     22.4891   2.9731269755e+01   4.4474045423e+01    0.1408409    0.1339077 -67.65 0.0001246152    1.008    0.008
       236  -9.9138    171.4792    209.4693   7.2214494338e+01   1.0388233077e+01    0.1195047   0.09380318  12.50 7.361989e-05    1.010    0.010
       237 -10.1262    152.9205    207.4098   7.5536662072e+01   1.3183956491e+01    0.2005196    0.1784886 -68.83  0.001372421    1.686    0.407
       238  -9.6643     74.4193     19.7044   4.4662812663e+01   6.4140431528e+01    0.2323992    0.1864899  45.83 0.0005001329    1.198    0.166
       239 -10.0590     46.8743     19.3049   5.6325332373e+01   7.0184261158e+01    0.2533969    0.2192815  12.69  0.001462826    1.123    0.109
       240  -8.9908     61.4854    206.5217   9.5597882864e+01   2.5168678472e+01    0.1214112   0.09961154  43.90 0.0008101125    1.001    0.001
       241 -11.4229      5.9252    198.8241   1.0813199719e+02   3.2026095526e+01    0.3403533    0.1203016 -68.92   0.00165458    3.000    0.667
       242  -9.8119    233.7722    196.9886   5.9536899364e+01   4.0090608461e+00    0.1434081   0.07531267 -26.46 0.0008856982    1.682    0.405
       243  -9.7067    240.3427    195.3008   5.8268318613e+01   3.4192767049e+00    0.1150106   0.06515245   2.73 0.0007037467    1.675    0.403
       244  -9.9827    171.0052    191.0026   6.9415368416e+01   1.3095780157e+01    0.2994604    0.1510891  15.03  0.001324076    2.717    0.632
       245 -12.1321      4.8811    185.7270   1.0795426362e+02   3.4807442048e+01    0.3866139    0.3466044  33.25  0.001917871    1.245    0.197
       246 -10.0006    127.2740     16.4474   3.0648098826e+01   5.0942072275e+01    0.2971113    0.1881376  48.02 0.0008739285    1.619    0.382
       247 -11.3850    114.3950     24.9849   3.6543989310e+01   5.3388106153e+01     0.531066    0.2789841  62.13  0.001497174    1.820    0.451
       248 -11.6187      2.8366    181.6611   1.0832245494e+02   3.5824625695e+01    0.3295819    0.2626909 -34.94  0.001979489    1.710    0.415
       249 -10.1068    186.7706     15.0100   2.3446389615e+01   3.5962498449e+01    0.2128818    0.1833676 -89.49 0.0004728066    1.173    0.148
       250  -9.2782     85.9777    185.7374   8.7605342245e+01   2.6245028605e+01    0.1758053    0.1004995  31.72 0.0008917641    1.549    0.354
       251  -9.3667     53.0283    190.4698   9.6289510249e+01   2.9308747589e+01    0.1631235    0.1046769  -3.98 0.0008084989    2.434    0.589
       252  -9.8197     28.0279    175.7037   1.0157347046e+02   3.5042507147e+01    0.1771495    0.1465339  46.03 0.0007216425    1.088    0.081
       253  -8.9721     74.6435     13.2849   4.0965073017e+01   6.4893274103e+01    0.1427018    0.1091277 -69.97 0.0003841638    1.671    0.402
       254  -9.7375     51.6316    173.7729   9.5137735882e+01   3.3040044019e+01    0.1720049    0.1152142  87.67 0.0003909957    1.601    0.375
       255  -9.9246     39.5131    173.5296   9.8360191318e+01   3.4402506157e+01    0.1278108    0.1095929  56.65 9.585778e-05    1.002    0.002
       256 -10.0288    120.8651     11.6514   2.9673184010e+01   5.3116468474e+01    0.3192307    0.1294945  70.95 0.0006578387    2.375    0.579
       257  -9.9633     35.5225    169.4515   9.9108506015e+01   3.5723756609e+01    0.1292931    0.1085524  58.09 0.0001517239    1.029    0.028
       258 -12.8453      9.8781    166.1959   1.0588304187e+02   3.8718658679e+01    0.6103824    0.3645163 -68.45   0.00296829    1.721    0.419
       259  -9.8600     65.6745     10.4144   4.2304444373e+01   6.7372060116e+01    0.2558192    0.1363359  63.64  0.001111789    2.003    0.501
       260 -11.1342     14.0679    159.1644   1.0435895885e+02   4.0015916497e+01    0.2833969    0.2151994 -81.85  0.001125083    1.274    0.215
       261  -9.3062    198.2486    167.9819   6.0250629131e+01   1.2433676368e+01    0.1539227     0.095516 -30.65 0.0004795324    1.520    0.342
       262 -10.8951     18.9988    164.9622   1.0332528278e+02   3.8269926874e+01    0.2631646    0.2077734  -2.40  0.001615913    1.625    0.384
       263 -10.2933    205.0166    163.3170   5.8186897835e+01   1.2074304471e+01     0.221516    0.1626579 -28.24 0.0006979934    1.296    0.228
       264 -10.6956     28.1254    161.5312   1.0054451532e+02   3.8257002434e+01    0.2831735    0.1611971 -71.45  0.001485067    1.734    0.423
       265  -9.8676     38.1536    161.1541   9.7671091930e+01   3.7366059085e+01    0.1923691    0.1341756  59.40 0.0007042601    1.324    0.244
       266  -9.6129     53.5566    155.7738   9.2685263440e+01   3.6926642558e+01    0.1880151    0.1240003  89.27 0.0007046652    1.648    0.393
       267 -11.0449      9.3651    155.3903   1.0548884648e+02   4.1259809136e+01    0.2636728    0.1345298  86.35  0.001259993    1.838    0.456
       268  -9.8722    104.4995    155.0145   7.8346594487e+01   2.9926026187e+01    0.2340876    0.1820031  34.91  0.001264347    1.203    0.169
       269 -10.7580     30.8438    152.6998   9.9040516116e+01   4.0089301038e+01    0.3791069    0.2260432  60.31  0.001957362    1.605    0.377
       270 -12.2508     22.4040    149.3820   1.0128341028e+02   4.1654377986e+01     0.675127    0.3555158 -32.87   0.00279173    2.975    0.664
       271 -11.5167     15.9586    147.8109   1.0310504220e+02   4.2566863115e+01    0.2811007    0.2486767  64.21 0.0008281157    1.047    0.045
       272 -11.4925      3.4273    152.9058   1.0707006436e+02   4.2263628779e+01    0.3659934    0.2924268  58.39  0.002382668    1.077    0.072
       273 -11.4676      2.9965    147.6262   1.0695699208e+02   4.3546847287e+01    0.6277998     0.233474  23.70  0.002839398    2.583    0.613
       274 -11.4773      5.9440    142.2871   1.0580521059e+02   4.4640727537e+01      0.35719    0.1996384  71.34 0.0002998567    1.631    0.387
       275 -11.5910      1.9643    141.2863   1.0696978101e+02   4.5142300100e+01    0.3972715    0.2146879 -85.97  0.001293394    1.661    0.398
       276  -9.3626    141.3235    152.3173   6.8725766012e+01   2.4301338985e+01    0.1432521     0.104067  -1.47 -0.0001541599    1.669    0.401
       277 -11.5277     47.6012    147.0103   9.3419870957e+01   3.9710638215e+01     0.568431    0.4207725 -27.73  0.003008995    1.761    0.432
       278  -9.9225     64.0164    150.4765   8.8952817137e+01   3.6874759917e+01    0.1924676    0.1208141  -3.44 0.0008101825    2.613    0.617
       279  -9.3725     74.3646    145.8281   8.5219400612e+01   3.6560896407e+01    0.1922533    0.1238796 -51.45 0.0005146266    1.632    0.387
       280 -11.2739     33.1743    144.5399   9.7578339973e+01   4.1843099777e+01    0.2993917    0.2368007  76.14 0.0007561898    1.178    0.151
       281 -12.1418     12.5981    136.4788   1.0336805503e+02   4.5603270227e+01    0.5344031    0.3667036 -65.08  0.003024712    1.446    0.309
       282 -10.2210     40.5403    138.3093   9.4587147570e+01   4.2627972090e+01    0.2502893     0.175917  72.78 0.0007691904    1.436    0.303
