#   1 NUMBER                 Running object number                                     
#   2 MAG_AUTO               Kron-like elliptical aperture magnitude                    [mag]
#   3 X_IMAGE                Object position along x                                    [pixel]
#   4 Y_IMAGE                Object position along y                                    [pixel]
#   5 X_WORLD                Barycenter position along world x axis                     [deg]
#   6 Y_WORLD                Barycenter position along world y axis                     [deg]
#   7 A_WORLD                Profile RMS along major axis (world units)                 [deg]
#   8 B_WORLD                Profile RMS along minor axis (world units)                 [deg]
#   9 THETA_WORLD            Position angle (CCW/world-x)                               [deg]
#  10 FWHM_WORLD             FWHM assuming a gaussian core                              [deg]
#  11 ELONGATION             A_IMAGE/B_IMAGE                                           
#  12 ELLIPTICITY            1 - B_IMAGE/A_IMAGE                                       
         1 -13.3450     31.9491     67.5898   7.4426265235e+01   5.9525215133e+01     1.570437      1.14203  37.21  0.009624142    1.677    0.404
         2 -14.4472    137.0008     93.1914   4.7656935096e+01   3.6845615643e+01     1.976761     1.281702  66.28  0.008061334    2.013    0.503
         3 -11.9625     51.2580     54.8402   6.3157602338e+01   6.0095715610e+01    0.8790508    0.6544967  83.18    0.0044289    2.654    0.623
         4 -12.6823     10.2353     15.0678   6.7032169454e+01   7.1128473790e+01    0.4786382    0.3061952 -14.55  0.003268287    1.374    0.272
         5 -13.7832     20.2562      6.1612   5.7712705094e+01   7.1618950408e+01     1.381087    0.5591706  29.64  0.007500484    2.543    0.607
         6 -11.3798    177.8005      9.1857   1.4214996886e+01   3.9510571965e+01    0.5696383   0.06644212  57.63  0.001616943    4.733    0.789
         7 -12.3314    196.6818      5.1709   1.0955186008e+01   3.5198195345e+01    0.8461289    0.2269517  72.94  0.002894989    3.490    0.713
         8 -11.5842    161.6751      3.4817   1.4691275093e+01   4.4107478682e+01    0.6942174    0.2342181  63.76  0.002766739    2.373    0.579
         9 -11.3697     88.9432      3.8527   2.9218468909e+01   6.1130765869e+01    0.3329029    0.2541705  46.46   0.00135052    1.184    0.155
        10 -11.1299     53.5419      2.8809   4.0628493345e+01   6.7715100840e+01    0.2458663    0.1780351  22.38  0.001614526    1.165    0.141
        11 -12.1567    202.1704      3.0060   9.8510554443e+00   3.4067497581e+01    0.4549092    0.3932711  36.52   0.00285866    1.453    0.312
        12 -10.8970     55.0873     10.6840   4.3795752663e+01   6.6588915009e+01    0.2231005    0.1917889 -12.33  0.001232136    1.229    0.187
        13  -9.9618    141.9648    211.4505   7.1747162982e+01   1.0516858022e+01    0.2176336    0.1178572  42.57  0.001031296    1.608    0.378
        14 -10.1364    245.8767    249.9980   5.7914815239e+01  -1.2029248210e+01    0.1707879    0.1241725  13.71 0.0003866637    1.033    0.032
        15  -9.3953     65.5049    249.9886   9.1070103644e+01   1.5273359204e+01    0.1924469    0.1007772 -81.46 0.0006052828    2.040    0.510
        16  -9.4073     65.3411    246.6783   9.0846761101e+01   1.5884568103e+01    0.1577411   0.09639857  79.44 0.0006251213    1.552    0.356
        17 -10.8162     68.7404    244.4683   9.0062668209e+01   1.5827630615e+01    0.2179927      0.20542 -81.70  0.001287319    1.451    0.311
        18 -10.4902     55.4541    250.4761   9.2861234606e+01   1.6492135262e+01     0.261745     0.203923 -54.57   0.00186718    1.896    0.473
        19 -11.2127     51.4261    250.1336   9.3532573809e+01   1.7060573455e+01    0.4044452    0.2633865  26.17  0.002485115    2.348    0.574
        20 -13.4355     45.9269    233.8900   9.3384836491e+01   2.0725917994e+01    0.5498292     0.324358 -68.69 0.0007547236    1.772    0.436
        21 -16.3292     69.8396    195.1770   8.5150117587e+01   2.5530760177e+01     5.003702     2.762397  42.30   0.02611898    1.700    0.412
        22 -10.7970    223.3665    219.9556   5.6924709080e+01  -4.9605001415e+00    0.2423916    0.1631407  26.77 0.0007285323    1.290    0.225
        23  -9.9553    173.5768    219.2918   6.6450298473e+01   3.5433444100e+00    0.2280476    0.1318095 -50.28  0.001139077    2.101    0.524
        24  -9.6602    212.3730    200.1471   5.5430654270e+01  -1.7074756732e-01    0.1797319    0.1231232 -46.95 0.0009461513    1.767    0.434
        25 -12.8649     27.0513    236.1306   9.6851238412e+01   2.2494164993e+01    0.4280714    0.2306641 -62.53  0.001150851    2.179    0.541
        26 -10.8314     65.6215    219.7910   8.8531341972e+01   2.0952697668e+01    0.1712261    0.1424238 -75.15 0.0007413528    1.319    0.242
        27 -10.6064    124.6089    195.1193   7.3006278645e+01   1.6818896169e+01    0.2832728     0.198309  34.83  0.001225981    1.446    0.308
        28  -9.5536    193.3253    194.3124   5.8104768936e+01   4.2264194421e+00    0.1428065    0.1024606   7.27 0.0007041036    1.661    0.398
        29 -10.1813     52.8279    233.9957   9.2140348953e+01   1.9849813214e+01    0.2702964    0.1205971 -63.89  0.001240017    2.371    0.578
        30 -10.1113    247.4676    193.0137   4.7626590447e+01  -4.9678990029e+00    0.1874128    0.1522683  15.81 0.0003339713    1.118    0.106
        31 -10.1133    248.4002    185.7310   4.6048253203e+01  -4.0538612186e+00      0.21525    0.1578601  45.46 0.0008965579    1.613    0.380
        32 -16.5445     10.8965    237.7827   9.9651275513e+01   2.3892385257e+01     2.232114     1.265528 -86.93    0.0110501    1.478    0.323
        33 -13.1663     43.0036    249.8288   9.4949747256e+01   1.8147568820e+01     0.337514    0.1981748  64.60  0.000853344    1.300    0.231
        34 -10.2826     24.5240    179.8026   9.3434516482e+01   3.4332119815e+01     0.224302   0.09415685 -70.91  0.001128276    1.995    0.499
        35 -11.4726    219.9058    230.3080   5.9323151330e+01  -5.8362502171e+00    0.2340146    0.1968478  27.15 0.0002774728    1.176    0.149
        36 -10.1167    212.0670    223.3441   5.9612752177e+01  -3.6199783954e+00    0.2774214    0.1754401   4.99  0.001446314    1.936    0.483
        37 -13.5266     37.3034    226.5033   9.4434609824e+01   2.3173568351e+01    0.6526906    0.5198947 -78.10 0.0007411825    1.367    0.268
        38 -10.6373    106.1084    170.0662   7.3255704829e+01   2.5541629056e+01    0.3257781    0.1962225  46.64  0.001517629    1.589    0.371
        39 -10.0622    113.4886    228.0941   7.9870567209e+01   1.2216221554e+01    0.2350949    0.2014666  19.84  0.001486467    1.483    0.326
        40 -11.2784    153.0916    210.0267   6.9186716648e+01   8.8001313453e+00    0.4032963    0.2580533  19.86  0.001896533    2.086    0.521
        41  -9.6452     12.7520    165.9599   9.4850523934e+01   3.8503141488e+01    0.1724758   0.08513045 -66.27 0.0004491386    1.728    0.421
        42  -9.9159     19.2825    167.0297   9.3490845187e+01   3.7689842179e+01    0.1668308    0.1299898  89.68 0.0005752414    1.011    0.011
        43 -10.9764     27.8269    160.4594   9.0917230718e+01   3.8392954409e+01    0.2315042    0.1749533 -62.57 0.0004990905    1.320    0.243
        44  -9.9899     11.9831    148.9323   9.3549715488e+01   4.2433746212e+01     0.193704    0.1453243  67.87            0    1.272    0.214
        45 -11.2969     22.3325    149.0702   9.1061949916e+01   4.1541943278e+01    0.5499372    0.2543947  27.61  0.002098376    2.581    0.613
        46 -12.2345     19.8162    155.5652   9.2318883607e+01   4.0258879110e+01    0.5920733    0.3439326  88.70  0.003357301    1.536    0.349
        47 -12.0500     24.1175    153.1445   9.1052265540e+01   4.0434877886e+01    0.3568652    0.3167152 -33.26  0.002459802    1.498    0.333
        48 -10.1916     14.4356    157.0220   9.3709840462e+01   4.0384430945e+01    0.1844251   0.09470932 -75.56 0.0004217337    1.560    0.359
        49 -10.5986    125.2695    221.5482   7.6654012144e+01   1.1499940174e+01    0.2578176    0.1927998  68.35 0.0005496932    1.388    0.280
        50  -9.3559    147.6873    150.3092   5.9293401072e+01   2.2048871189e+01    0.1554879    0.1213563  82.63 0.0005413612    1.626    0.385
        51 -11.3799    108.7263    148.1782   6.8604549821e+01   3.0172909058e+01    0.3629096    0.3069294 -52.13  0.001158839    1.198    0.165
        52 -12.9086      5.7201    212.6586   9.9291296593e+01   2.9210532321e+01    0.2902111    0.1998892  83.43 0.0004818473    1.091    0.084
        53 -12.4088    104.0123    141.4815   6.8500708554e+01   3.2602780202e+01    0.9971625    0.4721884  38.86  0.003947476    2.167    0.539
        54  -9.9561     58.9689    158.2857   8.3096860915e+01   3.5429789444e+01    0.1778152    0.1572671  76.48 0.0002389706    1.077    0.072
        55 -12.3996    135.8686    130.3687   5.7691829586e+01   2.8981757182e+01     0.816678    0.3375708  49.04  0.002790618    2.551    0.608
        56 -12.4026    142.7353    133.2659   5.6646933588e+01   2.6874082852e+01    0.6453161    0.4713684  20.22  0.002555843    1.765    0.433
        57 -13.7248    152.9499    129.6915   5.3285040713e+01   2.5442080464e+01     1.332133    0.8602708  53.78  0.005697066    1.630    0.386
        58  -9.7715    126.3234    131.9044   6.0516511393e+01   3.0602865114e+01    0.2103625    0.1972792 -54.26 0.0004023397    1.063    0.059
        59 -11.9304     32.3890    206.1001   9.3904933448e+01   2.7844811517e+01    0.3537242    0.2255775  85.99  0.001741696    1.308    0.235
        60 -14.2906    152.8463    117.9855   5.0393115128e+01   2.7998328469e+01     3.926905    0.9752784  48.91   0.01022324    4.248    0.765
        61 -14.6733    149.1363    105.8852   4.8120031723e+01   3.1420313562e+01     2.148233     1.236889  54.91   0.00855745    1.866    0.464
        62 -11.8032     53.5313     92.8896   7.2934651995e+01   5.1707730483e+01    0.8459534    0.4416361  16.86  0.003723929    2.660    0.624
        63 -12.8741     47.6090     81.9952   7.2340489154e+01   5.4843170966e+01     1.182402    0.8105629 -48.99  0.006629167    1.246    0.197
        64 -14.5966     94.4025    191.8144   7.9292987792e+01   2.2610538497e+01     2.008236     1.058477 -75.78  0.007328851    2.308    0.567
        65 -11.3534     35.1447    113.0129   8.2782699731e+01   4.8917135409e+01     0.380123     0.253769 -55.43  0.002167048    1.294    0.227
        66  -9.3467    172.6757    248.6679   7.0979121017e+01  -8.5718040185e-01    0.1229299   0.08565022  13.25  0.000705062    1.706    0.414
        67 -11.2899    118.0833    103.2450   5.5577797547e+01   3.8793794845e+01    0.4761312     0.212029  47.17  0.001727151    2.343    0.573
        68 -10.7313     21.9659     97.6479   8.4281979695e+01   5.3618287663e+01    0.3448601    0.3063467  -8.14  0.002379697    1.354    0.262
        69  -9.0769    105.2619    122.3504   6.3995153648e+01   3.6911853441e+01    0.1516891    0.1162463 -25.04  0.000321786    1.611    0.379
        70  -9.8836     21.3374     92.2975   8.3552464857e+01   5.4892617149e+01    0.1294551   0.07665131 -40.39 0.0007032255    1.656    0.396
        71 -10.0932     36.1136    119.9869   8.3624367010e+01   4.7166995404e+01    0.1975897    0.1859826  62.70 0.0006064196    1.201    0.167
        72  -9.1054    189.2261    121.0130   4.2981288464e+01   1.9013295792e+01    0.2042919    0.1259827 -39.50 0.0004137069    1.597    0.374
        73 -11.1702    170.8261     84.7548   3.7262425035e+01   3.0417892469e+01    0.2747827    0.2394437 -79.80 0.0002274891    1.256    0.204
        74 -12.0705     54.1213    100.2239   7.4396475501e+01   4.9939653783e+01     0.965741    0.6962788  13.97  0.005250609    1.707    0.414
        75 -10.2862    215.0637     75.5068   2.6677143682e+01   2.1206776848e+01    0.2659215    0.1838455 -51.56  0.000415005    1.415    0.293
        76 -10.5436    111.9848     76.2289   4.9459034603e+01   4.5738451166e+01     0.275061    0.2244355  36.55  0.001068346    1.236    0.191
        77 -10.2920    116.1721     74.0827   4.7575763723e+01   4.5274761674e+01    0.3319291    0.2194262  38.28  0.001311313    1.548    0.354
        78 -11.3570    106.1382     73.4700   5.0321617956e+01   4.7477397732e+01    0.5499241    0.2165919 -38.54  0.001954022    2.599    0.615
        79  -8.9131     75.2659     75.6188   6.0932045227e+01   5.2564999751e+01    0.1367449    0.1100472 -79.71 0.0006986613    1.686    0.407
        80 -11.7421    146.2400     72.8491   3.9312043920e+01   3.8624238464e+01    0.4063929     0.229885  58.93  0.001636986    1.892    0.472
        81 -11.6484     45.8466    114.8319   7.9879509235e+01   4.7412023486e+01     1.446921    0.3273677 -57.06     0.004992    3.230    0.690
        82 -11.6663     99.5592     69.6766   5.1116696628e+01   4.9516896108e+01    0.5420011    0.3772594 -40.72  0.002660186    1.404    0.288
        83  -9.7776    154.3162     70.3184   3.6668553461e+01   3.7106348939e+01    0.1577201     0.120268  18.49 0.0004656826    1.654    0.395
        84  -9.7120    178.2085     64.1462   2.9921842189e+01   3.2168164451e+01    0.2240678    0.2023181  37.01 0.0007300943    1.191    0.161
        85 -11.4759    139.8745     61.6429   3.7343889071e+01   4.2121364254e+01    0.7583948    0.2528535  40.36  0.002125119    4.135    0.758
        86 -10.9537     53.6575    110.5642   7.6695274488e+01   4.7553866161e+01    0.4293896    0.3413938 -59.40  0.002493666    1.099    0.090
        87 -11.0335     76.7892    219.8499   8.6322779770e+01   1.9393043322e+01    0.2873737    0.1887733 -49.36 0.0009594901    2.043    0.510
        88  -9.3105    115.6434     54.2853   4.1187631025e+01   4.8949210402e+01     0.143446    0.1174017 -86.60 0.0007021095    1.672    0.402
        89 -10.3306      2.3303     50.9085   8.2120772545e+01   6.4971932204e+01    0.3062782    0.1016766 -48.23  0.001538536    2.073    0.518
        90 -12.6390     83.9934     47.5577   4.8526524763e+01   5.6434339451e+01     0.506742    0.4347447  57.95  0.002921949    1.465    0.318
        91 -13.0532     71.9568     35.9711   4.8316096407e+01   6.0393641260e+01    0.5605727    0.3705629 -14.60  0.002977988    1.599    0.375
        92  -9.4841    155.4622     47.4544   2.9376189409e+01   4.0514707229e+01     0.147178    0.1392229  60.39 5.747385e-05    1.003    0.003
        93 -10.7636     10.0255     45.0465   7.7339561250e+01   6.5739490995e+01     0.365369    0.1592163 -56.48  0.001962192    1.816    0.449
        94  -9.6396    122.3320     41.3032   3.4874997996e+01   4.9448761750e+01    0.1510216    0.1046651  23.96 0.0007036076    1.656    0.396
        95  -9.6885    133.7924     39.4035   3.1439546027e+01   4.7011266644e+01    0.2147412    0.1218371  46.48 0.0006494286    1.657    0.396
        96 -12.2466     55.6440     41.9869   5.6886784499e+01   6.1886841442e+01    0.8972951    0.4711447   8.93  0.003677389    3.228    0.690
        97 -10.3810    105.8495     31.3119   3.5605965843e+01   5.4514522868e+01    0.2896516    0.2315203  47.18  0.001327026    1.197    0.165
        98 -10.9200     77.7547     30.7578   4.4151885439e+01   6.0165892692e+01    0.2528775    0.2225178 -44.33 0.0008619081    1.417    0.294
        99  -9.4206     46.6685     26.3433   5.4363476107e+01   6.5644532432e+01    0.1078848    0.1004305 -74.15 0.0007050815    1.754    0.430
       100 -10.3727     84.2567     23.9299   3.9157441523e+01   5.9883124933e+01    0.2136022    0.1770415  49.90 0.0007131423    1.342    0.255
       101 -10.7686     20.9826     22.9759   6.4797090552e+01   6.8976745082e+01    0.1966322    0.1098385 -20.40  0.001139046    1.730    0.422
       102  -9.3266    171.6087     21.2401   1.8536107149e+01   3.9799782961e+01    0.1762583    0.1375492  -8.44 0.0009409065    1.586    0.369
       103  -9.3782    100.7103     21.6549   3.3289245241e+01   5.6822102095e+01    0.1413554   0.09295823  20.60 0.0004144651    1.656    0.396
       104 -10.2512    189.7935     20.0083   1.5672772309e+01   3.5331471352e+01    0.2328566    0.1775879  74.30 0.0003717756    1.184    0.155
       105  -9.4393     83.8992    246.3285   8.7457668855e+01   1.3391791260e+01    0.3876331   0.04350113  44.13  0.001237662    4.880    0.795
       106  -9.8003     52.0541    245.0295   9.3075712105e+01   1.7898535549e+01     0.193226   0.09679621  64.36  0.001125747    1.711    0.416
       107 -10.0390     58.9156    242.6015   9.1685248323e+01   1.7466305159e+01    0.1983522    0.1635946  69.70 0.0008873079    1.156    0.135
       108 -10.0549    132.9150    241.6927   7.7685628120e+01   6.6856131565e+00    0.2720068    0.1560559  38.03  0.001485497    1.505    0.336
       109 -10.7585     60.6802    223.0500   8.9784180148e+01   2.0961461375e+01    0.4501001    0.1411345 -70.24  0.001928869    3.264    0.694
       110 -12.6032     72.1757    229.7302   8.8166515143e+01   1.8105945273e+01    0.7398176    0.4838506  68.08   0.00457903    1.335    0.251
       111 -11.6146     59.9511    235.1856   9.0925875332e+01   1.8710124617e+01    0.3639291     0.207406  61.85 0.0003238928    1.458    0.314
       112 -11.7982     63.6199    232.8226   9.0053628828e+01   1.8674824237e+01    0.5499795    0.2616985  63.48  0.002011978    2.013    0.503
