#   1 NUMBER                 Running object number                                     
#   2 MAG_AUTO               Kron-like elliptical aperture magnitude                    [mag]
#   3 X_IMAGE                Object position along x                                    [pixel]
#   4 Y_IMAGE                Object position along y                                    [pixel]
#   5 X_WORLD                Barycenter position along world x axis                     [deg]
#   6 Y_WORLD                Barycenter position along world y axis                     [deg]
#   7 A_WORLD                Profile RMS along major axis (world units)                 [deg]
#   8 B_WORLD                Profile RMS along minor axis (world units)                 [deg]
#   9 THETA_WORLD            Position angle (CCW/world-x)                               [deg]
#  10 FWHM_WORLD             FWHM assuming a gaussian core                              [deg]
#  11 ELONGATION             A_IMAGE/B_IMAGE                                           
#  12 ELLIPTICITY            1 - B_IMAGE/A_IMAGE                                       
         1 -14.2446     25.9429    142.4077   1.2494595439e+02   4.2616914188e+01      3.02534     1.563179  67.86   0.01413109    2.831    0.647
         2 -14.7811    243.8903     95.2317   6.4340396418e+01   1.2488560754e+01      4.08334     1.075582 -40.97   0.01335686    3.492    0.714
         3 -14.1544    137.8963     87.0382   8.2830659423e+01   3.7922895778e+01     1.189483    0.8984591 -45.84  0.005990409    1.351    0.260
         4 -13.4668     42.0691     61.8311   1.0407930773e+02   5.8051416289e+01    0.8850847    0.4915094  48.37  0.004426483    3.037    0.671
         5 -13.9443    141.4548    116.7114   8.9623110407e+01   3.1123008948e+01     1.443619     1.150002  62.28  0.007081944    1.358    0.264
         6 -13.2262    228.5576    247.9145   9.7497406161e+01  -1.1700333224e+01      0.79681    0.5002012  34.35   0.00466174    1.419    0.295
         7 -10.3288     25.1274    250.1120   1.3546332863e+02   1.9469291053e+01    0.1577602    0.1239002  89.81  0.001204026    1.237    0.191
         8 -12.8052      5.3981    247.8065   1.3839154595e+02   2.2043983517e+01    0.7251382    0.1856208  52.96  0.003584541    3.037    0.671
         9 -12.3591     49.2089    226.6194   1.2948505340e+02   2.1260573021e+01     1.038452    0.2996932  55.13  0.003950672    3.790    0.736
        10  99.0000     34.8725    223.2447   1.3178773581e+02   2.3710672298e+01      2.28572    0.6802537  54.38  0.009613835    3.343    0.701
        11 -13.1964     27.1408    231.5977   1.3381180271e+02   2.2881173055e+01     1.420195    0.3679287  45.05  0.006517258    3.142    0.682
        12 -13.1586     24.6080    242.3559   1.3501723538e+02   2.1026832447e+01     1.880096    0.1732961  47.26  0.006837888    5.096    0.804
        13 -13.8509     11.0158    231.9302   1.3652891382e+02   2.4547655786e+01     1.314585    0.3807247  62.71  0.005280834    4.216    0.763
        14 -11.6643     84.5839    245.6484   1.2484887269e+02   1.2478219182e+01    0.8449227    0.2221217  48.58  0.003263277    3.220    0.689
        15 -10.7639     78.0108    243.9280   1.2587918415e+02   1.3788388874e+01    0.2905678    0.2239636  66.16  0.001101354    1.058    0.055
        16  -9.8397     71.1629    246.2814   1.2735048375e+02   1.4312463964e+01    0.1766622    0.1112237  69.61  0.001047498    1.396    0.284
        17 -10.5595     96.7453    240.5155   1.2201017951e+02   1.1623300526e+01    0.3302322    0.1866657 -63.27  0.001381429    1.848    0.459
        18 -13.4250     10.8672    154.2547   1.2990572679e+02   4.1200532956e+01     1.639858    0.7941743  66.87  0.008111569    2.693    0.629
        19 -11.6762     95.2024    231.4614   1.2125061002e+02   1.3688841812e+01     1.831754     0.803363  32.60   0.00746495    3.109    0.678
        20 -14.6726     90.8325    212.7120   1.1979645191e+02   1.8346179427e+01      2.25093     1.549349  42.72   0.01242291    1.468    0.319
        21 -13.2037     41.8912    139.3289   1.2053737501e+02   4.1797437411e+01     1.780343    0.9505078  73.90  0.007495115    3.178    0.685
        22 -13.4146     73.6462    195.9960   1.2123958155e+02   2.4661757119e+01     1.571681    0.9132569  33.47  0.007839394    2.037    0.509
        23 -14.4598     29.8169    180.1268   1.2864747239e+02   3.3670425564e+01     3.165434     1.201276  50.82   0.01448351    2.841    0.648
        24 -13.7818     56.8098    176.6149   1.2237046682e+02   3.1401502389e+01     3.944202     2.942714   1.70   0.02137348    2.237    0.553
        25 -13.3727     89.9423    187.2499   1.1642884018e+02   2.4229347740e+01     1.426321    0.8763154  52.90  0.005628543    1.621    0.383
        26 -13.6052     42.7833    203.9394   1.2850878947e+02   2.6917360433e+01     2.199467    0.7630351  47.54  0.009936157    2.721    0.633
        27  99.0000     23.6452    203.0637   1.3210679512e+02   2.9237929785e+01     2.148749    0.7110081  54.10  0.009543826    3.140    0.682
        28 -14.2665    247.5114    205.1771   8.6343191821e+01  -8.0654879241e+00     3.243903    0.6238623 -37.99  0.009202081    5.547    0.820
        29 -14.2685    107.8535    191.6621   1.1308445503e+02   2.0276281270e+01     2.935419     1.187674 -47.74   0.01104708    2.805    0.643
        30 -12.9167    130.8856    139.5506   9.7621968270e+01   2.8177796682e+01     1.007945    0.5337934  57.60  0.003782328    2.412    0.585
        31 -12.5821    117.1718    151.8295   1.0366409149e+02   2.7938137682e+01     1.155832    0.7858618 -63.97  0.005377565    1.515    0.340
        32 -13.7545    107.4161    126.5862   1.0073474017e+02   3.5580116478e+01      1.25405    0.9627399  81.90  0.006097473    1.670    0.401
        33 -13.6684    118.9573    140.2715   1.0078079683e+02   3.0312065842e+01     1.790117     1.028906  65.71   0.00666889    2.715    0.632
        34 -10.8888     77.3088    145.3719   1.1251028421e+02   3.6022618178e+01     0.399509    0.2633839  56.82  0.001650012    1.739    0.425
        35 -11.5157     71.6160    144.7711   1.1386097562e+02   3.6961475664e+01    0.7040154    0.3998869  81.95  0.002706367    3.191    0.687
        36 -10.5813     87.4858    139.1237   1.0867701574e+02   3.5981043998e+01    0.3719584    0.1893295 -53.25  0.001614464    1.792    0.442
        37 -12.7876     17.5583    100.4052   1.2061678203e+02   5.2521225618e+01     1.222262    0.7455075 -66.56  0.007405674    1.436    0.304
        38 -12.0455     58.9861    136.8805   1.1572528053e+02   4.0443222519e+01     1.110553    0.6324584  83.09  0.004521746    3.062    0.673
        39 -12.2132     20.4724    118.0320   1.2276116953e+02   4.8515999625e+01    0.9520352    0.7012983 -73.64  0.006220492    1.225    0.184
        40 -13.2690     41.6146    117.9169   1.1698431044e+02   4.6688942637e+01     1.515748    0.8355417  78.77  0.005920523    3.967    0.748
        41 -12.8063     32.3668    111.7194   1.1843388802e+02   4.8923098884e+01    0.7930337    0.6407858 -67.36  0.004159092    1.139    0.122
        42 -11.9348     68.5737    133.3148   1.1254038197e+02   4.0054840673e+01    0.5456203    0.4299932 -40.70  0.003098903    1.301    0.231
        43 -11.7068     76.8311    129.1894   1.0951339289e+02   3.9878541438e+01    0.6011041    0.4382281  58.76   0.00263626    1.615    0.381
        44 -12.6186    121.9905    124.7728   9.6496163055e+01   3.3286722734e+01    0.5985953    0.3926085  68.18  0.002504791    2.145    0.534
        45 -10.9141     16.3060    243.2481   1.3641610207e+02   2.1769765652e+01    0.4036575     0.179137  55.45  0.002418406    1.873    0.466
        46  99.0000      5.4031    236.4304   1.3771719580e+02   2.4228688585e+01    0.5177799    0.1899552  54.21  0.002902417    2.291    0.564
        47 -10.6458     88.1722    108.2080   1.0172440786e+02   4.2910981994e+01    0.3778653    0.3392046  48.91  0.002199927    1.223    0.182
        48 -12.9538     78.0560    108.7536   1.0473746886e+02   4.4312402230e+01     1.800229    0.9856489  64.61  0.006291628    4.200    0.762
        49 -12.9627     45.0010    102.4689   1.1299069830e+02   4.9731840158e+01     1.382438     0.886391  86.62   0.00663597    2.687    0.628
        50 -13.7752     29.9340     87.9133   1.1446322085e+02   5.4165279818e+01      1.61212     1.194648  45.46   0.01036204    1.759    0.432
        51 -12.5730    114.2595    113.0991   9.5723385908e+01   3.7347720321e+01    0.5316275    0.3028295 -50.04  0.002310318    1.713    0.416
        52 -11.2089    110.4359    107.1642   9.5279706574e+01   3.9340341454e+01    0.3669547    0.1397731 -50.45  0.001295369    2.642    0.622
        53 -11.4632      3.0129     99.7078   1.2463661441e+02   5.3579960456e+01    0.5063358     0.220125 -76.75  0.002445904    2.622    0.619
        54 -10.8418      6.9941     99.2693   1.2344337828e+02   5.3442496897e+01    0.3704787    0.2119915 -65.16  0.002277838    1.408    0.290
        55 -12.4017      4.8369    216.5564   1.3652148335e+02   2.8260638897e+01     1.336075    0.4397696  56.79  0.006542157    2.917    0.657
        56 -10.8118     83.8048     89.0117   9.8167158490e+01   4.7606081151e+01    0.3418153    0.1876841 -46.93  0.001614797    1.709    0.415
        57 -12.8426     66.9307     83.7620   1.0190931495e+02   5.1051825448e+01     0.739733    0.6344174   4.30  0.004650584    1.200    0.166
        58 -13.6658     37.9500     74.9353   1.0890588472e+02   5.6026968414e+01     1.125532    0.6470578 -68.41  0.005674553    2.479    0.597
        59 -11.6787    181.4220     77.8736   7.0850646684e+01   2.9696208156e+01    0.4988343    0.4310654  59.69  0.002717522    1.121    0.108
        60 -12.7667    151.5392     76.9673   7.6876550054e+01   3.6761780536e+01    0.6880157    0.5687231  45.33  0.003665286    1.183    0.155
        61 -12.5689    160.8897     68.1411   7.2462041856e+01   3.6135848687e+01    0.7565972    0.6920137 -30.04  0.004316087    1.184    0.155
        62 -11.6205     22.2036     56.6953   1.0958218398e+02   6.0721309458e+01    0.3943841    0.2923506 -40.28  0.002283293    1.108    0.098
        63 -11.9676    148.0968     52.7370   7.0970994134e+01   4.1454115995e+01    0.5672858    0.3546977 -57.65  0.002639757    2.087    0.521
        64 -11.5966     79.2101     54.8047   8.9742280319e+01   5.4494208398e+01    0.3825583    0.3002347 -84.41  0.002043738    2.444    0.591
        65  99.0000     61.9867    223.3261   1.2677402198e+02   2.0273121392e+01    0.7429871    0.5976017 -81.74  0.003742555    1.165    0.142
        66 -13.3382    142.8989     70.6084   7.7123192369e+01   3.9784715118e+01    0.9501241    0.5205675 -30.83  0.004083707    2.103    0.525
        67 -12.5628     31.7510     47.7875   1.0366664661e+02   6.1446547044e+01    0.3421649    0.2970976  -7.16  0.002508142    1.192    0.161
        68 -10.3085    164.3166     44.3376   6.5422525026e+01   3.8938678975e+01    0.1395169    0.1014033  28.99 0.0007048327    1.701    0.412
        69 -10.9098     58.9963     61.3006   9.8230574373e+01   5.6232324365e+01    0.1785233    0.1526158  -3.77  0.001187086    1.086    0.080
        70 -11.0039     77.9842     39.4965   8.5208322853e+01   5.6971920957e+01    0.1875747    0.1116677  37.77  0.001039697    1.610    0.379
        71 -11.5357     11.4679     34.6137   1.0732015735e+02   6.5166470107e+01    0.5223442    0.2427453 -56.45  0.002873147    2.634    0.620
        72 -12.2039     44.3061     36.7412   9.5640954451e+01   6.1898371020e+01    0.3375513    0.2670651  -5.33  0.002420012    1.053    0.051
        73 -10.6362     32.7859     28.0114   9.6957680684e+01   6.4367477896e+01    0.2336423    0.1118303 -38.99  0.001370482    1.859    0.462
        74 -10.5897     73.5040     27.0173   8.2380183626e+01   5.9303124094e+01    0.1765652    0.1083019 -27.89  0.001042003    1.617    0.381
        75 -10.7718     58.9948     24.2796   8.6166891245e+01   6.1759238841e+01    0.1688154    0.1329169  11.21  0.001185963    1.069    0.064
