#   1 NUMBER                 Running object number                                     
#   2 MAG_AUTO               Kron-like elliptical aperture magnitude                    [mag]
#   3 X_IMAGE                Object position along x                                    [pixel]
#   4 Y_IMAGE                Object position along y                                    [pixel]
#   5 X_WORLD                Barycenter position along world x axis                     [deg]
#   6 Y_WORLD                Barycenter position along world y axis                     [deg]
#   7 A_WORLD                Profile RMS along major axis (world units)                 [deg]
#   8 B_WORLD                Profile RMS along minor axis (world units)                 [deg]
#   9 THETA_WORLD            Position angle (CCW/world-x)                               [deg]
#  10 FWHM_WORLD             FWHM assuming a gaussian core                              [deg]
#  11 ELONGATION             A_IMAGE/B_IMAGE                                           
#  12 ELLIPTICITY            1 - B_IMAGE/A_IMAGE                                       
         1 -12.4995    208.6423     27.0948   4.3008537818e+01   2.9802190892e+01    0.8678226    0.7506333  34.61  0.002375633    1.438    0.305
         2 -12.5672    197.9871     38.2034   4.7255301125e+01   3.1006646200e+01     1.138834      1.08466  25.47  0.004872534    1.235    0.190
         3 -10.2568     28.9276      3.3094   7.8927106490e+01   7.1602247352e+01     0.309757     0.182803 -21.59  0.001919439    1.457    0.314
         4 -10.4087     32.7915      5.4161   7.8112691096e+01   7.0850418937e+01     0.545781    0.1053061 -36.27   0.00191493    4.783    0.791
         5  -8.4322     61.3047      8.3025   6.7192570481e+01   6.6197354184e+01    0.1292774   0.08083378  15.22 0.0003472425    1.596    0.373
         6 -11.0453    232.7495      3.0583   3.5030067568e+01   2.6873392733e+01    0.7641395    0.3306725  75.79  0.003702792    2.149    0.535
         7 -10.2639     40.9946      4.6882   7.3808891866e+01   6.9828433754e+01    0.2674507    0.1781979 -16.56  0.001699027    1.313    0.239
         8  -8.7040     60.4952      1.5049   6.4080050863e+01   6.7041839607e+01     0.124359   0.09890594  16.14 0.0008106476    1.007    0.007
         9 -11.2246     46.7964    222.4188   1.2070972869e+02   2.2527493891e+01    0.5327066    0.2574193  60.31  0.001361342    1.824    0.452
        10  -9.4192    117.5119    250.2942   1.0977420315e+02   7.5734508925e+00    0.2273173    0.1337501  42.96 0.0007439654    1.352    0.261
        11 -13.1935     86.1758    227.0531   1.1341575552e+02   1.6381048945e+01     2.961101     1.599022  45.85    0.0120842    1.545    0.353
        12 -13.8864     50.5455    198.0350   1.1789084949e+02   2.7154254785e+01     4.928903     2.622967  45.13   0.01328136    1.703    0.413
        13  -9.1584     54.3665    222.7097   1.1927487315e+02   2.1538098900e+01    0.3996933    0.1311696  48.40  0.001835011    2.462    0.594
        14  -8.3867    113.6213    207.6388   1.0539732615e+02   1.5977577919e+01    0.2804695    0.1711487  69.13  0.001324314    2.073    0.518
        15  -8.0995     61.2399    220.0294   1.1770138990e+02   2.1195510316e+01     0.166048     0.133345  78.42  0.000484983    1.080    0.074
        16  -9.0710    194.4980    198.4984   8.6768395282e+01   3.4581993435e+00    0.2746888    0.1194598 -56.31 0.0008104502    5.694    0.824
        17 -11.5426     17.2205    191.4838   1.2429567001e+02   3.2198349205e+01    0.3906673    0.2500984  44.97 0.0004507916    1.532    0.347
        18  -8.3324     71.8222    186.2207   1.1192036355e+02   2.6995437298e+01    0.1949745    0.1530554  70.74 0.0003255284    1.150    0.130
        19  -8.2853     99.2708    180.5814   1.0473966929e+02   2.4117549502e+01    0.1793068    0.1329577  31.56 0.0006949223    1.482    0.325
        20 -10.1218     69.5249    176.4984   1.1123179054e+02   2.9540477831e+01    0.2664947    0.2459592 -65.47 0.0005622417    1.221    0.181
        21 -10.7059     73.6906    171.6711   1.0958387914e+02   3.0084099685e+01     0.515884    0.3034976 -38.51  0.002298107    2.514    0.602
        22  -8.8421    103.2380    171.3531   1.0231906406e+02   2.5563552777e+01    0.3641312    0.2202372 -80.39  0.001561357    2.177    0.541
        23 -10.8347     82.7511    161.8867   1.0588077546e+02   3.1072052627e+01    0.7169695     0.396915  67.05 0.0005142345    2.438    0.590
        24 -12.0299     71.2630    156.8770   1.0803738796e+02   3.3952441115e+01    0.5912541     0.458148 -43.49   0.00154312    1.491    0.329
        25 -12.7119     68.6582    144.3106   1.0672097466e+02   3.7375585301e+01     2.691593     1.315803  84.89  0.007871636    5.118    0.805
        26  -9.6644     32.5329    165.2975   1.1872655438e+02   3.6602607411e+01    0.2967036    0.0994219 -68.69  0.001130291    2.460    0.594
        27  -8.3596    159.0649    162.3354   8.7245625149e+01   1.7073515868e+01    0.2098852    0.1906692  47.85 0.0005210192    1.095    0.087
        28 -10.3756     89.4135    154.9944   1.0302422392e+02   3.1688494076e+01    0.5996336    0.4157398 -23.49  0.002129862    2.267    0.559
        29  -9.9454     53.9804    148.2448   1.1126827443e+02   3.8308368726e+01    0.4079149    0.1836379 -66.43  0.001791522    1.972    0.493
        30  -9.0486    134.0000    147.9404   9.0176131201e+01   2.5283116214e+01    0.4059863    0.1270055 -55.90  0.001084959    4.368    0.771
        31 -10.2921     58.8149    145.7235   1.0960552191e+02   3.8327088760e+01    0.3881834    0.2398297 -77.88  0.001914162    1.591    0.371
        32  -8.9934     44.0330    144.0238   1.1331643076e+02   4.0482583826e+01    0.1981427     0.168795 -57.16 0.0005475616    1.217    0.178
        33  -8.1394     84.7192    144.3910   1.0237489871e+02   3.4998379937e+01    0.1791716    0.1419454  25.03 0.0002734173    1.486    0.327
        34  -9.1295    102.9202    139.8142   9.6542370051e+01   3.3078900601e+01    0.4566233    0.2948687 -27.01  0.001872565    2.312    0.567
        35 -10.5333     90.6456    139.9145   9.9908090141e+01   3.5143542187e+01    0.2916726    0.2559767 -37.75 0.0004877069    1.255    0.203
        36  -7.7088     79.6923    140.3015   1.0299589669e+02   3.6769530963e+01    0.1469781     0.106329  75.62 0.0002731049    1.600    0.375
        37  -9.1496     40.9611    146.5051   1.1445991675e+02   4.0210682033e+01    0.1827118    0.1641308  77.87  0.001088067    1.119    0.107
        38  -8.6883    112.0260    130.6211   9.2062629580e+01   3.3611591237e+01    0.2733833    0.2135165 -23.65  0.001284502    1.578    0.366
        39  -8.7782    106.1787    130.8122   9.3711126941e+01   3.4654237888e+01    0.3125362     0.260909  88.04  0.001567372    1.344    0.256
        40  -9.7932     45.2140    129.4606   1.1084878700e+02   4.3919365208e+01    0.2635469    0.1704701 -66.46  0.001388702    1.325    0.246
        41  -9.1725     99.1619    126.5785   9.4723016165e+01   3.6932588620e+01    0.2913949    0.2442546 -18.40 0.0004633185    1.440    0.306
        42  -8.3683    108.1692    119.1052   9.0416056273e+01   3.7069352274e+01    0.2194249    0.2022734 -21.83 0.0003122192    1.167    0.143
        43  -8.2857    167.9981    113.2364   7.3555667263e+01   2.5484655656e+01    0.2897187    0.1710847 -71.90 0.0008918373    3.637    0.725
        44  -8.1009    205.2543    110.1971   6.5135324759e+01   1.7499041826e+01    0.2079789    0.1770736 -69.82  0.001056334    1.336    0.252
        45  -9.7407    115.5482    109.7843   8.5961205048e+01   3.7798480933e+01    0.3580601    0.2619155  31.85  0.001646768    1.498    0.332
        46 -10.6156     43.1021    109.1580   1.0798734415e+02   4.9109341424e+01    0.3252735    0.3129363 -58.17  0.001610837    1.131    0.116
        47  -9.6950     49.0054    216.9895   1.1985601122e+02   2.3352474298e+01    0.3325822    0.2135202  58.67  0.002075765    1.287    0.223
        48  -9.1965    134.6198    105.4248   7.9584671575e+01   3.4745308167e+01     0.407657    0.1480254 -39.72  0.001264889    2.915    0.657
        49  -8.2648    238.6851    105.6593   5.8425093161e+01   1.1071165166e+01    0.1423815    0.1079615   2.00 0.0007047735    1.704    0.413
        50  -7.6426     58.6465    105.3115   1.0223399208e+02   4.8257166888e+01    0.1419454    0.1046432  74.59 0.0007044606    1.728    0.421
        51  -9.8780     52.3658    109.5674   1.0513521246e+02   4.7988272833e+01     0.311499    0.1746084  53.19  0.001407712    2.268    0.559
        52  -9.5049     52.6092     94.0289   1.0167545882e+02   5.1682565735e+01    0.2997734    0.1835094  47.51   0.00146092    1.989    0.497
        53  -9.1850     32.4978     83.0124   1.0620417694e+02   5.6324480940e+01    0.2095373    0.1107021 -61.33 0.0008682216    1.611    0.379
        54  -8.3150    157.4734     81.4827   6.7069181119e+01   3.4275904368e+01    0.1543952    0.1527213 -66.23  3.49726e-05    1.011    0.011
        55  -8.7668     59.1619     67.8136   9.2188248640e+01   5.6738188487e+01    0.1985798    0.1854471 -56.53 0.0007182721    1.211    0.174
        56  -8.9941     92.8522    217.9360   1.1108049986e+02   1.7179125965e+01    0.2116062    0.1920779 -60.89 0.0007333269    1.328    0.247
        57  -9.8293    147.0003     51.2941   6.0003192112e+01   4.2029965229e+01    0.4771922    0.3216749 -77.09   0.00138593    2.199    0.545
        58 -12.5636     58.5263    242.8994   1.2006276368e+02   1.7157745392e+01    0.6504773    0.3978068  63.16  0.001018874    1.330    0.248
        59 -11.9009    187.9396     45.8017   5.0805476572e+01   3.2482209630e+01    0.7585514    0.6135668   3.18   0.00180573    1.590    0.371
        60 -15.8278      5.8638    210.4782   1.2762310325e+02   2.9281548963e+01     19.64888    0.7478487 -76.58   0.01791403   12.520    0.920
        61  -8.9410    148.3650     44.4549   5.7478271801e+01   4.2702423184e+01     0.263171    0.2373396  89.79 0.0007614232    1.178    0.151
        62 -10.6198     32.6970     28.7352   8.9235331459e+01   6.7379723140e+01    0.5549462   0.09903587 -46.93   0.00172899    5.208    0.808
        63 -15.2834      7.0002    245.0606   1.2902502409e+02   2.2569941622e+01     3.912088     1.634196 -81.19   0.01689031    2.113    0.527
        64  -9.4390     60.5663    233.1989   1.1893913659e+02   1.8706122653e+01     0.212167    0.1628133  65.34 0.0004989171    1.005    0.005
        65  -8.6327     41.3616    232.5645   1.2245157634e+02   2.1193414466e+01    0.2594662   0.09950697 -63.77 0.0009869264    2.709    0.631
        66 -14.1037     45.7414    249.7683   1.2279331031e+02   1.7496708160e+01      7.83766     2.352086  29.10   0.01814126   14.460    0.931
        67  -8.6413     33.9888    227.9718   1.2349451077e+02   2.2926690441e+01    0.1986901    0.1368058  48.32 0.0008875104    1.328    0.247
