#   1 NUMBER                 Running object number                                     
#   2 MAG_AUTO               Kron-like elliptical aperture magnitude                    [mag]
#   3 X_IMAGE                Object position along x                                    [pixel]
#   4 Y_IMAGE                Object position along y                                    [pixel]
#   5 X_WORLD                Barycenter position along world x axis                     [deg]
#   6 Y_WORLD                Barycenter position along world y axis                     [deg]
#   7 A_WORLD                Profile RMS along major axis (world units)                 [deg]
#   8 B_WORLD                Profile RMS along minor axis (world units)                 [deg]
#   9 THETA_WORLD            Position angle (CCW/world-x)                               [deg]
#  10 FWHM_WORLD             FWHM assuming a gaussian core                              [deg]
#  11 ELONGATION             A_IMAGE/B_IMAGE                                           
#  12 ELLIPTICITY            1 - B_IMAGE/A_IMAGE                                       
         1 -16.3031     22.6518    133.0979   1.3475821102e+02   4.5913619188e+01     5.257689     3.798466  28.96   0.03230784    1.697    0.411
         2 -11.7835    170.8639     38.3332   7.0456675907e+01   3.8001816701e+01     1.045914    0.7190554  50.13  0.005428419    1.456    0.313
         3  -9.5424    177.4597     31.1546   6.7541429368e+01   3.7310179633e+01    0.4428547    0.2857741  -9.36  0.001794493    2.414    0.586
         4 -11.2162      4.0156     14.5534   1.1213573171e+02   7.0750823512e+01    0.6435329     0.233001 -33.23  0.003524738    2.277    0.561
         5 -11.4696     10.8715      2.6287   1.0356782713e+02   7.1703031882e+01    0.6071017    0.2800948  23.19  0.003822139    2.052    0.513
         6 -10.2272    191.2498      7.3065   5.9876141850e+01   3.6673858020e+01    0.7659256    0.2404433  65.44  0.003221674    2.547    0.607
         7 -11.5144     15.9983    210.3186   1.4450078153e+02   2.8618941729e+01    0.1574284    0.1205687  19.35  0.001020975    2.057    0.514
         8 -13.4960    244.2287    234.1626   1.0171376610e+02  -1.1795367721e+01     2.586957     1.034369 -35.24  0.001125023    2.445    0.591
         9 -14.6634    119.0186    220.8842   1.2454041487e+02   1.1746858391e+01     1.715341     0.903618  72.71  0.006160097    3.578    0.721
        10 -15.3913     61.8057    203.1152   1.3450173617e+02   2.4735564318e+01     1.953879    0.5204485 -65.08  0.006974266    3.408    0.707
        11  99.0000     45.5139    199.9151   1.3762242414e+02   2.7608445505e+01     1.300503      0.70688  45.30  0.006897112    1.793    0.442
        12 -13.5674     36.6867    189.1483   1.3836712221e+02   3.1156971456e+01     1.726265    0.5178189  44.95   0.00706662    3.117    0.679
        13 -15.7407    105.8019    229.1991   1.2844861915e+02   1.2256453274e+01       1.0504    0.8838345 -40.51  0.006265936    1.561    0.359
        14 -18.5269     65.1884    235.2879   1.3725798436e+02   1.7224317433e+01     5.746838     3.032554  43.95   0.03088768    1.731    0.422
        15 -10.5259     21.5910    206.5827   1.4312587377e+02   2.8854543454e+01    0.1184927   0.09315032 -87.56  0.000795322    1.111    0.100
        16 -11.9468     20.1637    203.1564   1.4312136285e+02   2.9765471221e+01    0.3520384    0.2112842  41.00  0.002123475    1.780    0.438
        17 -11.2349     53.6369    208.2025   1.3680137324e+02   2.4679418543e+01    0.1721116    0.1300777 -88.66  0.000373034    1.120    0.107
        18  -8.3580    194.2820    197.9022   1.0453240555e+02   2.4809976888e+00     0.387457    0.2391716 -69.69  0.001495127    3.140    0.682
        19 -15.2822     81.5506    199.4719   1.2970618565e+02   2.2689632200e+01     1.682793     1.105002  24.94  0.008185511    2.109    0.526
        20  -9.5667     26.4252    194.7070   1.4110422132e+02   3.1010068803e+01     0.236056    0.1679654 -72.11  0.001111329    1.252    0.201
        21  99.0000     23.7881    191.6952   1.4137040593e+02   3.1977523405e+01    0.2361634    0.1194164 -87.11  0.000250428    1.802    0.445
        22  -9.5868     17.2897    197.3951   1.4320876550e+02   3.1348762992e+01     0.244463    0.1727513  20.47  0.001505916    2.134    0.531
        23  99.0000     20.3275    194.1863   1.4231395065e+02   3.1766061858e+01    0.3608657     0.142577  47.71  0.001768385    2.407    0.585
        24 -10.4178      3.7561    196.5677   1.4581455431e+02   3.2820472248e+01    0.1311968   0.05885516  74.37 0.0006414148    2.209    0.547
        25  -8.1975    158.4906    195.5193   1.1169951020e+02   9.8258415642e+00    0.1455339    0.1397615  47.91 5.586148e-05    1.007    0.007
        26  -8.1599    193.9154    191.9268   1.0343338531e+02   3.7016729044e+00    0.2142364    0.1775829 -83.89 0.0006944765    1.628    0.386
        27 -14.8761     84.4358    212.7076   1.3081928442e+02   1.9233621809e+01    0.6589856    0.5210074  87.89  0.003863496    1.158    0.137
        28  -9.3706      6.1422    186.3023   1.4453905015e+02   3.4900951274e+01    0.1090724   0.06148055 -68.73  0.000263925    1.477    0.323
        29 -10.4563     20.7755    184.8974   1.4136188683e+02   3.3848178494e+01    0.1234366   0.09459898 -83.07 0.0002307702    1.058    0.055
        30  -8.0097     92.9111    182.0853   1.2449004926e+02   2.4981169216e+01    0.1997537    0.1641597  77.20   0.00107286    1.175    0.149
        31  -8.3125    209.5469    180.4818   9.7956477990e+01   2.9354798778e+00    0.3311646    0.1977552  14.01  0.001264417    2.897    0.655
        32  -8.0191    181.6734    179.5522   1.0349632334e+02   8.5898500891e+00    0.2648378    0.1439853  39.24 0.0009509574    1.877    0.467
        33  -9.4726    110.6133    177.3227   1.1941938898e+02   2.3059144106e+01    0.3429765    0.2339907  23.64  0.001006567    1.965    0.491
        34  -8.1807    104.6226    176.1895   1.2066810812e+02   2.4398725540e+01     0.210058    0.1316101 -50.32 0.0009466291    1.627    0.385
        35 -12.1834     30.3596    174.7182   1.3819121739e+02   3.5248864738e+01    0.2688585    0.2272312 -14.59  0.001606394    1.771    0.435
        36 -11.0989     38.6240    175.0496   1.3633364533e+02   3.4267383186e+01    0.2255445    0.1620542  53.49  0.001015585    1.422    0.297
        37  -9.5299    113.5328    169.8329   1.1732148780e+02   2.4320398134e+01     0.628204    0.3455321  65.55  0.002289414    2.721    0.633
        38  -8.9571     95.9927    170.8770   1.2184424413e+02   2.7175289545e+01    0.6043694    0.3709735 -34.11  0.002380161    2.409    0.585
        39 -10.0895     61.8706    173.2917   1.3060183620e+02   3.1800286455e+01    0.1967389    0.1620375 -77.76 0.0003621011    1.059    0.055
        40  -8.5519    196.9962    171.9031   9.8679233869e+01   7.0795191875e+00    0.2561855     0.205437 -43.02 0.0005162894    1.221    0.181
        41  -9.1618    104.0264    170.9415   1.1987057550e+02   2.5769813852e+01    0.3213549    0.2624016  83.08 0.0007051057    1.262    0.207
        42 -11.5549     48.1380    171.5331   1.3365374528e+02   3.3995657174e+01    0.2253841    0.1751032 -77.13 0.0002944854    1.090    0.082
        43  -8.9396     24.8666    172.7283   1.3921902689e+02   3.6282371700e+01    0.1131819   0.06679796 -64.89 0.0006088601    1.441    0.306
        44 -11.7448     23.6891    168.8807   1.3906519976e+02   3.7307400478e+01    0.2434674    0.1755913  57.26 0.0003943962    1.424    0.298
        45  -8.2766    230.4780    170.4884   9.1902718051e+01   9.0300928434e-01    0.1407982    0.1270086 -23.10 0.0001465344    1.013    0.013
        46  -9.0383    143.5177    169.7528   1.1006246260e+02   1.8508824265e+01    0.2817193    0.2088489  44.31 0.0006320972    1.345    0.256
        47 -11.9666     40.2281    167.8448   1.3506020102e+02   3.5815279360e+01    0.3172323    0.2036348  65.58  0.001167758    1.634    0.388
        48  -8.2763      8.3429    221.1005   1.4667614659e+02   2.7089337303e+01    0.1051779   0.06592558  34.90            0    1.966    0.491
        49  -9.2528    109.4997    157.7554   1.1596671110e+02   2.7985753567e+01    0.4479151    0.2947685  27.07  0.001231754    1.922    0.480
        50  -9.8224    104.8447    154.4458   1.1649177476e+02   2.9640298398e+01     0.413298    0.3619546 -14.87  0.000535329    1.432    0.301
        51  -8.4591    136.0621    153.9206   1.0849629673e+02   2.3720058069e+01    0.3936879    0.2666466  86.27  0.001304791    2.249    0.555
        52  -8.0685    114.4517    152.8567   1.1369304112e+02   2.8249314521e+01    0.2626845    0.2010877  73.78  0.001084096    1.508    0.337
        53  -9.1774    219.6953    148.7385   8.9194361995e+01   7.1146718420e+00    0.2622786    0.2436149  49.62 0.0005221983    1.167    0.143
        54  -8.1910    155.1819    168.5002   1.0707876850e+02   1.6407603735e+01    0.2250308    0.1510201  44.13 0.0008811718    1.487    0.328
        55 -13.1494     67.2693    143.2058   1.2428434430e+02   3.8447817459e+01     1.430191     0.771284  67.56  0.003617802    3.074    0.675
        56  -8.9392    133.4984    144.0965   1.0693048135e+02   2.6560981105e+01    0.7324315    0.2757798 -59.15  0.002028585    3.961    0.748
        57  -8.5989    177.0440    167.2864   1.0190961584e+02   1.2128934750e+01    0.2153808    0.2043204  57.82 0.0007248708    1.078    0.072
        58  -8.0328    238.7373    130.7376   8.1922221774e+01   6.7384803547e+00    0.1878012    0.1562217 -71.61 0.0006674495    1.330    0.248
        59  -8.0643     91.4879    165.6436   1.2203800064e+02   2.9208536647e+01    0.4105183    0.2699126  11.40  0.001566715    2.689    0.628
        60  -8.9880    162.6693    129.3101   9.6374349094e+01   2.3587707188e+01    0.3093695    0.2523592  43.90  0.001175366    1.270    0.213
        61  -8.5034    160.3088    126.6742   9.6265144491e+01   2.4698768653e+01    0.2685017    0.2205389 -87.28  0.000912546    1.420    0.296
        62  -8.9407    100.4371    144.7708   1.1564438340e+02   3.2791563931e+01     0.276407    0.2142247  42.13 0.0008444664    1.358    0.264
        63  -8.9863    168.4133    114.1227   9.1274349572e+01   2.5527693709e+01    0.3840435    0.2584591 -61.74  0.001615257    1.707    0.414
        64  -7.3155    130.6857    115.2792   1.0059738687e+02   3.3781213130e+01    0.1551272    0.1232769  87.71 0.0001901707    1.570    0.363
        65  -9.1808    116.9359    108.9955   1.0258800989e+02   3.8042847482e+01    0.2950502     0.214215  41.36 0.0007504738    1.426    0.299
        66  -9.1670    196.7253    107.1682   8.3767095135e+01   2.0332682454e+01     0.291708    0.2510081  61.54 0.0005565077    1.197    0.164
        67  -8.0531    135.0784    106.0292   9.7020093745e+01   3.4840051014e+01    0.2402013    0.1908867 -88.65  0.001109548    1.578    0.366
        68  -9.3989    100.1959    161.3029   1.1903125835e+02   2.8789425387e+01    0.5301149    0.2496503  43.93 0.0008835971    2.157    0.536
        69  -8.8422     91.7559    161.9110   1.2129341246e+02   3.0079846266e+01    0.4768989     0.252859  19.94  0.001630945    3.663    0.727
        70  -7.5623    178.2250     85.0040   8.1655726854e+01   2.8909096239e+01    0.1920963    0.1225085 -40.58 0.0003043573    1.565    0.361
        71  -8.9389    156.0430     78.0160   8.4290251987e+01   3.5498191468e+01    0.2201443    0.2134732  86.34  0.001219048    1.010    0.010
        72  -8.5638    146.0800     76.1975   8.5982699794e+01   3.8176470057e+01    0.2698267    0.2107451  -3.01  0.001287834    1.687    0.407
        73  -7.8743     95.1867     77.3821   9.9779957129e+01   4.8792071067e+01     0.195297    0.1325745  52.03 0.0009407396    1.680    0.405
        74  -8.0318     81.4715     76.9767   1.0389629232e+02   5.1279084178e+01    0.2106151    0.1291104 -43.69 0.0006274799    1.557    0.358
        75  -8.5173    233.9580     74.9847   7.0248841956e+01   1.7655868441e+01    0.2091943    0.1816422 -68.90   0.00045864    1.020    0.019
        76 -10.2353    164.9130     64.4279   7.8675953126e+01   3.5664893343e+01     0.341774    0.2798069  48.96  0.001809804    1.233    0.189
        77 -11.4104    160.2724     53.2222   7.6428182968e+01   3.8511977158e+01    0.5252955    0.4752463 -25.71  0.002010469    1.237    0.191
        78 -10.8370    171.8485     47.5509   7.2785899210e+01   3.6520175725e+01    0.6665706    0.3706268  31.26  0.002585754    3.082    0.676
        79  -7.1813     12.3268    220.4272   1.4591505499e+02   2.6826625345e+01    0.1624702    0.1173521 -30.08   0.00095383    2.856    0.650
        80  99.0000     16.2657    216.5719   1.4491930508e+02   2.7238940121e+01    0.1550003    0.1380105 -29.58  0.001084485    1.877    0.467
        81  -9.2422    132.4754     46.1772   8.0049052229e+01   4.6077677318e+01    0.2412579    0.2082947  52.13 0.0002733188    1.074    0.069
        82  -7.8309    227.6645     27.1420   6.0538429633e+01   2.6055783801e+01    0.1635148    0.1175921 -28.33 0.0005098284    1.774    0.436
        83 -10.6246     19.3247    215.2335   1.4424798044e+02   2.7203920922e+01   0.09764869   0.08584831 -62.95 0.0006863978    1.517    0.341
        84  99.0000      9.3205    210.7077   1.4578550363e+02   2.9206180551e+01    0.3770638    0.1767074  58.60  0.002106158    1.915    0.478
        85  -9.4480     50.0791    165.6425   1.3237855415e+02   3.5187760527e+01    0.2003592    0.1587791 -73.27 0.0002152734    1.082    0.076
        86  -8.0801     97.2347    164.6971   1.2041813809e+02   2.8471645534e+01    0.2255847     0.171781  63.10 0.0006236819    1.370    0.270
