#   1 NUMBER                 Running object number                                     
#   2 MAG_AUTO               Kron-like elliptical aperture magnitude                    [mag]
#   3 X_IMAGE                Object position along x                                    [pixel]
#   4 Y_IMAGE                Object position along y                                    [pixel]
#   5 X_WORLD                Barycenter position along world x axis                     [deg]
#   6 Y_WORLD                Barycenter position along world y axis                     [deg]
#   7 A_WORLD                Profile RMS along major axis (world units)                 [deg]
#   8 B_WORLD                Profile RMS along minor axis (world units)                 [deg]
#   9 THETA_WORLD            Position angle (CCW/world-x)                               [deg]
#  10 FWHM_WORLD             FWHM assuming a gaussian core                              [deg]
#  11 ELONGATION             A_IMAGE/B_IMAGE                                           
#  12 ELLIPTICITY            1 - B_IMAGE/A_IMAGE                                       
         1  -9.2671    240.5958     19.7882   2.2048649148e+01   2.4531674893e+01    0.2298038   0.08805434 -46.21  0.001117764    2.087    0.521
         2  -9.3419    106.2498     13.5639   3.4172753153e+01   5.6860286098e+01    0.3309422    0.2355358 -80.36  0.001619984    1.641    0.391
         3  -8.6545    235.6221      8.8087   1.9684806530e+01   2.6520169274e+01    0.1846904   0.07869736 -35.24 0.0009533727    1.724    0.420
         4  -9.4285    247.4856      7.9693   1.8944412878e+01   2.4340262894e+01    0.2162155    0.1056533 -42.53   0.00124349    1.525    0.344
         5  -6.7615    142.2757      4.6870   2.5145781540e+01   4.8359415227e+01    0.1447737   0.09214724 -53.91 0.0001885879    1.561    0.359
         6  -8.0665    192.1748      3.0702   2.0544934293e+01   3.6267413148e+01    0.1748198    0.1615131 -18.45 0.0003712197    1.187    0.157
         7  -8.9001    235.3605      2.4104   1.8162482555e+01   2.7138542558e+01    0.2042695    0.1058039  74.25  0.001147722    2.187    0.543
         8 -10.3087    177.5255    234.4831   7.5476567246e+01   6.5695664400e+00    0.2728822    0.2070567 -38.56  0.001663211    1.679    0.404
         9 -11.8308    245.2726    241.1524   6.5632447315e+01  -1.4313415274e+00     1.155751     0.617956 -18.37   0.00866836    1.599    0.375
        10  -8.7032    156.8691    240.8285   7.9925924181e+01   8.2093033386e+00    0.1630087    0.1361398  -0.02 0.0005243582    1.190    0.159
        11  -9.1323    154.0659    249.6773   8.1439176909e+01   7.4353256762e+00    0.2531042    0.1582821  35.44  0.001046867    1.390    0.281
        12  -9.4830    155.9836    245.2772   8.0601638852e+01   7.7564965261e+00    0.2568964    0.1684589  20.05  0.000327341    1.214    0.176
        13  -7.1813     76.3929    237.4790   9.5042974773e+01   1.8007121315e+01    0.1079554   0.08598554  39.90  9.45784e-05    1.023    0.023
        14  -7.0078     44.0028    237.0601   1.0149763485e+02   2.1426336801e+01    0.1247652   0.09837949  51.04 0.0003882432    1.066    0.062
        15  -9.1022    165.2351    235.3497   7.7758382961e+01   7.9128784341e+00    0.2007541    0.1183534  34.20  0.001320049    1.461    0.316
        16 -10.2061    123.8760    232.5303   8.5171999122e+01   1.3274222987e+01    0.1975963    0.1814282   4.15 0.0003135216    1.196    0.164
        17 -10.2506    192.6937    248.9724   7.4751437626e+01   3.2169693500e+00    0.4288607    0.2290117   4.08  0.002695458    2.059    0.514
        18  -9.9315    174.5185    224.7419   7.4716387152e+01   8.1370873802e+00     0.227778    0.1867269   7.20  0.001734332    1.095    0.087
        19  -8.6456    147.5216    219.8470   7.9078354850e+01   1.2177901624e+01    0.2018029    0.1460621  24.60 0.0003786566    1.131    0.116
        20  -7.3911     34.0111    219.5056   1.0264229070e+02   2.5455530654e+01    0.1625297   0.09086608  32.16 0.0005381632    1.504    0.335
        21 -10.1220    187.7017    250.4514   7.5755929347e+01   3.5997019635e+00    0.2103768    0.1039965  28.23  0.000407278    1.565    0.361
        22  -8.5505     75.2717    224.0307   9.4215603193e+01   2.0351782519e+01    0.1921675    0.1365222  29.39 0.0002688972    1.234    0.189
        23  -7.5156    133.3973    215.2834   8.1272479484e+01   1.4671566446e+01    0.1319943    0.1146317 -70.60 0.0003323268    1.572    0.364
        24  -7.1411    177.5368    212.4652   7.2447105274e+01   9.3575813011e+00    0.1150548   0.09066565  10.65 0.0001065321    1.009    0.009
        25  -9.1215    182.6331    249.2846   7.6458378072e+01   4.2811259049e+00    0.1952464    0.1453703  23.79 0.0008955623    1.208    0.172
        26  -9.3535      7.5904    204.4653   1.0770991506e+02   3.0621708774e+01    0.1979874    0.1736812  47.85 0.0001687762    1.187    0.158
        27  -8.0578     74.8178    200.4384   9.2202875032e+01   2.4669224103e+01    0.2049236    0.1433427 -44.80 0.0003664052    1.757    0.431
        28  -7.5104     22.3046    201.3118   1.0430153811e+02   3.0002819156e+01    0.1015762   0.08601757 -36.55 0.0004111432    1.615    0.381
        29  -7.4691    170.4122    199.2534   7.1777009101e+01   1.2127530139e+01    0.1373633    0.1119947 -41.08 0.0002796737    1.484    0.326
        30  -7.2318     55.9887    199.0300   9.6414696836e+01   2.7105538073e+01    0.1424145    0.1191594  49.84            0    1.002    0.002
        31  -7.2525     80.5632    197.4861   9.0585923600e+01   2.4535672207e+01    0.1209552    0.1060479  41.83 9.573271e-05    1.022    0.021
        32  -9.0340     11.2930    189.0823   1.0629721365e+02   3.3429195279e+01    0.1929972    0.1543921  42.42 0.0002554573    1.163    0.140
        33  -7.1244    108.7846    185.6416   8.2638159388e+01   2.3067705804e+01    0.1780346    0.1038494  40.27 0.0004605245    1.545    0.353
        34  -8.7591    100.9861    176.0314   8.3120779572e+01   2.6033936084e+01    0.1825935     0.168405  31.26  0.001165212    1.032    0.031
        35  -9.7487    157.6643    167.6571   6.8986671524e+01   1.8952437942e+01    0.2821484    0.2154202 -31.23 0.0005420005    1.310    0.237
        36  -8.4598    163.3530    164.9971   6.7335869482e+01   1.8498875768e+01    0.2736726    0.1675644  21.63 0.0005874818    1.774    0.436
        37  -6.6305    169.6745    160.6895   6.5258006898e+01   1.8201052881e+01    0.1349521   0.09359117   0.43 0.0007039448    1.657    0.397
        38  -8.7667    101.0226    160.0523   8.0681746279e+01   2.9309301673e+01    0.1922967    0.1830818  36.37  0.001186694    1.014    0.014
        39  -8.4102    162.1917    158.1095   6.6263630529e+01   1.9847390958e+01    0.3475347    0.1680744  28.97  0.001020297    2.325    0.570
        40  -6.9985    156.2749    156.7283   6.7221132137e+01   2.1060375487e+01     0.117427    0.1063759  77.76            0    1.485    0.327
        41  -7.5878     65.4839    147.0241   8.8290524781e+01   3.7283970524e+01    0.1931521    0.1307946 -67.02 0.0003145471    1.476    0.323
        42  -6.7765    214.2788    141.6635   5.3487913559e+01   1.3953254730e+01    0.1160743   0.09303145 -48.59 0.0001761093    1.614    0.380
        43  -8.2043    242.0550    137.9991   4.8683778720e+01   1.0261473647e+01    0.1768752    0.1401249 -16.12  0.000388292    1.053    0.051
        44  -7.4979    108.8459    135.1284   7.4093545691e+01   3.3414011201e+01    0.2028701    0.1904037  87.12 0.0003635264    1.140    0.123
        45  -8.6956     52.8553    123.7531   8.8634148687e+01   4.4582047273e+01    0.2682048    0.1983514  89.01 0.0002495125    1.397    0.284
        46  -8.9058    167.3335    121.7304   5.7396538145e+01   2.5266669450e+01     0.327897     0.234256 -21.50 0.0009165374    1.443    0.307
        47  -8.2790     87.8134    116.8053   7.6159055133e+01   4.1161889114e+01    0.2997199    0.2049065  21.64 0.0007463848    1.776    0.437
        48 -10.1581     72.6329    107.6832   7.8959216308e+01   4.5826722009e+01    0.2670069    0.2521324 -67.94 0.0002773961    1.018    0.018
        49  -7.5266    144.7726    107.9165   5.8767679365e+01   3.2251507069e+01    0.1911222    0.1661038 -64.69 0.0003551052    1.311    0.237
        50  -7.1728     83.7284    108.6383   7.5562004275e+01   4.3790528696e+01    0.1516929    0.1125559 -27.60 0.0006999769    1.654    0.395
        51  -7.4933    122.9654     91.2254   5.9457463126e+01   4.0103928876e+01    0.1994684    0.1937947  50.93 0.0003329022    1.072    0.067
        52  -7.3869    147.9510     67.0351   4.6246588619e+01   3.8950347476e+01    0.1726571    0.1674522  67.12 0.0003809774    1.091    0.084
        53  -7.4956    109.1395     66.7816   5.5379918761e+01   4.8007542581e+01    0.2007174    0.1759296   7.57  0.000287984    1.299    0.230
        54  -8.0465    140.6222     64.4539   4.6912692934e+01   4.1105547609e+01    0.2468078    0.2169279 -21.64 0.0002944865    1.151    0.132
        55  -8.2322    214.2871     60.1343   3.4292556001e+01   2.5232327090e+01    0.1870018    0.1736049  12.57  0.000418153    1.225    0.184
        56  -8.7399    226.9353     56.3353   3.2015673465e+01   2.3200082827e+01    0.2360954    0.1629224 -21.56 0.0006430481    1.322    0.244
        57  -8.8441    110.1015     54.3720   5.0589134590e+01   5.0083296001e+01    0.2679632    0.2322409 -36.57 0.0002165287    1.118    0.106
        58  -9.4361    242.0308     49.4525   2.8998074832e+01   2.1156607829e+01    0.2705761    0.1450258  -8.47  0.001288871    2.466    0.594
        59  -7.2640    178.1987     42.1204   3.3519905854e+01   3.5416064856e+01    0.1911968    0.1464318 -54.97 0.0004851543    1.277    0.217
        60  -7.6284    106.2296     39.0391   4.5487422756e+01   5.3552067982e+01    0.2028815    0.1835725 -35.84            0    1.082    0.076
        61  -8.0534    156.8986     27.2021   3.1460219431e+01   4.2386143507e+01    0.2088345    0.1702608 -53.51 0.0004832962    1.175    0.149
        62 -10.1477    217.9907    249.0973   7.0747984582e+01   5.4132413073e-01    0.4560909    0.1316805  26.31  0.002247124    3.234    0.691
        63  -9.8048    201.9413    246.1199   7.2888505884e+01   2.5211720854e+00    0.2473916    0.1385841 -13.10  0.001686985    1.836    0.455
        64  -9.7333    227.7530    245.6409   6.8809789695e+01  -1.1691112205e-01    0.1808315    0.1318708  -2.85  0.001535373    1.182    0.154
        65 -11.1466    184.1959    238.4004   7.4833497161e+01   5.3351497686e+00    0.4310177    0.3445465 -16.47  0.002982276    1.331    0.249
        66  -9.1860    166.6675    242.0509   7.8326607349e+01   6.9188449910e+00    0.1438452    0.1130523   8.01 0.0004571378    1.101    0.092
        67  -9.2900    200.8637    240.3473   7.2312227721e+01   3.2493466332e+00    0.1616938    0.1301961 -14.67  0.001208945    1.368    0.269
