#   1 NUMBER                 Running object number                                     
#   2 MAG_AUTO               Kron-like elliptical aperture magnitude                    [mag]
#   3 X_IMAGE                Object position along x                                    [pixel]
#   4 Y_IMAGE                Object position along y                                    [pixel]
#   5 X_WORLD                Barycenter position along world x axis                     [deg]
#   6 Y_WORLD                Barycenter position along world y axis                     [deg]
#   7 A_WORLD                Profile RMS along major axis (world units)                 [deg]
#   8 B_WORLD                Profile RMS along minor axis (world units)                 [deg]
#   9 THETA_WORLD            Position angle (CCW/world-x)                               [deg]
#  10 FWHM_WORLD             FWHM assuming a gaussian core                              [deg]
#  11 ELONGATION             A_IMAGE/B_IMAGE                                           
#  12 ELLIPTICITY            1 - B_IMAGE/A_IMAGE                                       
         1 -17.5511    237.4709    139.2387   2.6771945770e+02  -5.9306154833e+01    0.4684562    0.4252485  -0.92  0.008863447    1.144    0.126
         2 -14.4450    193.9219    168.4488   2.6821604044e+02  -5.7449721607e+01    0.5793949    0.1841585 -52.48   0.01047032    2.894    0.654
         3  -9.1307    249.2245     14.8004   2.5968901543e+02  -6.1366137063e+01   0.04038235   0.01736978  45.30  0.001187428    2.517    0.603
         4  -7.8121    118.4926     12.5438   2.5675512232e+02  -5.6925466618e+01   0.03211401   0.01718738  -4.11 0.0008588569    2.232    0.552
         5  -8.6646     93.1358     12.2813   2.5627734619e+02  -5.6055761756e+01   0.03237916   0.02582033   3.36 0.0003528166    1.291    0.226
         6  -8.2064    109.7997     11.3101   2.5651730831e+02  -5.6638715666e+01   0.02933362   0.02428928  -4.86 0.0004896644    1.254    0.202
         7 -10.7151    247.1810      3.8309   2.5886239525e+02  -6.1418659764e+01   0.08120603    0.0541533 -85.95  0.003034896    1.633    0.388
         8  -8.1058    207.6892      3.6296   2.5795922316e+02  -6.0075694171e+01    0.0203864   0.01249379  51.94 0.0007034998    1.771    0.435
         9  -9.3044    173.9530    182.9361   2.6849105837e+02  -5.6580726568e+01   0.05879645   0.03699279   7.07  0.001127988    1.937    0.484
        10  -8.9059      3.0796    249.7668   2.6760815171e+02  -5.0072278831e+01   0.03245573   0.02544649  36.32 0.0002775307    1.275    0.216
        11  -8.8562    169.8564    183.7422   2.6842000697e+02  -5.6436398514e+01   0.04477935   0.03400642  48.31  0.001083599    1.375    0.273
        12  -7.3468    103.0355    210.2569   2.6806708951e+02  -5.3875305262e+01    0.0226567   0.01567142 -65.24 0.0003156145    1.455    0.313
        13  -9.2021    114.9888    168.7933   2.6606826919e+02  -5.4882323722e+01   0.04717867   0.03548446  50.34 0.0009867908    1.406    0.289
        14  -8.9683      8.0472    169.3956   2.6357767434e+02  -5.1363261972e+01   0.03044006   0.02795653 -52.23 0.0007612394    1.080    0.074
        15  -8.4120    136.6412    164.0591   2.6636100193e+02  -5.5658445057e+01   0.04473319   0.02318917  12.56  0.001402692    2.307    0.566
        16  -7.3529     53.6920    168.7112   2.6456534121e+02  -5.2873936111e+01   0.01876042   0.01347074  59.92 0.0004010749    1.575    0.365
        17  -8.3592    134.7532    154.5133   2.6575688756e+02  -5.5735373161e+01   0.04446626   0.02567434  21.38  0.001551746    1.767    0.434
        18  -9.0701    133.8702    149.0311   2.6541394271e+02  -5.5784835517e+01   0.06353115   0.02546239  18.83  0.001789634    2.766    0.639
        19  -7.9908     37.5619    145.4069   2.6292480010e+02  -5.2652275567e+01   0.03846851   0.01757696 -68.19  0.001133291    2.193    0.544
        20 -10.0667    123.9963    206.0074   2.6839900069e+02  -5.4614806579e+01   0.02521415   0.02503975 -25.78            0    1.002    0.002
        21  -8.9394      1.8845    142.0310   2.6198691799e+02  -5.1511016845e+01    0.0264184   0.02595981 -56.55 0.0004094786    1.019    0.019
        22 -10.8389    192.3259    194.1235   2.6968729752e+02  -5.6989811541e+01    0.1415639   0.07166339   0.74   0.00363786    3.861    0.741
        23  -9.1714    160.6795    135.4042   2.6530397110e+02  -5.6859690500e+01   0.03558419   0.03152855 -30.96  0.001541091    1.160    0.138
        24 -10.8917    161.4752    128.3897   2.6490110222e+02  -5.6984817248e+01    0.0744125   0.05350235  37.70  0.002054889    1.383    0.277
        25  -7.3372     35.9558    135.9668   2.6237041435e+02  -5.2720078015e+01    0.0210595   0.02023113 -65.51 0.0003644989    1.043    0.041
        26  -9.1957    141.1740    132.8832   2.6464791336e+02  -5.6252284500e+01   0.04224771   0.03120908  47.66 0.0009124753    1.409    0.290
        27 -10.3499     24.8385    131.8650   2.6190964864e+02  -5.2401565359e+01    0.0317111   0.03028898  83.76 0.0002671873    1.075    0.070
        28 -10.1645    154.4909    124.1401   2.6446307998e+02  -5.6813277560e+01   0.06507539   0.03907119 -15.60  0.002149751    2.213    0.548
        29  -9.5478    168.2919    121.6998   2.6467185888e+02  -5.7303101476e+01   0.04089362   0.03516464  29.85 0.0006127675    1.156    0.135
        30 -11.0591    163.3713    119.7372   2.6442394341e+02  -5.7167651942e+01   0.08017634   0.05445109 -67.45  0.002384803    1.476    0.322
        31 -10.1320    158.3707    114.2189   2.6395875659e+02  -5.7077434859e+01   0.05323325   0.04267213   4.58 0.0008790155    1.320    0.243
        32  -8.2900    143.5050    116.0116   2.6369499739e+02  -5.6559768179e+01   0.03862924   0.02488827  49.76  0.001404636    1.672    0.402
        33  -9.4049    147.4176    113.2534   2.6362511940e+02  -5.6726755891e+01   0.06790078   0.03897974 -15.04   0.00154628    2.382    0.580
        34  -9.9349    204.7282    198.9456   2.7034898627e+02  -5.7304403337e+01   0.05276077    0.0454823  12.02  0.002267856    1.212    0.175
        35  -8.1328    107.1182    111.1326   2.6253423142e+02  -5.5411264016e+01    0.0274307   0.02412423  56.00 0.0002881759    1.179    0.152
        36  -8.5779    135.0616    108.1092   2.6301187188e+02  -5.6383447658e+01    0.0305701   0.02041331 -30.60 0.0006403159    1.682    0.406
        37  -8.3321    100.9737    106.9904   2.6214985956e+02  -5.5258553552e+01   0.02665744   0.02518649 -33.62 -0.005334738    1.063    0.059
        38 -11.0194     59.3517     95.7244   2.6059572865e+02  -5.3998785445e+01    0.1720065   0.02956911 -64.24  0.003826159    4.267    0.766
        39  -9.2713     74.7888     89.9330   2.6058062157e+02  -5.4587952635e+01   0.07779638   0.03290582  33.45   0.00033982    2.207    0.547
        40 -10.1293     74.7356    103.5964   2.6137331837e+02  -5.4421019615e+01    0.1581193   0.07588865   9.21  0.004583731    2.445    0.591
        41  -9.9935     70.4840    101.5116   2.6116198639e+02  -5.4303681685e+01   0.05050657   0.04017165  21.82  0.001175521    1.250    0.200
        42  -9.4838     13.8870    223.1959   2.6651848826e+02  -5.0808853726e+01   0.07076078   0.03001369  53.74  0.001829941    3.588    0.721
        43  -7.7683    164.2224    102.9492   2.6341327414e+02  -5.7423131723e+01   0.02522776   0.02282921  29.09            0    1.102    0.092
        44 -10.6824     38.1807     89.0375   2.5978837753e+02  -5.3363090694e+01    0.1087554   0.07072803 -44.43  0.004068595    1.566    0.361
        45  -8.0060    161.5211    198.3411   2.6902175444e+02  -5.5938683954e+01    0.0335594   0.01853104  17.10  0.001104019    2.055    0.513
        46 -10.1839    217.1068     91.1629   2.6404447408e+02  -5.9337314198e+01   0.05501065   0.03707928  80.68  0.001996771    1.817    0.450
        47  -8.0666    187.6080    196.8976   2.6970673815e+02  -5.6794554240e+01    0.0254961   0.02214621  18.44 0.0005676495    1.175    0.149
        48  -7.7334    180.8391    193.8268   2.6932642142e+02  -5.6628391208e+01   0.02623669   0.02134418 -22.75  0.001071617    1.352    0.260
        49  -8.6071    160.7065     85.6357   2.6224982469e+02  -5.7530867101e+01   0.03541371   0.02966391 -45.64 0.0008301138    1.194    0.163
        50 -10.4065    220.9883     83.1177   2.6362334085e+02  -5.9574466802e+01    0.0643895   0.04288865  61.88   0.00127432    1.760    0.432
        51  -9.7288    232.7339     80.5866   2.6377462922e+02  -5.9997832422e+01   0.05778272   0.03460987   8.22  0.001732976    1.900    0.474
        52  -8.7135      1.7019     80.7510   2.5863594897e+02  -5.2223398809e+01   0.03327922   0.02588189   8.00 0.0006574696    1.317    0.241
        53  -8.6961    192.9510     82.6154   2.6285738157e+02  -5.8648050652e+01   0.03281182   0.02836345  49.99  0.000394454    1.188    0.158
        54  -7.5892    193.1083     75.4813   2.6240179941e+02  -5.8745308650e+01   0.02811203    0.0179548 -68.97   0.00102503    1.569    0.363
        55  -8.3229    126.0391     74.9546   2.6078758750e+02  -5.6496594021e+01   0.02631517   0.02580153  64.45            0    1.033    0.032
        56  -8.4263    207.5887     66.2660   2.6216593026e+02  -5.9347168921e+01   0.06859554   0.03008332 -35.30  0.001893389    3.006    0.667
        57  -7.9632    235.0931     62.5511   2.6263033096e+02  -6.0313589593e+01    0.0278557   0.01795153 -70.29   0.00101965    1.572    0.364
        58  -9.2640    165.6470     59.5672   2.6071950496e+02  -5.8018678445e+01     0.034488    0.0312451  62.18 0.0003419891    1.143    0.125
        59  -7.6040    247.4305     59.0119   2.6271939426e+02  -6.0770234155e+01   0.02622493   0.01770118  21.19 0.0003089115    1.479    0.324
        60  -8.0573    207.0775     48.2180   2.6095847069e+02  -5.9552822878e+01   0.02835969    0.0233921  62.10 0.0008646508    1.291    0.225
        61  -8.5911    206.0298     32.0203   2.5984944146e+02  -5.9707758401e+01   0.02638891   0.02605841 -14.73            0    1.009    0.009
        62  -7.7564     88.6869     24.0309   2.5691782576e+02  -5.5786307190e+01    0.0246635   0.02257941  17.54 0.0001949193    1.092    0.084
        63  -9.7009    219.3671    217.5031   2.7189450148e+02  -5.7450782763e+01   0.07363016   0.02484994  36.92  0.002043686    2.776    0.640
        64  -7.4067     43.8348    219.1479   2.6702930956e+02  -5.1833952588e+01    0.0240952   0.02055723  67.61 0.0003564159    1.280    0.219
        65  -9.5450     96.9061    211.7990   2.6798859368e+02  -5.3654467334e+01    0.0338397   0.02620816  32.22 0.0005470575    1.281    0.220
        66  -9.3584      6.5847    225.7392   2.6647703719e+02  -5.0536691211e+01   0.03500875   0.02692119  65.73 0.0007416821    1.489    0.328
        67  -8.9759     40.8083    191.4810   2.6549348777e+02  -5.2135227529e+01   0.03122385   0.02934442  38.93 0.0003048829    1.073    0.068
