#   1 NUMBER                 Running object number                                     
#   2 MAG_AUTO               Kron-like elliptical aperture magnitude                    [mag]
#   3 X_IMAGE                Object position along x                                    [pixel]
#   4 Y_IMAGE                Object position along y                                    [pixel]
#   5 X_WORLD                Barycenter position along world x axis                     [deg]
#   6 Y_WORLD                Barycenter position along world y axis                     [deg]
#   7 A_WORLD                Profile RMS along major axis (world units)                 [deg]
#   8 B_WORLD                Profile RMS along minor axis (world units)                 [deg]
#   9 THETA_WORLD            Position angle (CCW/world-x)                               [deg]
#  10 FWHM_WORLD             FWHM assuming a gaussian core                              [deg]
#  11 ELONGATION             A_IMAGE/B_IMAGE                                           
#  12 ELLIPTICITY            1 - B_IMAGE/A_IMAGE                                       
         1 -14.3679    160.2139     52.3473   8.0888772309e+01   3.8573037478e+01      1.62209     1.256229  16.35  0.005537524    1.623    0.384
         2 -14.3335    172.4068     36.2072   7.4017828024e+01   3.7804621535e+01    0.9537055    0.9152375  30.35  0.003546882    1.156    0.135
         3 -12.1999    189.8522     14.6939   6.5694913774e+01   3.6044975706e+01    0.3090254    0.2595046 -37.89  0.001275831    1.329    0.248
         4 -13.9214    189.5379      4.7166   6.3212111370e+01   3.7138567957e+01     1.010458    0.5862764  65.98   0.00393877    1.471    0.320
         5 -10.9798     29.2983    208.2563   1.4482982124e+02   2.7998622629e+01    0.1452352    0.1348582  79.80 0.0006262858    1.403    0.287
         6 -18.7723     69.9855    243.6693   1.4057498449e+02   1.5748306199e+01     6.470895     5.047618  52.59   0.04343063    1.278    0.218
         7 -11.7279    208.6959    197.4859   1.0654695950e+02   2.3913985395e-01    0.2634994    0.2381497 -85.21 0.0008111008    1.452    0.311
         8 -10.6423    175.0955    194.0586   1.1269568767e+02   7.3461246603e+00    0.2224028     0.175028  84.22 0.0006233563    1.694    0.410
         9 -19.2493     50.2531     97.6291   1.2413480081e+02   5.0747500399e+01     18.10757     1.507438 -57.13   0.03389018   11.546    0.913
        10 -10.7200    180.0748    192.3271   1.1132836488e+02   6.6991949517e+00    0.2514277    0.2110379 -59.41 0.0005824633    1.344    0.256
        11 -11.4546    167.3200    191.3957   1.1383302300e+02   9.4009766635e+00    0.3370751    0.2431753  25.24  0.001451771    1.602    0.376
        12 -10.2509    179.1584    206.1483   1.1408165810e+02   4.2870685508e+00    0.1816133    0.1596363  71.85  0.001033692    1.303    0.233
        13 -10.1630    176.5192    188.0387   1.1124542433e+02   8.2359395489e+00    0.2157435    0.1439972 -44.48 0.0006274572    1.576    0.365
        14 -10.6455    184.5121    186.7384   1.0931890297e+02   6.8930117976e+00    0.2329142    0.2148225  37.59 0.0007052743    1.035    0.034
        15 -12.1576     36.6191    183.9592   1.4114653837e+02   3.2436710162e+01    0.2316639    0.1718284  72.49 0.0003966171    1.199    0.166
        16 -12.7219    206.5688    180.2226   1.0351608035e+02   3.7343826711e+00    0.8353894    0.4407445  31.73  0.003031308    2.200    0.545
        17 -12.6192    196.4320    171.9036   1.0382273076e+02   7.3474642650e+00    0.9096573    0.4606004 -53.70  0.002883567    2.473    0.596
        18 -10.3260     28.1805    179.6864   1.4245245749e+02   3.4295135552e+01    0.1396884    0.1131593  27.23 0.0005372924    1.703    0.413
        19 -13.0284    136.9783    171.6088   1.1675469219e+02   1.9607594280e+01    0.7167394    0.4821777  61.87  0.002579058    1.654    0.395
        20 -10.9015    142.1613    165.6287   1.1437465992e+02   1.9904374904e+01    0.2655539    0.2002568 -63.31 0.0005936776    1.400    0.286
        21 -10.5440    122.9654    165.9927   1.1893231327e+02   2.3583381878e+01    0.2217555    0.2010839  79.77  0.001208372    1.063    0.059
        22 -10.7142    223.9714    164.4062   9.6809003332e+01   3.1901104052e+00    0.2599541    0.1920637 -53.13 0.0005749029    1.531    0.347
        23  -9.7068     24.7502    165.4585   1.4170158334e+02   3.7830119272e+01    0.1318836     0.121779  -1.07 0.0009333141    1.578    0.366
        24 -10.7818    237.5143    159.4746   9.3269271324e+01   1.4352917785e+00    0.1396143    0.1293907 -26.15 0.0004087409    1.050    0.048
        25 -10.9566    111.0791    158.1570   1.2026788453e+02   2.7599983783e+01    0.2647948    0.2146978  62.40 0.0008728501    1.249    0.199
        26 -11.1227    139.9788    156.4671   1.1298611701e+02   2.2399502898e+01    0.2647148    0.2194214 -56.49 0.0003499376    1.204    0.169
        27  -9.8714     11.7381    168.4670   1.4477303927e+02   3.8347321071e+01    0.1180106    0.1026074 -67.94  0.000246427    1.313    0.238
        28 -10.9376    161.9854    153.7051   1.0729272938e+02   1.8388868344e+01    0.2236503     0.204267  46.89  0.001161088    1.090    0.083
        29 -13.0667    134.0260    145.4086   1.1201699827e+02   2.6124408202e+01     1.341437    0.3343751 -54.11  0.003225592    5.355    0.813
        30 -10.5105      8.9216    153.0188   1.4386639539e+02   4.2016357254e+01    0.2185028    0.1403566 -29.67 0.0009995375    2.457    0.593
        31 -11.4620     28.1450    151.1920   1.3928209560e+02   4.0755674343e+01    0.4074041    0.1700483  51.23  0.001891273    2.769    0.639
        32 -10.9231    174.5437    148.7330   1.0337157284e+02   1.6723143859e+01    0.3591406    0.2594571 -69.61  0.001579896    1.764    0.433
        33 -12.1992    143.6784    145.3342   1.0967459312e+02   2.4141328454e+01    0.3298322    0.2891003  86.49  0.001672149    1.228    0.185
        34 -12.3135      5.1451    112.2475   1.3990005139e+02   5.1371802129e+01    0.4372072    0.2995727  -8.55  0.001688932    2.047    0.511
        35 -12.1351     13.6519    142.0823   1.4158545642e+02   4.4099229433e+01    0.3444381    0.2266567  45.04 0.0002556774    1.742    0.426
        36 -13.3430      2.8526    126.8770   1.4238786865e+02   4.8284022835e+01     1.551259    0.5708026 -77.56   0.00715103    2.473    0.596
        37 -13.1703    113.3121    139.3678   1.1584683579e+02   3.1581389132e+01    0.7983199     0.574676   8.34  0.003473248    2.203    0.546
        38 -12.5980    103.8489    138.5923   1.1810695132e+02   3.3489696678e+01    0.2978706    0.2859374  30.72 0.0005267172    1.160    0.138
        39 -13.2005     12.4231    116.0881   1.3849850075e+02   5.0037516206e+01    0.6550756    0.3582316 -16.04   0.00334553    3.085    0.676
        40 -13.6625    194.4771    194.1122   1.0871934907e+02   3.5481399408e+00      1.18665    0.7747603 -63.93  0.003278826    2.281    0.562
        41 -12.2586    106.0490    130.9059   1.1584986863e+02   3.4892770786e+01      0.41337    0.3468806 -70.14  0.001163718    1.198    0.165
        42 -11.4576    107.7361    125.6033   1.1418849662e+02   3.5813042105e+01    0.3067391    0.2630533 -26.04 0.0006264079    1.316    0.240
        43 -12.3586    119.1722    129.5720   1.1212658121e+02   3.2728366506e+01    0.4694235    0.3519122 -50.33   0.00118627    1.287    0.223
        44 -13.5245    124.6050    126.7918   1.1007106487e+02   3.2285165125e+01    0.8390407    0.5434015 -68.76  0.003497293    1.970    0.492
        45 -12.5598    135.6754    122.5578   1.0623173339e+02   3.0944458974e+01    0.7117503    0.2641588 -52.44  0.002240956    3.017    0.669
        46 -11.2507    160.8421    128.1766   1.0157999552e+02   2.4179361023e+01    0.4107542    0.2263685 -50.78  0.001434747    1.878    0.468
        47 -11.3815      1.4420    145.7296   1.4479215348e+02   4.4195970413e+01     0.214056    0.0857214 -70.87 0.0003856267    1.834    0.455
        48 -11.3886    113.2306    118.6850   1.1106788991e+02   3.6360904885e+01    0.3156785    0.2620842  71.55 0.0003455555    1.378    0.274
        49 -10.9227    117.5552    115.8840   1.0922220983e+02   3.6149997006e+01     0.299281    0.1962404  61.60 0.0008152294    1.906    0.475
        50 -12.5884      5.4202    143.4262   1.4365101288e+02   4.4423558993e+01    0.5107599    0.3868582  59.30    0.0019902    1.443    0.307
        51 -11.2730    168.1224    113.1092   9.6123735973e+01   2.5684288978e+01    0.4431153    0.3239114 -86.28   0.00158786    1.899    0.473
        52 -11.2480    134.5199    105.4804   1.0210216148e+02   3.4903540774e+01    0.4005503    0.1478599 -46.30  0.001320104    2.692    0.629
        53 -10.8730    205.4893    110.1710   8.7733836084e+01   1.7478960891e+01    0.3293966    0.2216225  44.33 0.0009453788    1.593    0.372
        54 -12.6815     84.4611    109.1852   1.1670086942e+02   4.3550898744e+01    0.5009365    0.2744863 -41.40  0.002214171    1.822    0.451
        55 -11.3080     24.9866    108.7494   1.3385874529e+02   5.0718836591e+01    0.1645013    0.1439457 -57.61 0.0003951728    1.105    0.095
        56 -10.9134     91.5178     78.9233   1.0643958025e+02   4.8795781026e+01    0.2060049    0.1862775  22.36 0.0004130243    1.137    0.121
        57 -12.2977    140.1931    199.9921   1.2115998651e+02   1.2903546694e+01    0.3175685    0.2767768 -27.29  0.001784389    1.418    0.295
        58 -12.9497    136.1125    196.9965   1.2153381020e+02   1.4288177302e+01    0.4583392    0.3900108 -66.45  0.002394165    1.224    0.183
        59 -13.1543    176.4501     29.0921   7.1388850726e+01   3.7692722087e+01    0.4974139    0.3914667  35.51  0.001503678    1.454    0.312
        60 -10.5297     13.4808     59.6091   1.2723573114e+02   6.1839054914e+01    0.1967467     0.148734 -44.12 0.0001844597    1.029    0.028
        61 -10.5100    128.4651     27.8933   7.9883293503e+01   4.9291344431e+01    0.2414101    0.1793435  72.59 0.0006539085    1.523    0.344
        62  -9.9920    201.3357    222.2986   1.1254435757e+02  -2.5562597468e+00    0.1351319   0.09535559  11.46 0.0007032775    1.654    0.395
