#   1 NUMBER                 Running object number                                     
#   2 MAG_AUTO               Kron-like elliptical aperture magnitude                    [mag]
#   3 X_IMAGE                Object position along x                                    [pixel]
#   4 Y_IMAGE                Object position along y                                    [pixel]
#   5 X_WORLD                Barycenter position along world x axis                     [deg]
#   6 Y_WORLD                Barycenter position along world y axis                     [deg]
#   7 A_WORLD                Profile RMS along major axis (world units)                 [deg]
#   8 B_WORLD                Profile RMS along minor axis (world units)                 [deg]
#   9 THETA_WORLD            Position angle (CCW/world-x)                               [deg]
#  10 FWHM_WORLD             FWHM assuming a gaussian core                              [deg]
#  11 ELONGATION             A_IMAGE/B_IMAGE                                           
#  12 ELLIPTICITY            1 - B_IMAGE/A_IMAGE                                       
         1 -14.9232      8.5574    151.6986   1.3830672910e+02   4.2668635577e+01     6.999735     1.449553 -75.86   0.01863399    6.314    0.842
         2 -14.6104     43.0052    202.5973   1.3572155415e+02   2.7020712885e+01     9.424942     2.269836  51.23   0.02871107    5.067    0.803
         3 -12.7996    199.0038     33.7221   6.2316990680e+01   3.2024356534e+01    0.9630218    0.7099789  67.83  0.005681322    1.257    0.204
         4 -13.6272    215.0515     16.5307   5.6849159279e+01   3.0494735687e+01     1.148771    0.9191104  36.20  0.007313691    1.916    0.478
         5 -11.6183      2.6101     15.6718   1.1070302877e+02   7.0741224032e+01    0.4451903    0.1808799 -47.69   0.00248246    2.585    0.613
         6 -10.7999    123.4951    249.8958   1.2404488786e+02   4.7200077783e+00     0.418041    0.1115519  43.37  0.001478231    3.135    0.681
         7 -11.4821    184.7048    249.3709   1.1137759030e+02  -5.1944762769e+00    0.5618658    0.1722442  32.61  0.001970608    3.504    0.715
         8 -10.5729    101.0931    249.8586   1.2864454919e+02   8.3160289973e+00    0.3038101     0.172021  54.58   0.00119866    1.624    0.384
         9 -11.2869     93.2291    249.6817   1.3022193133e+02   9.5712031143e+00    0.5178663    0.2717501  55.52  0.002570726    1.786    0.440
        10  -8.9012     62.9876    250.2713   1.3627261454e+02   1.3874942336e+01    0.1582693    0.0939269  44.27 0.0008866154    1.499    0.333
        11 -11.5995     30.3397    248.8738   1.4227910676e+02   1.8356658470e+01    0.4922358    0.4755214   3.71  0.003702911    1.672    0.402
        12 -11.5619     38.9568    247.3540   1.4058588257e+02   1.7622932552e+01    0.6192558    0.3827313  50.15  0.003826041    1.397    0.284
        13 -11.7029     18.5992    233.5922   1.4336291087e+02   2.2870257735e+01    0.4506325    0.2698854  67.36  0.001684961    1.380    0.275
        14 -10.7310     16.6866    249.8237   1.4476938926e+02   1.9726218426e+01    0.4448537    0.2267759  55.70   0.00189952    1.580    0.367
        15 -10.0166      8.7348    250.4603   1.4617766584e+02   2.0456567454e+01    0.3306231    0.2005116  36.59  0.001257961    1.880    0.468
        16 -11.0612      2.5262    249.3964   1.4716946867e+02   2.1311179397e+01    0.6728971    0.2567604 -77.93  0.003558014    2.215    0.548
        17 -10.8635     21.7218    245.3254   1.4359020693e+02   2.0077514324e+01    0.3928581    0.2032985  42.78  0.001614248    1.793    0.442
        18 -11.2779     17.3790    242.5466   1.4418672955e+02   2.1130881218e+01     0.386857    0.2210804  54.39  0.001226773    1.460    0.315
        19 -12.9203     11.8250    238.2183   1.4490588461e+02   2.2622759839e+01    0.9001141    0.6750866  78.90  0.004940502    1.039    0.038
        20 -12.0559    105.5200    243.1324   1.2692522683e+02   8.9580848929e+00    0.4874566    0.2570829  41.81  0.001852966    1.663    0.399
        21  -9.0516     56.1730    240.8186   1.3673836655e+02   1.6760351731e+01    0.1516766    0.1417894 -84.29 0.0003931727    1.326    0.246
        22 -10.1421    248.6073    249.5248   9.9211195044e+01  -1.4402216628e+01    0.3141055    0.1326312  23.58   0.00148276    2.634    0.620
        23 -11.7665      6.3692    225.6173   1.4509630136e+02   2.5839614530e+01    0.3529153     0.333113 -85.12  0.002387654    1.449    0.310
        24 -10.3317    150.4838    228.6643   1.1523751014e+02   4.2878544545e+00    0.2617279    0.1198387  38.67  0.001095435    1.997    0.499
        25 -10.2983     47.9636    236.1040   1.3793200903e+02   1.8843732733e+01    0.3651106     0.176387  75.05  0.001696092    2.364    0.577
        26 -13.7084     35.6458    217.3162   1.3873304037e+02   2.4505842242e+01    0.9136861    0.7195363  80.35  0.002560089    1.014    0.014
        27 -13.1119     10.1703    207.2078   1.4307544960e+02   2.9517784630e+01    0.8123553    0.6514971  40.21  0.002960428    1.489    0.328
        28 -10.5550    227.1030    202.9100   9.4771136474e+01  -4.0145272896e+00    0.4387891    0.2645344 -59.74 0.0007487104    2.686    0.628
        29  -9.2993    191.9821    192.9827   9.9837446589e+01   3.9468216343e+00    0.3735864     0.189349 -63.98  0.001150227    4.420    0.774
        30 -11.3658     57.5717    192.8452   1.3126339641e+02   2.7500115512e+01    0.3783725    0.2585057 -45.54  0.001292803    1.765    0.434
        31  -8.2578    181.5260    192.4642   1.0196506145e+02   6.0060582742e+00    0.1457525    0.1387882   0.39  0.000104888    1.023    0.023
        32 -11.5543     63.8972    185.3941   1.2875963749e+02   2.8461678484e+01    0.3069531    0.2453611 -51.62 0.0005342384    1.358    0.264
        33 -10.7023     74.5215    173.4944   1.2431921100e+02   2.9893035294e+01    0.2630568    0.2384825 -67.13 0.0001663799    1.095    0.087
        34 -13.0224     61.1495    170.8818   1.2735066623e+02   3.2437155412e+01    0.5787784    0.2881053 -45.46  0.001933904    2.327    0.570
        35 -11.5761     82.4212    164.7199   1.2077729134e+02   3.0887284091e+01     0.644547     0.579151 -76.47  0.003577528    1.029    0.028
        36 -10.7915     22.7049    156.2195   1.3523291966e+02   4.0401889511e+01    0.2296452     0.187293  -3.12  0.001213691    1.663    0.399
        37 -11.7875     84.2826    148.5351   1.1723891338e+02   3.4650515436e+01    0.3263373    0.2560655 -45.80 0.0005431997    1.280    0.219
        38 -12.5181     66.7076    143.0894   1.2114136146e+02   3.8640102581e+01     1.218356    0.7097968  74.02  0.004117992    2.863    0.651
        39  -8.8260     99.2342    145.9540   1.1255878427e+02   3.2774563985e+01    0.2162244    0.1868846 -55.99 0.0003329298    1.108    0.097
        40  -9.7570     95.9645    149.6013   1.1422170597e+02   3.2441843182e+01    0.3089633    0.2785744  45.11 0.0007764017    1.156    0.135
        41  -9.2735    108.5134    135.4519   1.0766222233e+02   3.3645190085e+01    0.3427036    0.2333676 -13.42  0.001348734    2.407    0.585
        42 -10.2638     95.3718    132.5438   1.1069789840e+02   3.6736795797e+01    0.2823431    0.2396008 -23.89 0.0007947561    1.327    0.247
        43  -8.8233    105.9704    122.7107   1.0534389377e+02   3.7150423145e+01    0.1962195     0.189439  36.03 0.0002555213    1.072    0.067
        44 -10.7043     53.9668    119.6653   1.2027416499e+02   4.6025216528e+01    0.4601884     0.216093 -74.41  0.001596456    3.469    0.712
        45  -9.7422    167.5642    112.5486   8.7138149023e+01   2.6203106592e+01    0.3148909    0.2552761 -79.63 0.0009620908    1.400    0.286
        46  -9.1657    203.6721    111.3143   7.9662394171e+01   1.8289174410e+01    0.2798009    0.1728523  32.81  0.001155133    2.371    0.578
        47  -9.7020    242.3295     93.3425   6.9680747176e+01   1.3411708984e+01    0.1257928    0.1077526  -1.31 0.0007051173    1.746    0.427
        48 -10.8913    163.3144    249.5426   1.1575914583e+02  -1.7708793265e+00    0.3145589    0.1735288  34.87   0.00156652    1.616    0.381
        49  -8.7585    159.5000     78.4831   8.0034149095e+01   3.4632251009e+01    0.1481618    0.1382849  84.99 -2.091542e-05    1.032    0.031
        50  -8.4580    184.3352     77.3372   7.4957415505e+01   2.8965033495e+01    0.1437718    0.1153927  21.73 0.0007051805    1.747    0.428
        51 -12.5692     29.1349    225.0136   1.4070275093e+02   2.3547992241e+01    0.3213982     0.284467 -73.42 0.0007549963    1.351    0.260
        52 -10.8503     13.0023     61.3031   1.2093442943e+02   6.2470738572e+01    0.2762305    0.1450911 -52.04  0.001322499    1.589    0.371
        53 -11.3422    139.5467    248.4571   1.2052069853e+02   2.3497195006e+00    0.3510805    0.2725456  84.46  0.001997941    1.629    0.386
        54 -10.4546    171.9978    246.7978   1.1355708772e+02  -2.7150775708e+00    0.2205658    0.1425922  11.89   0.00108297    2.002    0.501
        55 -11.0287     18.3715     26.2057   1.0727368471e+02   6.7943671329e+01    0.3745713    0.2015172  41.51  0.002065225    2.967    0.663
