#   1 NUMBER                 Running object number                                     
#   2 MAG_AUTO               Kron-like elliptical aperture magnitude                    [mag]
#   3 X_IMAGE                Object position along x                                    [pixel]
#   4 Y_IMAGE                Object position along y                                    [pixel]
#   5 X_WORLD                Barycenter position along world x axis                     [deg]
#   6 Y_WORLD                Barycenter position along world y axis                     [deg]
#   7 A_WORLD                Profile RMS along major axis (world units)                 [deg]
#   8 B_WORLD                Profile RMS along minor axis (world units)                 [deg]
#   9 THETA_WORLD            Position angle (CCW/world-x)                               [deg]
#  10 FWHM_WORLD             FWHM assuming a gaussian core                              [deg]
#  11 ELONGATION             A_IMAGE/B_IMAGE                                           
#  12 ELLIPTICITY            1 - B_IMAGE/A_IMAGE                                       
         1 -13.7028    214.4333     18.9436   5.0356978682e+01   2.8731743233e+01     1.468432    0.9899534  23.02  0.006918141    1.916    0.478
         2 -10.5391      2.4135      4.2067   1.0811540625e+02   7.4190560218e+01    0.3445133   0.07732426 -57.26  0.001450291    3.223    0.690
         3 -11.5024     56.6169    240.2332   1.2578991962e+02   2.1587208770e+01    0.2832918    0.1319155  59.88  0.001487379    1.648    0.393
         4 -12.9129    162.2787    249.1850   1.0917702896e+02   5.9424861088e+00    0.7428951    0.2667772  43.31  0.003983961    1.996    0.499
         5 -13.3375    118.6120    248.6408   1.1629042439e+02   1.2342354528e+01    0.9530171    0.4496111  33.06  0.005330484    2.388    0.581
         6 -12.7594     63.7874    249.1121   1.2515814299e+02   1.9422451031e+01    0.6322877    0.2398672  43.64  0.003927532    1.905    0.475
         7 -15.7552     13.2457    241.1490   1.3256789879e+02   2.6043439900e+01     9.767887     4.259078 -86.61    0.0704412    2.094    0.523
         8 -13.6386     99.1976    247.8768   1.1940190323e+02   1.5110723124e+01    0.9577597    0.4163991  40.81  0.005801257    1.821    0.451
         9 -10.9881    150.2757    227.9599   1.0882834371e+02   1.0429183252e+01    0.2034115    0.1542755  75.47  0.001395477    1.655    0.396
        10 -14.3463      9.6913    207.5539   1.3192706330e+02   3.1826539441e+01     2.097972     1.630939 -41.36   0.01637966    2.433    0.589
        11 -12.3094     50.7878    239.1185   1.2666261429e+02   2.2429479943e+01    0.5753916    0.2142987  72.37  0.003000769    3.231    0.691
        12 -12.9132    104.3079    240.7366   1.1798562225e+02   1.5422072440e+01    0.4734067    0.3005511  37.12  0.003285673    1.527    0.345
        13 -10.6260    224.1896    197.8986   9.1665294791e+01   2.1175022079e+00    0.2479554    0.2216262 -55.63   0.00104169    1.733    0.423
        14 -11.4018     58.0928    190.9989   1.2217228583e+02   2.9714895626e+01    0.2771846    0.2204874 -50.27  0.001181575    1.807    0.447
        15 -11.5121     64.2658    183.8070   1.2033156663e+02   3.0305853360e+01    0.2317534    0.2072361 -76.73 0.0004276552    1.342    0.255
        16 -10.6242     74.7046    172.3208   1.1702277414e+02   3.1174005092e+01    0.2135726    0.1755872  74.25 0.0003102195    1.025    0.025
        17 -12.9779     61.3972    169.5199   1.1955713830e+02   3.3453654395e+01    0.4228889    0.2536173 -49.50  0.001939166    2.232    0.552
        18 -11.5398     82.3661    163.9737   1.1439098315e+02   3.1779464129e+01    0.4553231    0.4013603  69.68  0.003092814    1.087    0.080
        19 -12.5558     29.8493    222.5860   1.2922409719e+02   2.7336526148e+01    0.2797002    0.2414551 -88.88 0.0007657678    1.469    0.319
        20 -12.4346     67.6927    144.1876   1.1522749888e+02   3.7911380445e+01    0.6742341    0.4184806  69.74  0.002853643    1.670    0.401
        21 -11.7889     84.5178    147.6464   1.1171115999e+02   3.4840328049e+01    0.2602158     0.216407 -61.93 0.0005331187    1.274    0.215
        22  -8.8598     99.2922    145.3061   1.0786620158e+02   3.3059465375e+01    0.1213769    0.1059367 -19.74 0.0002604222    1.578    0.366
        23  -9.4325    108.5157    134.9834   1.0387464115e+02   3.3688786062e+01    0.2553802    0.1971758  21.20  0.001174154    1.692    0.409
        24 -11.3139     53.8372    119.6602   1.1532857545e+02   4.5023907445e+01    0.4560975    0.1357677 -74.50   0.00134826    5.341    0.813
        25  -9.7926     96.2807    148.6941   1.0910816824e+02   3.2832445181e+01    0.2350354    0.2231875 -83.56 0.0007924217    1.156    0.135
        26 -10.3681     95.5237    131.9112   1.0651857031e+02   3.6512496831e+01     0.238513    0.2288187 -14.65 0.0005711532    1.295    0.228
        27  -9.1913    106.0080    122.3048   1.0205651371e+02   3.6827380379e+01    0.1853831    0.1673271  58.04 0.0002833385    1.085    0.079
        28  -9.7734    167.9305    112.8175   8.5136053297e+01   2.6155785057e+01    0.3556016    0.2539156 -84.21  0.001119585    2.229    0.551
        29  -8.8610    203.3139    111.3544   7.7672239666e+01   1.8397841349e+01    0.1557434    0.1102706  13.05 0.0007045264    1.736    0.424
        30 -14.3976     36.8016    214.2367   1.2763003338e+02   2.8001878634e+01     1.101325     1.013054 -61.99  0.006677292    1.703    0.413
        31 -10.4846     53.7237    231.8864   1.2578045483e+02   2.3216002769e+01    0.1782926    0.1074516 -89.48  0.001313186    1.609    0.379
        32 -12.1941    196.3006     38.1815   5.8422828592e+01   3.1187156624e+01    0.7313915    0.5165495 -62.77  0.003409634    1.621    0.383
        33 -12.4951    199.5328     31.9905   5.6071750670e+01   3.1115870857e+01    0.5358989    0.4112003   0.93  0.002646951    1.518    0.341
        34 -12.6974    140.7016    249.7360   1.1276765494e+02   9.0447077430e+00    0.5090021    0.3072711  45.63  0.003571287    1.186    0.157
        35 -10.5405     17.0321     25.2952   1.0796932353e+02   6.9207029585e+01    0.1770638    0.1559682  48.66   0.00103388    1.508    0.337
        36 -10.2725      1.7954     18.2472   1.1347828201e+02   7.1514556083e+01    0.1943397    0.1256407 -67.75 0.0007627254    1.408    0.290
