#   1 NUMBER                 Running object number                                     
#   2 MAG_AUTO               Kron-like elliptical aperture magnitude                    [mag]
#   3 X_IMAGE                Object position along x                                    [pixel]
#   4 Y_IMAGE                Object position along y                                    [pixel]
#   5 X_WORLD                Barycenter position along world x axis                     [deg]
#   6 Y_WORLD                Barycenter position along world y axis                     [deg]
#   7 A_WORLD                Profile RMS along major axis (world units)                 [deg]
#   8 B_WORLD                Profile RMS along minor axis (world units)                 [deg]
#   9 THETA_WORLD            Position angle (CCW/world-x)                               [deg]
#  10 FWHM_WORLD             FWHM assuming a gaussian core                              [deg]
#  11 ELONGATION             A_IMAGE/B_IMAGE                                           
#  12 ELLIPTICITY            1 - B_IMAGE/A_IMAGE                                       
         1 -11.7804    187.6044     46.1032   3.8327122195e+01   3.2894411098e+01    0.9989188    0.7914445  42.57  0.004783511    1.563    0.360
         2 -11.1295    212.8177     20.2012   2.9818531497e+01   3.0612865878e+01    0.8412682    0.3734451  80.89  0.004235881    2.219    0.549
         3 -11.6695    214.9058     15.0338   2.8589023359e+01   3.0754028115e+01    0.9870347    0.4838082  87.94  0.005326548    1.981    0.495
         4  -9.4394    120.2320      9.0820   3.8477476264e+01   5.2701895881e+01    0.2996683     0.280309 -22.39  0.001615002    1.283    0.221
         5  -8.4566    171.5798      2.9686   2.9842612201e+01   4.1356455193e+01    0.3245318    0.1229542 -59.04  0.001352685    3.305    0.697
         6  -8.5248    180.1194    245.5257   8.2738866543e+01  -2.9034210011e+00    0.2359571    0.2000305  55.53  0.001027419    1.764    0.433
         7  -9.0527    248.4085    249.8462   7.0227710488e+01  -1.1791034681e+01    0.2232099    0.1148121  38.18  0.001220522    2.739    0.635
         8 -18.1983     22.1850    236.7314   1.1692797776e+02   2.0058836916e+01     4.697141     3.810806 -65.54   0.01208429    1.399    0.285
         9  -9.3986    105.6309    186.5075   9.0696076118e+01   2.0967165018e+01    0.4361147    0.2655545  81.37  0.001537267    3.146    0.682
        10  -8.5153    102.8550    182.3245   9.0720051659e+01   2.2451890769e+01    0.2642325    0.2271456  64.60 0.0005863995    1.267    0.211
        11  -9.2483    246.3886    241.6186   6.9226805381e+01  -1.0448267958e+01    0.2036361   0.09723625 -47.94 0.0009579422    3.254    0.693
        12  -7.2674    182.3391    187.7002   7.1986087059e+01   7.5161406760e+00    0.1360519    0.1185112  77.58 0.0007035487    1.665    0.399
        13  -9.3333      2.2939    190.5947   1.1835707288e+02   3.2460609250e+01    0.3093969    0.1445435  51.43  0.001526305    2.047    0.512
        14 -10.2552    201.0077    239.7082   7.7480713481e+01  -4.7519083993e+00    0.2240095    0.1796722 -21.71 0.0006654899    1.201    0.167
        15  -8.5451    167.7736    239.2074   8.4388445679e+01  -8.6851550814e-02    0.2060141    0.1555102  31.45  0.000286928    1.262    0.208
        16  -8.8400    169.3458    234.8549   8.3349072019e+01   4.6272829184e-01    0.2347648    0.1909004  21.18 0.0003479154    1.110    0.099
        17  -7.7766    195.5000    183.5815   6.8359443246e+01   6.1511814970e+00    0.2385402    0.1308118 -52.61 0.0009232427    2.169    0.539
        18  -8.0698    170.0982    230.0285   8.2394614317e+01   1.2283708251e+00    0.2003366    0.1689882   7.80 0.0003797662    1.016    0.015
        19  -7.6662    151.3588    182.1554   7.8063089720e+01   1.4082362237e+01    0.2159127    0.1433227 -58.73 0.0009425524    1.773    0.436
        20  -7.8818      2.1136    180.6300   1.1770757947e+02   3.4907722276e+01    0.2373636    0.1478341 -13.56  0.001185824    2.421    0.587
        21  -7.8988    185.6180    228.3535   7.8757849856e+01  -7.2913416942e-01    0.2452484    0.1258062 -48.39  0.001130257    2.246    0.555
        22  -8.8767    120.8396    177.1179   8.4897012539e+01   2.0684712818e+01    0.2642391    0.2236687  11.97 0.0006487499    1.246    0.197
        23  -8.2074    180.1431    175.6220   7.0028920881e+01   1.0373600955e+01    0.2541563     0.193719 -48.26 0.0008069459    1.357    0.263
        24  -9.8902    105.4999    173.4927   8.8393766337e+01   2.4217157396e+01    0.5095681    0.2624421 -41.03  0.001932382    2.171    0.539
        25 -10.9451    146.9568    225.2104   8.6836996206e+01   5.6531657933e+00    0.6058644    0.3948784 -63.88  0.002894878    2.123    0.529
        26  -9.4341    113.5912    174.2295   8.6303009271e+01   2.2653067476e+01    0.3358323    0.2555681  70.56  0.001328256    1.689    0.408
        27  -9.5979     89.8793    174.8321   9.3016686715e+01   2.6414132181e+01    0.3416671    0.2731482  19.41  0.001092126    1.346    0.257
        28  -9.6613     94.1811    173.7484   9.1611616392e+01   2.6011035951e+01    0.3497997    0.2012681  48.62  0.001427705    1.893    0.472
        29  -9.2248    135.3308    171.5856   7.9973847404e+01   1.9414773520e+01    0.3527091    0.3192462  61.36  0.001304123    1.246    0.197
        30  -8.5451    143.5318    169.3535   7.7406154722e+01   1.8427246624e+01    0.3695327    0.2319304 -81.15  0.001216528    3.555    0.719
        31  -8.7055    190.5681    167.7398   6.6144344509e+01   1.0157244847e+01    0.5171896    0.2922831  57.85   0.00199257    2.969    0.663
        32  -8.8742    250.5431    226.0504   6.5865943258e+01  -8.6627076468e+00    0.1803866   0.09540666 -34.50  0.001027892    1.587    0.370
        33  -8.0930    185.1105    221.9230   7.7756623517e+01   4.9391809321e-01    0.2275046     0.147451 -46.71 0.0007479162    1.715    0.417
        34  -9.8211    169.1227    156.8985   6.8517583048e+01   1.6392896975e+01    0.2984118    0.2412452 -37.31 0.0003055372    1.176    0.150
        35  -8.4882    113.4481    157.2281   8.2928087225e+01   2.6907363137e+01    0.3627413       0.1751 -43.08  0.001082743    2.157    0.536
        36  -9.8546    111.9564    151.8646   8.2207471693e+01   2.8518533396e+01    0.6231072    0.3278884  44.79  0.001361239    2.007    0.502
        37  -9.0783    109.8014    148.1198   8.2012239137e+01   2.9848702784e+01    0.3729661    0.3095394  59.33 0.0009642225    1.361    0.265
        38  -7.1123    120.5922    157.2740   8.0937145044e+01   2.5589874132e+01    0.1657396    0.1224855  66.13 0.0005382416    1.771    0.435
        39  -9.3164    101.9519    154.1445   8.5593322393e+01   2.9722414799e+01     0.462109    0.3896042  52.88  0.002208979    1.270    0.213
        40 -10.4272     97.3319    149.2395   8.5934791871e+01   3.1771007092e+01    0.7594139    0.5465304 -27.59  0.002743603    1.620    0.383
        41  -8.4288    104.2329    147.3787   8.3481748474e+01   3.1038977958e+01    0.3471848    0.2022027  51.32 0.0007195771    2.034    0.508
        42  -9.0758     92.2698    154.4547   8.8521980728e+01   3.1279216432e+01    0.4444429    0.2911527  60.33  0.001658921    1.972    0.493
        43  -8.0853    174.5356    153.9470   6.6639429337e+01   1.5994030028e+01    0.2268244    0.1967056  31.13 7.847542e-05    1.198    0.165
        44  -8.5149    155.9493    223.0000   8.4404566936e+01   4.6997961212e+00    0.2356356   0.07340091  33.47 0.0007150551    2.963    0.663
        45  -9.4985    134.1605    147.9842   7.5183063829e+01   2.5255418496e+01    0.6542252    0.2340889 -55.89  0.001854511    3.658    0.727
        46  -8.7540    141.6119    147.9983   7.3227387310e+01   2.3785074898e+01    0.4905835    0.3253286  89.55  0.001220239    3.147    0.682
        47  -8.9018    113.8847    142.4697   7.9559482757e+01   3.0499108863e+01    0.2976086    0.2690225 -60.78 0.0006777883    1.151    0.131
        48  -9.8912     97.4573    135.3577   8.2835199036e+01   3.5278273427e+01    0.3254278    0.2824122 -34.42 0.0002970635    1.148    0.129
        49  -9.4863     92.4160    137.4444   8.4872508492e+01   3.5625399350e+01      0.58729    0.2935441  55.69  0.001325203    3.166    0.684
        50  -9.5329     85.0846    132.5296   8.6086562013e+01   3.8104846562e+01    0.6448402    0.3473598  55.36   0.00222472    2.688    0.628
        51 -10.0866    109.2926    135.7012   7.9332199029e+01   3.3034093990e+01     0.460867    0.3890996  15.60  0.001941424    1.268    0.211
        52  -8.6159    119.1850    133.6302   7.5953061918e+01   3.1640040773e+01    0.2617668    0.2209225 -61.90 0.0009160777    1.273    0.214
        53  -8.1090    115.3621    128.2956   7.5755252876e+01   3.3672453009e+01    0.3101682    0.2187014   7.10  0.001054644    1.937    0.484
        54  -8.1869    118.9682    126.7296   7.4320611751e+01   3.3332928995e+01    0.2440839    0.2131989  -7.14 0.0005618568    1.241    0.194
        55  -8.0530    136.4951    126.9959   6.9544774255e+01   2.9689974832e+01     0.243112    0.1551292 -47.73 0.0009199626    1.555    0.357
        56  -8.7866    103.2740    123.7851   7.8261671878e+01   3.7082575264e+01      0.27353    0.2335662 -16.50 0.0005044975    1.254    0.202
        57  -7.3787     72.0902    240.2094   1.0629486163e+02   1.3466180574e+01    0.2664092    0.1706214  64.48 0.0005975845    1.662    0.398
        58 -10.5285    154.8485    218.0889   8.3834385343e+01   5.8441917058e+00    0.9336466    0.2815782  37.47  0.003205439    3.059    0.673
        59  -8.6764    160.3980    209.4450   8.1048534817e+01   6.7056005025e+00     0.232516    0.2031642  10.73 0.0003742534    1.042    0.040
        60 -13.9739     53.1934    229.9909   1.0961030104e+02   1.8077362375e+01    0.4760487    0.4105658  82.69  0.001034474    1.111    0.100
        61 -10.5043     15.0759    113.3545   1.0652589962e+02   5.1188318266e+01    0.3808596     0.263717  -2.25  0.002072563    1.669    0.401
        62 -10.4090     29.0216    108.4384   1.0054919061e+02   5.1373444104e+01    0.7154645    0.3763669  52.67  0.002958393    2.776    0.640
        63  -8.2954    118.4618    110.5791   7.0277247313e+01   3.7169073984e+01    0.3952604     0.231078  68.85  0.001244391    3.593    0.722
        64  -9.8721    140.3441    202.2668   8.4544819393e+01   1.1516234607e+01    0.3022766    0.2667137 -12.82  0.001646114    1.133    0.118
        65  -7.1026     96.2608    109.6649   7.6821972904e+01   4.1762051539e+01    0.1509381    0.1255543 -89.25 0.0003116215    1.578    0.366
        66  -9.5636     67.9058    107.0442   8.5824789181e+01   4.7159205487e+01    0.3921785    0.2333532  60.85  0.001459098    2.897    0.655
        67 -11.7812     75.7115    248.5430   1.0631293748e+02   1.1262434766e+01    0.4798446     0.394064 -74.67  0.002059064    1.342    0.255
        68  -7.6223     92.9742    100.9964   7.5518317041e+01   4.4367656687e+01    0.1810695    0.1702942 -20.97 0.0009527914    1.027    0.027
        69 -10.3545     81.5473    100.8008   7.9335962737e+01   4.6456077684e+01    0.2704188    0.2577303 -19.70  0.000176175    1.038    0.037
        70  -8.5817    176.9996    110.6155   5.5971739891e+01   2.4494487364e+01     0.325643    0.2081703 -39.06  0.001268264    1.519    0.342
        71  -8.0888    192.6111    194.8172   7.1171465643e+01   4.4319118007e+00    0.1985071    0.1285421 -50.50 0.0006623765    1.743    0.426
        72  -9.9058     79.5879    242.2664   1.0480966861e+02   1.2039603778e+01    0.2100957    0.1957979  48.16  0.000254925    1.083    0.077
        73  -7.7133    100.0123     86.9872   6.9147452443e+01   4.6028280917e+01    0.1736403    0.1640172 -13.08 0.0009317509    1.041    0.039
        74  -7.4964    130.8612     82.1307   5.8860341606e+01   4.0333319886e+01     0.196215    0.1713763  11.01  0.001010161    1.280    0.219
        75 -10.6300    171.5871     59.1491   4.3963904808e+01   3.4707245927e+01    0.4499064    0.3814995 -88.53  0.001555901    1.141    0.123
        76  -7.5699    143.9217     59.8323   4.9321194422e+01   4.1088424286e+01    0.1949981    0.1619924  88.92 0.0009639652    1.305    0.234
        77  -7.4543    116.0149     58.0329   5.5341271266e+01   4.7834807441e+01     0.162927    0.1576449   5.16 0.0003125737    1.078    0.073
        78  -9.1656     93.7248    248.7422   1.0232516656e+02   8.7941292854e+00    0.3849045    0.1948175  38.75   0.00188712    1.660    0.398
        79  -8.2685    147.0063     54.4488   4.7145490604e+01   4.1165486945e+01    0.1889714     0.182883  76.14 0.0003342089    1.057    0.054
        80  -8.3073    220.9998     47.0429   3.4608769768e+01   2.5595024875e+01    0.1784544    0.1507601 -73.16            0    1.045    0.043
        81  -8.5459    116.0948     45.9472   5.1397252769e+01   4.9593230741e+01      0.20297    0.1832902  43.94 0.0002869498    1.017    0.017
        82  -7.2270    233.4231     42.5760   3.2491668527e+01   2.3715876040e+01    0.1165334   0.09665901 -68.41 3.603807e-05    1.069    0.065
        83  -7.6293    221.5038     40.0336   3.3105563682e+01   2.6418831855e+01    0.1762043    0.1044008 -44.13  0.001009312    1.530    0.346
        84 -10.7402    192.7556     39.4670   3.6108276310e+01   3.2615168153e+01    0.6131202    0.3683528  54.92  0.001985014    1.757    0.431
        85  -7.2108    111.4448     30.5253   4.7383626662e+01   5.2602761586e+01    0.1355758    0.1159557  45.09 5.314963e-06    1.048    0.046
        86  -8.6639     89.7755    246.5787   1.0297314825e+02   9.7712464249e+00    0.2979755    0.1873642  40.09   0.00103344    1.359    0.264
        87 -14.3439     13.3291    208.9067   1.1703080357e+02   2.7175680133e+01     1.463071    0.4665881  40.20  0.006387576    2.630    0.620
        88 -11.4991    118.1425    188.3843   8.7701822616e+01   1.8435129940e+01    0.8218611     0.468219 -48.93  0.003493431    1.776    0.437
        89  -8.2580    161.8621     16.2460   3.4259245691e+01   4.2325476451e+01    0.1813971    0.1464193 -89.13 0.0004469412    1.100    0.091
