#   1 NUMBER                 Running object number                                     
#   2 MAG_AUTO               Kron-like elliptical aperture magnitude                    [mag]
#   3 X_IMAGE                Object position along x                                    [pixel]
#   4 Y_IMAGE                Object position along y                                    [pixel]
#   5 X_WORLD                Barycenter position along world x axis                     [deg]
#   6 Y_WORLD                Barycenter position along world y axis                     [deg]
#   7 A_WORLD                Profile RMS along major axis (world units)                 [deg]
#   8 B_WORLD                Profile RMS along minor axis (world units)                 [deg]
#   9 THETA_WORLD            Position angle (CCW/world-x)                               [deg]
#  10 FWHM_WORLD             FWHM assuming a gaussian core                              [deg]
#  11 ELONGATION             A_IMAGE/B_IMAGE                                           
#  12 ELLIPTICITY            1 - B_IMAGE/A_IMAGE                                       
         1 -13.1199    178.4504     31.9061   7.1051108886e+01   3.6978494882e+01     1.197144    0.9442192  18.30  0.004628652    1.689    0.408
         2 -11.3572    198.1475      2.5003   6.1043695846e+01   3.5430507891e+01    0.6279942    0.2982895  72.03  0.002810939    1.780    0.438
         3  -8.1538    176.6845    243.3045   1.1966795627e+02  -1.7503556809e+00    0.1243882   0.09361688  65.39 0.0002332693    1.622    0.384
         4 -19.4914     39.0317    142.8988   1.3491619112e+02   4.1870465975e+01     20.10369     2.716742 -65.91   0.04961581    6.855    0.854
         5  -8.5112    176.3263    235.3259   1.1851392103e+02  -4.0100961091e-01    0.1311449   0.09694808  11.02 0.0007049581    1.696    0.410
         6  -9.2729    103.3053    194.6848   1.2743390786e+02   2.0697210043e+01    0.2672129    0.1762972  18.60  0.001170316    2.596    0.615
         7  -8.8022    179.3212    228.3156   1.1680877155e+02   2.3361710750e-01    0.1329458   0.09905297  10.50 0.0007040995    1.659    0.397
         8  -8.6020     98.2646    191.4120   1.2806008954e+02   2.2279276356e+01    0.2020593     0.117396  52.84  0.000951055    1.652    0.395
         9  -8.8227     93.6586    186.3097   1.2832637181e+02   2.4198274875e+01    0.1490247   0.09748793  73.26 0.0004079579    1.693    0.409
        10  -9.4952    207.5985    183.7660   1.0297021371e+02   2.8263801014e+00    0.2774071    0.2488748  -2.27 0.0008259902    1.115    0.104
        11 -10.0570    210.6652    181.6877   1.0194185396e+02   2.6101470953e+00    0.3654873    0.2559066 -23.70  0.001800018    1.583    0.368
        12  -9.7456     99.1788    180.9922   1.2624143813e+02   2.4499704277e+01     0.298998    0.2199417 -46.58  0.001079135    1.558    0.358
        13 -10.8141    171.7239    220.9246   1.1711187065e+02   2.8965909221e+00    0.5110787    0.2368394 -50.71  0.002219842    2.517    0.603
        14  -9.7202    197.8197    175.7650   1.0329061705e+02   6.2841769253e+00    0.3614515    0.2559186 -50.34  0.001180409    1.512    0.339
        15  -9.5635    139.5292    216.8798   1.2305746864e+02   9.5846507932e+00    0.3684856    0.2185842 -84.62   0.00149469    3.004    0.667
        16  -9.7534    126.5149    172.7292   1.1843692914e+02   2.1453118865e+01    0.3251353    0.1657705  53.88  0.001283094    2.113    0.527
        17 -10.6102    104.3380    171.6534   1.2347450548e+02   2.5779213119e+01     0.329377    0.2730013 -62.15  0.001541173    1.187    0.157
        18  -9.7427    135.8281    170.1327   1.1576312016e+02   2.0222387072e+01    0.5135546    0.2131434  56.31  0.001620358    3.361    0.702
        19  -9.7663    204.1599    168.1000   1.0039156219e+02   6.4705310175e+00    0.4317447    0.3631368  54.75  0.002288511    1.268    0.212
        20  -8.0208    121.7220    165.2587   1.1814971276e+02   2.4087470077e+01    0.1455314    0.1111593  77.92 0.0006854438    1.470    0.320
        21 -10.3270     98.0418    162.9904   1.2346009708e+02   2.8904649092e+01     0.274134    0.2456407 -46.09 0.0004267104    1.254    0.203
        22  -8.1834      7.3408    161.2776   1.4454733068e+02   4.0565384994e+01    0.1105726   0.07595737 -51.92 0.0007003854    1.621    0.383
        23 -11.2713    102.5332    155.8569   1.2103200548e+02   2.9819887194e+01    0.6372355     0.409893 -38.52  0.001471112    1.917    0.478
        24  -9.9234    133.9540    144.4603   1.1084246111e+02   2.6475435572e+01    0.6306612    0.2086845 -52.24  0.001942418    3.154    0.683
        25  -8.8336    174.5291    148.5121   1.0228933514e+02   1.6812505978e+01    0.1538503    0.1508152 -88.02  0.000129011    1.013    0.012
        26  -8.8252     89.0428    147.3142   1.2281562594e+02   3.4138992420e+01    0.1923609     0.180578  73.57 0.0002128024    1.089    0.082
        27  -8.2772      6.3407    146.2050   1.4326581294e+02   4.4024979279e+01    0.1019033   0.07741334 -46.82 0.0003256431    1.517    0.341
        28 -10.2836     79.0570    143.6937   1.2471824728e+02   3.6569212140e+01    0.2799942    0.1933515 -55.24  0.000703303    1.341    0.254
        29 -10.5702    111.8714    140.0017   1.1542295814e+02   3.1878270715e+01    0.4707476    0.2989109 -32.24  0.001965787    2.104    0.525
        30 -10.8388    101.0133    140.6435   1.1837618763e+02   3.3704006131e+01      0.28882    0.2748056 -27.86 0.0004880955    1.191    0.161
        31  -9.6913     16.0002    136.3221   1.3980355153e+02   4.5520831818e+01    0.2017905    0.1851474 -54.41 0.0005254002    1.271    0.213
        32 -10.1776    105.8811    128.8460   1.1450704434e+02   3.5608459804e+01    0.6374304    0.2890114 -53.09  0.002336622    2.121    0.529
        33  -9.8420    117.7918    130.6361   1.1177859095e+02   3.2930314401e+01    0.3257746    0.2608877   0.91  0.001003462    1.719    0.418
        34  -9.1271    142.3085    127.4199   1.0479381534e+02   2.8573012029e+01    0.3345169    0.2411855  84.65  0.001018533    1.928    0.481
        35 -10.0366    170.2403    238.4733   1.2018276955e+02   1.5248815348e-01    0.3312599    0.1091138  44.38  0.001293806    2.608    0.617
        36  -9.0012    112.0970    119.4975   1.1062441198e+02   3.6597367417e+01     0.218583    0.1501306  43.71 0.0004547893    1.510    0.338
        37  -9.2696    110.2931    211.4589   1.2836025026e+02   1.5877601325e+01    0.2406143    0.1579106  89.15  0.001190711    1.809    0.447
        38  -9.0397    168.7403    113.6470   9.5119553805e+01   2.5525880468e+01    0.3271047    0.2449277 -71.55 0.0009983815    1.615    0.381
        39  -9.0592    163.8995    111.1123   9.5549864248e+01   2.7188131720e+01    0.2451124    0.2088962 -79.35 0.0005147724    1.296    0.229
        40  -8.6423    205.5177    110.4558   8.6825048644e+01   1.7483821012e+01    0.1521979    0.1440684 -66.32 0.0001845325    1.012    0.012
        41 -10.5926     94.0736    207.4308   1.3121485652e+02   1.9436315526e+01    0.4894995    0.3083383 -63.27  0.001768532    1.597    0.374
        42  -8.2901    134.3428    102.6829   1.0040625256e+02   3.5698508589e+01    0.1596481    0.1229487 -88.11 0.0007048768    1.715    0.417
        43 -12.2892     10.8552    206.2500   1.4752174616e+02   3.0478186554e+01    0.5342241     0.292037  35.96  0.003309844    2.147    0.534
        44 -10.7533    108.7651    205.9709   1.2790582857e+02   1.7301149604e+01    0.3579224    0.2748548  -5.36  0.001755445    2.386    0.581
        45 -11.0012    194.2453    194.1792   1.0771895875e+02   3.5035053552e+00    0.7567526    0.6085612 -74.32  0.003953895    1.670    0.401
        46  -9.3097    113.4178    195.9268   1.2539595787e+02   1.8666772814e+01     0.305932    0.1926605 -21.92  0.001085245    4.129    0.758
        47 -12.0114    165.1293     47.0319   7.7524557585e+01   3.8265511033e+01    0.5298648    0.4910589  -4.91  0.001089867    1.240    0.193
        48  -8.9641      1.8694    248.2159   1.5147948341e+02   2.3133302697e+01    0.1213879   0.09061332  88.67 0.0003118702    1.272    0.214
        49 -11.7167    182.5965     25.5170   6.8729234118e+01   3.6729105849e+01    0.4850592    0.4248445  55.27  0.001158852    1.184    0.155
