#   1 NUMBER                 Running object number                                     
#   2 MAG_AUTO               Kron-like elliptical aperture magnitude                    [mag]
#   3 X_IMAGE                Object position along x                                    [pixel]
#   4 Y_IMAGE                Object position along y                                    [pixel]
#   5 X_WORLD                Barycenter position along world x axis                     [deg]
#   6 Y_WORLD                Barycenter position along world y axis                     [deg]
#   7 A_WORLD                Profile RMS along major axis (world units)                 [deg]
#   8 B_WORLD                Profile RMS along minor axis (world units)                 [deg]
#   9 THETA_WORLD            Position angle (CCW/world-x)                               [deg]
#  10 FWHM_WORLD             FWHM assuming a gaussian core                              [deg]
#  11 ELONGATION             A_IMAGE/B_IMAGE                                           
#  12 ELLIPTICITY            1 - B_IMAGE/A_IMAGE                                       
         1 -14.8521    164.8453     48.2723   7.1877869301e+01   3.7743940311e+01     1.375991      1.07768  -8.16  0.003773515    1.332    0.249
         2 -15.0934    179.7714     18.3674   5.9273924737e+01   3.7422494569e+01     1.691266     1.184018  62.33  0.006760969    1.378    0.274
         3 -13.5030    189.4789     14.7458   5.6733232594e+01   3.5184894271e+01    0.4643082    0.4039893 -89.61  0.001546784    1.227    0.185
         4 -11.2760    163.3230    244.5548   1.1277534746e+02   8.7568075320e+00    0.2147363    0.1319143  34.39  0.001186296    1.408    0.290
         5 -20.1437     72.2723    173.7097   1.2101131149e+02   3.2235273240e+01      12.9648     5.473804 -68.30   0.06827616    2.467    0.595
         6 -11.2541    146.1550    224.2274   1.1327287408e+02   1.3737448697e+01    0.3184595    0.1524192  47.55  0.001884334    1.612    0.380
         7 -12.5742    162.5654    181.1695   1.0454601825e+02   1.6928475119e+01     0.253972    0.2089244 -81.20  0.001604884    1.650    0.394
         8 -13.5534    188.0575    175.6337   9.8949605595e+01   1.3100237088e+01    0.6049587    0.4034815 -51.69  0.001630427    2.079    0.519
         9 -11.9055    186.9839    165.9855   9.7412284236e+01   1.4622588724e+01    0.4069948    0.2763737 -47.60  0.001717594    1.864    0.464
        10 -10.5311    127.3047    222.1001   1.1618441251e+02   1.6843747903e+01    0.1991393   0.09957311 -60.74  0.001183835    2.675    0.626
        11 -12.6744    176.8872    169.2429   9.9872867645e+01   1.6056714870e+01    0.3068423    0.1962986 -51.73  0.001639675    2.057    0.514
        12 -12.1194    194.5151    172.1739   9.7173587439e+01   1.2368092814e+01    0.2871875    0.2477622 -45.59   0.00114056    1.474    0.322
        13 -11.9562     26.1369    172.5446   1.2979061763e+02   3.7542682795e+01    0.2783342    0.1801188  51.85  0.001737018    1.367    0.268
        14 -10.5029    140.1047    241.2868   1.1607859272e+02   1.2528304940e+01    0.1684967    0.1397537 -48.17  0.001402021    1.674    0.403
        15 -10.6137    217.6372    217.8333   1.0073292728e+02   3.1249403018e+00    0.1278317    0.1041643 -33.16 0.0006152199    1.671    0.402
        16 -10.7486     25.1915    165.2003   1.2945248057e+02   3.8969129996e+01    0.1690431     0.140981  21.98 0.0009477062    1.742    0.426
        17 -10.2123     14.4417    162.5100   1.3133784246e+02   4.0415224165e+01    0.1010567    0.0762439  81.27 0.0002200243    1.029    0.028
        18 -12.0241    187.9794    154.6767   9.5073068690e+01   1.6035480071e+01    0.5941582    0.2684385  44.49  0.002655922    1.942    0.485
        19 -12.6031    163.6899    151.9505   9.9226893132e+01   2.1185564595e+01    0.3060094    0.2723403  48.34 0.0009159357    1.080    0.074
        20 -10.8622      7.3368    149.6980   1.3190205762e+02   4.3381164849e+01    0.2048427    0.1218673 -46.00  0.001344959    2.480    0.597
        21 -11.4854    174.4400    148.7188   9.6478974959e+01   1.9593645572e+01    0.2882848    0.2534722  85.21  0.001079294    1.450    0.310
        22 -10.3726     24.0916    216.4443   1.3266869963e+02   3.0384931888e+01    0.1125135   0.07332333  48.84 0.0003663856    1.350    0.259
        23 -13.1824     11.8856    206.0323   1.3411012761e+02   3.3149960388e+01    0.3498417    0.1869492  34.06  0.002590863    2.136    0.532
        24 -11.9041    135.0475    238.5950   1.1661169884e+02   1.3584040611e+01    0.2293357    0.2012713  74.98  0.001271124    1.313    0.239
        25 -12.8690    160.3418    127.5821   9.4890476368e+01   2.5878417718e+01    0.4296599    0.3419964 -69.97   0.00226981    1.641    0.391
        26 -10.1895    116.7291    236.4746   1.1932927066e+02   1.6443025781e+01    0.1168484   0.08915646 -70.10 0.0005215339    1.649    0.394
        27 -11.0177    151.6902    234.6739   1.1353800111e+02   1.1614394711e+01    0.2997077    0.1652366  68.33  0.001571123    3.205    0.688
        28 -11.0848    231.2613    113.7704   7.8384271309e+01   1.2698720772e+01    0.2535689    0.2069237  30.20 0.0007366889    1.130    0.115
        29 -11.1766    168.1833    113.0735   8.9875965305e+01   2.6665876701e+01    0.3550994    0.2562469 -81.56  0.001426393    2.320    0.569
        30 -11.1779     98.0678    250.3146   1.2337313562e+02   1.7149404673e+01    0.1264264   0.09457481  50.24 0.0005582363    1.154    0.133
        31 -10.9828    134.1202    196.9904   1.1205694067e+02   1.9374087904e+01    0.2024711     0.162876 -67.60 0.0006808758    1.496    0.332
        32 -10.9521    205.4440    110.1743   8.1922521585e+01   1.8831886892e+01    0.3230101    0.1896193  41.37 0.0009451335    1.615    0.381
        33 -10.1503    130.9210    231.2002   1.1653222834e+02   1.5111806576e+01    0.1273606     0.102361  38.50 0.0004046477    1.247    0.198
        34 -11.2658     13.3271    100.9189   1.2626956478e+02   5.2687882140e+01    0.3044575    0.1617611  27.12  0.001883886    2.314    0.568
        35 -11.5372    219.4707    195.0416   9.6856636957e+01   5.1712552990e+00    0.1575724     0.113713 -22.57 0.0005712043    1.576    0.366
        36 -11.0519    139.6004    193.5512   1.1060466656e+02   1.9004082962e+01    0.2560915    0.1148436 -57.31  0.001247807    3.033    0.670
        37 -11.2953    141.5697    188.3385   1.0952242606e+02   1.9462374605e+01    0.1892208    0.1186701 -55.99 0.0007311737    1.957    0.489
        38 -10.2721     97.5101     80.5090   9.8472192948e+01   4.6978176089e+01    0.1361115    0.1289218 -46.58 0.0001465371    1.012    0.012
        39 -10.4652    125.5383    232.5139   1.1753768677e+02   1.5717682731e+01    0.1153898   0.09335793  80.65 0.0002263597    1.390    0.281
        40 -11.6605    127.5953    227.9760   1.1674740153e+02   1.6015195697e+01    0.3133854    0.1920722  34.45  0.002083273    1.644    0.392
        41 -14.3066    153.0093     62.3781   7.8938875253e+01   3.8583105598e+01      1.19186    0.8599052  26.73 0.0009182071    1.525    0.344
        42 -11.0508    127.8635    246.6533   1.1850690871e+02   1.3618827840e+01    0.1267177    0.1122527  52.81  0.001119339    1.259    0.206
        43 -13.2903    169.5907     39.8667   6.8180163118e+01   3.7646799594e+01    0.4776547    0.4507433  -1.87 0.0008930969    1.045    0.043
        44 -10.9532     13.5217     59.9769   1.2009421842e+02   6.1298008438e+01    0.1750028    0.1462548  70.23 0.0004529362    1.394    0.283
        45 -12.8680    207.7010    226.0674   1.0348657771e+02   3.8861852658e+00    0.2575028    0.1508793 -23.92  0.001507993    2.189    0.543
        46 -10.1934     29.9503    246.0024   1.3313141220e+02   2.5489365176e+01    0.1241247    0.0867695  74.48 0.0009921195    1.172    0.147
