#   1 NUMBER                 Running object number                                     
#   2 MAG_AUTO               Kron-like elliptical aperture magnitude                    [mag]
#   3 X_IMAGE                Object position along x                                    [pixel]
#   4 Y_IMAGE                Object position along y                                    [pixel]
#   5 X_WORLD                Barycenter position along world x axis                     [deg]
#   6 Y_WORLD                Barycenter position along world y axis                     [deg]
#   7 A_WORLD                Profile RMS along major axis (world units)                 [deg]
#   8 B_WORLD                Profile RMS along minor axis (world units)                 [deg]
#   9 THETA_WORLD            Position angle (CCW/world-x)                               [deg]
#  10 FWHM_WORLD             FWHM assuming a gaussian core                              [deg]
#  11 ELONGATION             A_IMAGE/B_IMAGE                                           
#  12 ELLIPTICITY            1 - B_IMAGE/A_IMAGE                                       
         1 -14.9069    163.3839     49.5611   7.3405348356e+01   3.8034985610e+01     1.210142        1.077  -8.55  0.003707724    1.206    0.171
         2 -15.1112    177.7002     19.8823   6.1919983950e+01   3.8260563313e+01     1.383432     1.098048 -33.25  0.005804037    1.369    0.270
         3 -14.8397    193.2610     17.7110   5.8994356540e+01   3.4547067178e+01     1.875365    0.9435493 -78.50  0.006666983    3.453    0.710
         4 -13.5774    191.2018      3.0955   5.5277365678e+01   3.6575408047e+01     0.667695    0.2817026  78.96  0.002598207    2.653    0.623
         5 -11.1721    133.9349    196.1540   1.1452554896e+02   1.6168287164e+01     0.201377    0.1777074  88.23 0.0003592141    1.139    0.122
         6 -20.2047     74.3654    171.5835   1.2322651512e+02   3.0807630095e+01     15.20976     6.626199 -66.08   0.07150989    2.188    0.543
         7 -11.0137     20.7161    195.5439   1.3589611564e+02   3.2273839459e+01    0.1552469    0.1088928 -84.52  0.001157423    1.154    0.133
         8  -9.7882      4.5051    157.4345   1.3586843460e+02   4.1260431252e+01    0.1064431   0.07947037 -80.15 0.0001368943    1.101    0.092
         9 -11.0795     23.0530    156.1053   1.3206046761e+02   3.9971902323e+01    0.1714841    0.1456662  80.06  0.000557253    1.171    0.146
        10 -11.6186    187.3552    154.4600   9.5778605087e+01   1.3351625935e+01    0.6307967    0.2979124  40.64  0.002465061    2.124    0.529
        11 -10.7637    191.5305    151.5518   9.4292389024e+01   1.2981678501e+01    0.3210113    0.1749817 -52.14   0.00111539    2.217    0.549
        12 -11.1618     17.4540    153.8444   1.3297686866e+02   4.0937937481e+01    0.2570494    0.1356323 -69.83 0.0008183644    1.492    0.330
        13 -12.4714    163.4884    151.8899   1.0027373192e+02   1.8989809548e+01    0.3094635    0.2906536 -16.03 0.0009062967    1.176    0.150
        14 -11.3994    174.6835    149.0300   9.7253747365e+01   1.7140165348e+01    0.2796271    0.2417598  50.02 0.0006146861    1.108    0.097
        15 -11.4757    152.2550    218.8938   1.1433756050e+02   8.8281733201e+00    0.2380079    0.1985855  64.39 0.0008797034    1.136    0.120
        16 -10.7731    126.8038    218.9451   1.1908832624e+02   1.3282131064e+01    0.2005976    0.1304494 -59.55 0.0005777308    1.742    0.426
        17 -12.0950    117.1832    233.3447   1.2256138941e+02   1.2417635234e+01    0.2022867    0.1569811 -68.96 0.0008595764    1.455    0.313
        18 -12.9392    162.6818    181.5496   1.0625900358e+02   1.3436109568e+01    0.3935225    0.2459019 -64.44   0.00180911    2.126    0.530
        19 -11.5142     24.4475    215.2741   1.3665980650e+02   2.8188861981e+01    0.1485352    0.1078072  65.36 0.0005273952    1.190    0.160
        20 -11.2076    150.8164    229.9586   1.1613166462e+02   7.2920860788e+00    0.3001127    0.2456568 -55.36  0.001985045    1.480    0.324
        21 -13.5370     11.8317    205.7671   1.3807158981e+02   3.1206458347e+01    0.3733865     0.296642  29.85  0.002748607    1.965    0.491
        22 -10.6837    135.8494    237.3814   1.1974873776e+02   8.6835001542e+00    0.2671273    0.2442149  84.36   0.00115263    1.227    0.185
        23 -12.8635    160.5075    127.8892   9.5559564699e+01   2.4463262787e+01    0.4922843    0.3597091 -58.26  0.001525198    1.519    0.342
        24 -10.9614     23.9884    123.6349   1.2810042852e+02   4.6753091731e+01    0.2058844    0.1430276  14.11  0.001333044    2.079    0.519
        25 -11.1029    231.2621    113.7274   7.7927390879e+01   1.0784701640e+01    0.2653028    0.2436303  15.37 0.0007498186    1.125    0.111
        26 -10.9166    167.9947    113.0110   9.0237164604e+01   2.5734891951e+01    0.3691383    0.2533323 -83.44  0.001315587    2.378    0.579
        27 -13.7220    187.2535    175.1680   1.0006079165e+02   9.6057485460e+00    0.7823642    0.4488705 -50.31   0.00232266    2.033    0.508
        28 -10.9251    205.3496    110.2518   8.1802028616e+01   1.7416337249e+01    0.3238801    0.2087864  46.88 0.0009598922    1.540    0.351
        29 -11.6399    186.9120    165.3988   9.8168751007e+01   1.1432420698e+01    0.3868249    0.3026459 -57.29  0.001067348    1.485    0.327
        30 -11.5877    166.9462    176.1879   1.0439228923e+02   1.3578939244e+01    0.2127956    0.1800438  67.56 0.0003152859    1.232    0.188
        31 -10.4546    145.6591    223.2985   1.1617665714e+02   9.2737890526e+00    0.3438777    0.1245933  46.68  0.001480396    2.285    0.562
        32 -12.5893    140.0307    219.0650   1.1664445434e+02   1.0973404943e+01    0.4053683    0.2042147 -62.52  0.001196627    2.560    0.609
        33 -12.3823    194.0303    171.4820   9.7972789890e+01   8.8529576258e+00    0.3697589    0.3199671 -81.18  0.001192525    1.451    0.311
        34 -11.7881    239.8409    169.3851   8.8878563112e+01  -8.4677848479e-02    0.2001898    0.1154835  34.60 0.0006896388    1.718    0.418
        35 -14.4722    151.9352     64.0663   8.0273172360e+01   3.8546474115e+01     1.301216     1.018072  22.78  0.001204088    1.435    0.303
        36 -11.2923    115.2995    249.4378   1.2460686535e+02   1.0121376301e+01    0.1054645   0.08858369  63.28 0.0002669109    1.150    0.130
        37 -13.5059    168.1265     41.0259   6.9886427574e+01   3.8062150655e+01    0.4890086    0.4613688  52.87 0.0008824232    1.006    0.006
        38 -11.3196     13.6087     59.9387   1.2002981939e+02   6.0614532771e+01    0.1634295    0.1583049 -31.21 0.0004182974    1.284    0.221
        39  99.0000     29.4908    245.1048   1.3774154881e+02   2.2425444696e+01    0.2164178   0.08888295 -87.05  0.001294205    2.304    0.566
        40 -12.8531    176.8302    169.4001   1.0104109449e+02   1.2811814340e+01    0.4211321    0.2231864 -55.55  0.001723394    2.419    0.587
