#   1 NUMBER                 Running object number                                     
#   2 MAG_AUTO               Kron-like elliptical aperture magnitude                    [mag]
#   3 X_IMAGE                Object position along x                                    [pixel]
#   4 Y_IMAGE                Object position along y                                    [pixel]
#   5 X_WORLD                Barycenter position along world x axis                     [deg]
#   6 Y_WORLD                Barycenter position along world y axis                     [deg]
#   7 A_WORLD                Profile RMS along major axis (world units)                 [deg]
#   8 B_WORLD                Profile RMS along minor axis (world units)                 [deg]
#   9 THETA_WORLD            Position angle (CCW/world-x)                               [deg]
#  10 FWHM_WORLD             FWHM assuming a gaussian core                              [deg]
#  11 ELONGATION             A_IMAGE/B_IMAGE                                           
#  12 ELLIPTICITY            1 - B_IMAGE/A_IMAGE                                       
         1 -13.1058    248.5174    132.9964   7.5909397287e+01   5.1063732023e+00     1.454186    0.6953394 -41.42   0.00667657    1.796    0.443
         2 -13.0508    202.3910     33.2657   6.0970711763e+01   3.1029535295e+01    0.9928416    0.8258276  88.34  0.006209343    1.047    0.045
         3 -12.7052     14.9642      4.5402   9.7383101124e+01   7.0544116068e+01    0.9932472    0.4508255  23.37  0.006006237    2.021    0.505
         4 -12.9464      2.3120     16.2944   1.0840257792e+02   7.0271312599e+01    0.9572163    0.2891122 -44.39  0.004793371    3.050    0.672
         5 -13.5804    219.4422     15.5237   5.5525264521e+01   2.9449905114e+01     0.878664    0.7607023  64.15  0.005035793    1.427    0.299
         6 -11.9491    177.7118    243.4218   1.1052490165e+02  -3.3887155156e+00    0.5205624    0.3065563  53.34   0.00249134    2.149    0.535
         7 -11.3583    184.4677    249.7348   1.1017212742e+02  -5.5361225359e+00    0.4512281    0.1842849  38.49  0.001995769    2.204    0.546
         8 -10.6826    168.9983    249.1913   1.1321385106e+02  -2.9868148107e+00    0.2973489    0.2401484 -50.38 0.0003961945    1.432    0.301
         9 -11.6812    170.8672    244.0905   1.1203287863e+02  -2.3957293146e+00    0.3454205     0.320381  41.53   0.00108424    1.137    0.120
        10 -10.4814    162.7737    250.3203   1.1465765779e+02  -2.1784825332e+00    0.3481615    0.1515466  40.30  0.000654432    2.033    0.508
        11 -11.1252    142.7949    248.9661   1.1857382244e+02   1.3307150502e+00    0.4769058     0.227894  55.05  0.001962852    2.694    0.629
        12 -13.3055    125.4022    245.6817   1.2173639334e+02   4.8172575737e+00     1.388587    0.7773215  45.76  0.004513131    1.591    0.371
        13 -10.3355    115.2084    250.2669   1.2445762444e+02   5.5807115487e+00    0.5528517     0.170627  39.95  0.001940198    2.783    0.641
        14 -10.8742    109.8454    247.7678   1.2524725034e+02   6.9309890348e+00    0.3478412    0.2866271  58.49  0.001610873    1.077    0.072
        15 -11.0509    135.8263    240.9211   1.1887116630e+02   4.0168841992e+00    0.2983836    0.2162641 -38.59  0.001014935    1.641    0.391
        16 -12.3317    135.0559    235.1989   1.1819152849e+02   5.2778269384e+00    0.6227717    0.4460683 -64.14  0.003299182    1.593    0.372
        17 -11.5067     87.4746    248.6038   1.2992620653e+02   1.0252412767e+01    0.5706246    0.4049373  53.29  0.001846715    1.211    0.174
        18  -9.6798     81.5794    248.1536   1.3106569700e+02   1.1229145074e+01    0.3030038    0.1230346 -67.60  0.001317696    2.713    0.631
        19 -12.1985    102.2728    239.1268   1.2573418154e+02   9.8970893656e+00     0.588964    0.4971542  82.30 0.0007582676    1.163    0.140
        20 -10.8004     96.9760    239.2079   1.2686033215e+02   1.0720762551e+01    0.4073512     0.233189  69.69  0.001636258    2.201    0.546
        21 -11.9467     87.6051    236.9440   1.2855385492e+02   1.2657303423e+01     0.732509    0.3688251  49.82  0.003485878    1.802    0.445
        22 -10.4814     84.3372    230.0131   1.2840987342e+02   1.4655393281e+01    0.3320039    0.2221444 -54.06  0.001771274    1.659    0.397
        23 -10.4860     91.6019    241.5065   1.2826268447e+02   1.1080221664e+01    0.4390122    0.2679378  27.50  0.002167293    2.036    0.509
        24 -10.7493     84.1469    241.4023   1.2979361172e+02   1.2242173233e+01    0.4679005    0.2423172  46.44  0.001838557    1.694    0.410
        25 -10.6462     50.9020    249.2153   1.3718499763e+02   1.5326357848e+01    0.2950206    0.2849126  -9.68  0.002091951    1.575    0.365
        26 -11.9963     29.7185    233.5924   1.3992723844e+02   2.1280624553e+01      1.04132    0.6730176  23.06  0.005619677    2.299    0.565
        27 -12.2399     11.4211    206.1741   1.4131815981e+02   2.9374224997e+01      1.14194    0.6420578  11.33  0.005545342    3.461    0.711
        28 -12.6983     11.1614    215.6559   1.4212015124e+02   2.7258326273e+01     1.280039    0.6055044  36.61  0.005158244    2.221    0.550
        29 -12.2642      4.1349    226.5956   1.4423873477e+02   2.5557147471e+01    0.8295053    0.5809764  69.30  0.004132915    1.162    0.140
        30 -13.2113     26.5023    247.3503   1.4158056213e+02   1.8752061052e+01      1.40617    0.8111814  31.55  0.008112301    2.153    0.535
        31 -13.7888      7.0618    244.1047   1.4483020894e+02   2.1573561144e+01      1.24793      1.00954  69.31  0.009373948    1.197    0.165
        32 -12.4968     41.5228    207.0882   1.3505025481e+02   2.5847637802e+01     1.773872    0.7926645  75.01  0.006732817    3.327    0.699
        33 -12.0613     45.1987    243.8220   1.3780780049e+02   1.7192018619e+01    0.5443992    0.3306359 -77.98  0.001302999    1.531    0.347
        34 -12.2567     38.6385    238.7155   1.3863347103e+02   1.9102425575e+01    0.9392596    0.3185873 -67.09  0.001765355    2.679    0.627
        35 -12.7918     25.0869    225.6099   1.4017726396e+02   2.3558462975e+01    0.3888368    0.3677911 -65.45 0.0007590775    1.442    0.306
        36 -13.9232     31.5567    218.8381   1.3830183952e+02   2.4329645386e+01      1.00957    0.8463679  49.25  0.006737594    1.316    0.240
        37 -10.2396    164.3077    241.8890   1.1303899768e+02  -9.2352586034e-01    0.1975634     0.172229 -82.82  0.001108119    1.464    0.317
        38  -9.9399     67.2082    243.8641   1.3349840035e+02   1.4207255621e+01    0.2877114    0.1893474  30.29  0.001581006    1.830    0.453
        39  -9.9493    143.4741    240.3377   1.1716752525e+02   2.8472528967e+00    0.2440366    0.1152271  38.41 0.0008891646    1.914    0.478
        40 -11.5654    116.8307    238.3456   1.2254239148e+02   7.6929573991e+00    0.4555689    0.3062462 -27.38  0.002172394    2.380    0.580
        41  -9.0799     66.7464    239.5135   1.3314647063e+02   1.5192849349e+01    0.2535004    0.1464862  61.71  0.001160522    1.640    0.390
        42  -8.6475     48.2861    237.2365   1.3662011598e+02   1.8193529607e+01    0.2651232    0.1347795  49.08  0.001386987    1.726    0.421
        43 -11.2289    129.5224    235.3313   1.1939925784e+02   6.1874252263e+00    0.3306879    0.2447995  83.91  0.001732037    1.704    0.413
        44  -9.3292     54.8107    235.2833   1.3513296311e+02   1.7752309178e+01    0.2184015    0.1313899  60.94  0.001190147    1.503    0.335
        45 -11.0279     98.6773    230.6729   1.2540863922e+02   1.2263650910e+01    0.3482958    0.2471011  21.59  0.001780489    1.851    0.460
        46 -11.2281    109.4892    232.0798   1.2325952704e+02   1.0206158388e+01    0.4544613    0.2749201  81.24  0.001986681    2.455    0.593
        47 -11.0260    113.2371    231.1658   1.2232054340e+02   9.7802295249e+00    0.3393658    0.2799854 -67.58  0.001139901    1.279    0.218
        48  -9.4357    156.5830    232.7510   1.1320517042e+02   2.0878576957e+00    0.1813403     0.133867 -63.96 0.0009522557    1.646    0.392
        49 -11.2402    105.2106    228.6118   1.2371339495e+02   1.1649985898e+01    0.3715282    0.2721771  17.29  0.001893741    1.858    0.462
        50 -10.0025    250.2402    230.9920   9.4492250261e+01  -1.2097406445e+01    0.1613743    0.0889843 -35.73  0.000889616    1.634    0.388
        51  -9.8007    158.9897    244.2358   1.1450878841e+02  -4.7141173673e-01    0.1785651    0.1009177  37.94 0.0003162903    1.586    0.369
        52 -10.3165     56.9183    228.4632   1.3401685698e+02   1.8964447797e+01    0.2655485    0.1865779 -77.47 -2.646749e-05    1.323    0.244
        53 -10.8307     79.3438    225.5338   1.2893727097e+02   1.6404163920e+01    0.4496951     0.273406 -73.85  0.002164327    1.680    0.405
        54 -10.2020    135.7908    225.0992   1.1648208167e+02   7.2152369414e+00     0.424307    0.2212983 -53.37  0.001324882    2.051    0.512
        55  -9.6763    132.4594    224.4867   1.1711904916e+02   7.9218352659e+00    0.2563494    0.2182346  36.07 0.0008104706    1.143    0.125
        56  -9.9903    117.2955    224.7656   1.2051048201e+02   1.0465527276e+01    0.2784862    0.2286053 -60.09  0.001040392    1.287    0.223
        57  -9.2039     92.1271    226.1013   1.2623275293e+02   1.4304586646e+01    0.2262942    0.1455468  69.45 0.0008348273    1.711    0.416
        58  -9.2074     51.3615    225.5931   1.3487459071e+02   2.0347762761e+01    0.1846132    0.1333815 -57.03 0.0005575647    1.565    0.361
        59  -9.2624     64.9492    224.2581   1.3187659594e+02   1.8792334196e+01    0.3692506    0.1792762 -49.66  0.001637937    2.566    0.610
        60 -11.4678    100.3903    248.0253   1.2722694775e+02   8.3775939392e+00    0.8228425    0.3666464  48.66  0.003738108    2.014    0.503
        61  -8.9479    164.4810    224.0060   1.1006732936e+02   2.4281115509e+00    0.1925151    0.1377768 -48.19 0.0003710628    1.488    0.328
        62 -10.9921     98.7334    222.8103   1.2434032382e+02   1.3976125745e+01    0.3883131    0.2872544  59.93  0.001393498    1.285    0.222
        63  -9.3370     87.2538    223.4915   1.2695995557e+02   1.5649049024e+01    0.2541631    0.1694174  60.25 0.0008346101    1.453    0.312
        64 -10.4246     70.9579    219.8295   1.3006799938e+02   1.8934074041e+01    0.5021673    0.3192041  88.70   0.00254853    1.678    0.404
        65 -10.4593    141.9321    219.4804   1.1422068148e+02   7.3140219230e+00    0.3675332    0.2472941 -53.45  0.001340428    1.579    0.367
        66  -9.6984    246.2441    219.7398   9.3175295869e+01  -9.8215707297e+00    0.2062367   0.08571702 -31.17 0.0009015477    2.427    0.588
        67  -9.1661     89.4184    219.0562   1.2589889653e+02   1.6308711213e+01    0.3131065    0.1404212  58.52  0.001174759    2.827    0.646
        68  -8.7271     99.3028    218.2889   1.2358323038e+02   1.4894895381e+01    0.1290738    0.1118199 -16.31 0.0003133435    1.565    0.361
        69  -9.9118    111.4150    215.4233   1.2042931164e+02   1.3518975441e+01    0.3228666    0.2578419  -7.76  0.001341369    1.814    0.449
        70  -9.4530     77.1720    220.8075   1.2882936968e+02   1.7794026878e+01    0.2199334    0.1667776  88.77 0.0004199477    1.267    0.211
        71  -9.9030    118.0316    215.0144   1.1886545958e+02   1.2475515324e+01    0.2671441    0.2004788 -67.75 0.0005973444    1.408    0.290
        72  -9.6500     87.9058    212.5951   1.2536026732e+02   1.8027504371e+01    0.3188059    0.2011933  86.37  0.001022869    1.931    0.482
        73 -10.2947     62.6966    208.9131   1.3057549111e+02   2.2643929446e+01    0.4618218    0.2575104 -63.45  0.002270045    1.691    0.409
        74 -10.4150     64.0172    205.1846   1.2981595740e+02   2.3340737770e+01    0.4187176    0.2184079 -73.50 0.0002320989    1.908    0.476
        75 -10.6420     56.1062    208.9673   1.3205169965e+02   2.3533955726e+01    0.6059529    0.3123675 -83.87   0.00238975    2.156    0.536
        76  -8.8765    134.3935    207.7117   1.1393916032e+02   1.1204272688e+01    0.1929279    0.1362369 -43.98 0.0008781597    1.526    0.345
        77  -9.4009    111.9405    207.7267   1.1911500908e+02   1.5176003763e+01    0.3175958    0.2084744  79.12  0.000848126    2.046    0.511
        78  -8.5875     74.4302    208.4468   1.2786547715e+02   2.1062484529e+01    0.1386481    0.1210612  81.51 0.0001828274    1.004    0.004
        79  -8.7404    119.6395    207.3128   1.1726641629e+02   1.3928270931e+01    0.1555055    0.1075685  70.40  0.000704212    1.749    0.428
        80 -10.7254    106.9408    203.5625   1.1961846987e+02   1.6999503658e+01    0.2955633    0.2208037 -63.60 0.0001752781    1.344    0.256
        81  -9.3046     90.7281    205.0858   1.2364271860e+02   1.9333567332e+01    0.3670082    0.1725267  27.42  0.001367008    2.958    0.662
        82  -9.7756    244.3363    243.3241   9.7689927982e+01  -1.3153432260e+01    0.1267414   0.07866139  -4.07 0.0007051085    1.716    0.417
        83 -10.2742      3.9727    179.0662   1.4055717391e+02   3.6353630318e+01    0.3113344     0.193299  44.83  0.001213994    1.725    0.420
        84 -11.0329      3.6162    186.1283   1.4126649206e+02   3.4727259738e+01    0.5113674    0.3027309  86.02  0.001950363    1.478    0.323
        85 -10.6826      2.6111    192.9896   1.4205953034e+02   3.3220515266e+01     0.496247    0.2611422  72.43  0.002668879    1.854    0.461
        86  -9.3931      2.4363    201.7740   1.4279287049e+02   3.1222334813e+01    0.2905231    0.0909754 -72.72  0.001282192    2.495    0.599
        87  -9.8288      3.3502    197.8822   1.4230151460e+02   3.2029267610e+01    0.2522021     0.168472  38.90 0.0007236738    1.685    0.406
        88  -9.6594     75.0724    200.1136   1.2659110718e+02   2.2949872040e+01    0.2274968    0.1848664 -71.20            0    1.165    0.142
        89  -9.9849     43.6928    200.3467   1.3383473610e+02   2.7175706731e+01    0.3426172     0.311729 -12.04   0.00193261    1.553    0.356
        90  -9.0178    250.3342    200.3353   8.8868234255e+01  -7.2225644258e+00    0.1342042   0.08848147 -10.03 0.0005499845    1.739    0.425
        91 -11.7723     54.7257    193.8230   1.3052244595e+02   2.7339537556e+01    0.5032443    0.3238326 -50.27  0.001013749    1.706    0.414
        92 -10.0467     83.8231    201.5487   1.2474215262e+02   2.1267910967e+01    0.2534593    0.2064745 -79.31 0.0002869639    1.164    0.141
        93  -8.4688     97.9796    196.0299   1.2054099230e+02   2.0300132427e+01    0.1732098    0.1591503  84.47 0.0003538168    1.008    0.008
        94  -9.9444    249.6936    194.0642   8.7789615675e+01  -6.0668773226e+00    0.2434509     0.187622  17.37   0.00147546    1.403    0.287
        95  -9.7576     26.2750    192.4680   1.3688513965e+02   3.1056273266e+01    0.3429546    0.2657692 -26.75  0.002014451    1.934    0.483
        96  -9.3982     21.5893    192.7708   1.3795561064e+02   3.1473967153e+01    0.3161335    0.1803405  67.86  0.001096367    1.772    0.436
        97  -9.9616     30.7555    193.2032   1.3595827641e+02   3.0394639826e+01    0.2393948    0.1780279 -72.81 0.0007512853    1.177    0.150
        98  -9.9636     34.0411    192.3600   1.3512435577e+02   3.0229058938e+01    0.4163867    0.2031858  71.61  0.001027997    2.575    0.612
        99  -8.3705     72.3442    193.2276   1.2626685726e+02   2.5022482725e+01     0.126506    0.1108898 -15.09 0.0003015843    1.545    0.353
       100  -9.3821    191.5161    191.5720   9.8303270714e+01   4.0867002787e+00    0.2481777    0.1955973 -40.21 0.0006753908    1.231    0.188
       101  -8.9099     40.5680    188.9506   1.3323188301e+02   3.0296642575e+01    0.2022398     0.156658  76.58  0.001181526    1.192    0.161
       102  -9.0961     76.8339    188.0070   1.2441221215e+02   2.5630341366e+01    0.2833923    0.1854034 -84.50  0.001328965    1.678    0.404
       103 -10.1552      9.6899    186.7796   1.4000198599e+02   3.4039340406e+01    0.3649088     0.180522  78.10  0.001765639    2.163    0.538
       104  -9.2340     83.4073    186.8799   1.2262555461e+02   2.4892917521e+01    0.2042086    0.1653987 -70.38 0.0005999194    1.163    0.140
       105  -9.8969     71.1163    187.0870   1.2567183379e+02   2.6708558727e+01    0.2962018    0.1851262  42.19 0.0004379413    1.621    0.383
       106 -11.5582     61.2814    185.8990   1.2789812246e+02   2.8396922135e+01    0.2917649    0.2433606 -49.22 0.0004583065    1.336    0.251
       107  -9.6157    106.9015    185.6536   1.1662945586e+02   2.1276127425e+01    0.2247834     0.200714 -51.30 0.0004072725    1.168    0.144
       108  -9.1470     24.6343    184.0800   1.3637279289e+02   3.3237718948e+01    0.2125772    0.1616352  60.67 0.0008675356    1.304    0.233
       109  -8.9622     30.0438    183.5408   1.3505928183e+02   3.2798977634e+01    0.1760679    0.1248414  40.21 0.0005304727    1.547    0.353
       110  -8.6689     36.2872    182.3780   1.3345354819e+02   3.2392961041e+01    0.1358749   0.08956656 -47.12 0.0007016617    1.728    0.421
       111  -9.3575     27.1751    179.7467   1.3530124080e+02   3.4022573644e+01      0.21784    0.1552606 -73.98 0.0002074911    1.172    0.147
       112  -8.9163     47.2449    179.6710   1.3046950011e+02   3.1763822641e+01    0.1719666    0.1312085  20.63 0.0007036498    1.692    0.409
       113  -8.5632    103.0189    176.0342   1.1587020256e+02   2.4309917899e+01    0.1807613     0.164914 -72.71 -0.003769674    1.048    0.046
       114 -10.7694     72.7061    173.8429   1.2322293103e+02   2.9766441744e+01    0.2718441    0.2455611 -64.83 0.0004360346    1.097    0.088
       115 -10.0118     19.1485    173.6967   1.3652041499e+02   3.6286031954e+01    0.4299593    0.2142977  77.90  0.001257693    2.462    0.594
       116 -11.6926    248.3474    172.3979   8.3818200684e+01  -2.0549567284e+00    0.4745408    0.3485871 -29.44   0.00272975    1.237    0.192
       117 -12.0394    247.2418    158.1157   8.1164589190e+01   7.1815614698e-01    0.9410439    0.6444472  85.64  0.004369365    2.778    0.640
       118 -10.5765     58.0918    173.3665   1.2687526655e+02   3.1940550464e+01    0.2990796    0.2478734  48.83  0.000582832    1.270    0.213
       119  -9.9078     12.5940    172.8348   1.3797359097e+02   3.7094463733e+01    0.3007981    0.1255637 -70.59  0.001295813    1.912    0.477
       120 -10.7737      2.9532    172.7806   1.4019949233e+02   3.7920431951e+01    0.3035007    0.1989202  75.47  0.001015057    1.452    0.311
       121 -11.5634     10.4494    157.6948   1.3682832853e+02   4.0915700294e+01    0.4587209    0.2449613  87.74  0.001586267    1.988    0.497
       122 -10.3356     12.4781    153.9969   1.3588097844e+02   4.1639917889e+01    0.3073872    0.1346867 -72.67  0.001073793    1.903    0.474
       123 -10.9997     12.9976    167.3768   1.3729283729e+02   3.8370435102e+01    0.3579994    0.2710333  -0.87  0.002073026    1.928    0.481
       124 -11.4343      6.2169    166.4832   1.3881563697e+02   3.9153568985e+01    0.5555432    0.3488723 -15.72  0.000887608    2.676    0.626
       125 -10.0306     27.4022    171.4938   1.3427888966e+02   3.6009740756e+01    0.3401669    0.1798129 -50.73 0.0005411695    1.925    0.481
       126  -9.0512     51.7136    171.0657   1.2815560445e+02   3.3342721415e+01    0.1913634    0.1621729 -75.73 0.0005181781    1.032    0.031
       127  -8.9915    166.9169    170.5154   9.9308051406e+01   1.3320908916e+01    0.2087278    0.1515383  41.59 0.0002893013    1.409    0.290
       128  -8.4101     95.7080    169.2445   1.1648831050e+02   2.7254305483e+01    0.1460971    0.1112702  72.02            0    1.473    0.321
       129 -11.5770     80.4741    165.9198   1.1986005953e+02   3.0572685572e+01    0.6299168    0.4524339  29.06  0.003003015    1.600    0.375
       130 -10.4928     81.9783    158.3250   1.1807288796e+02   3.2242337849e+01     0.463354    0.2826597 -65.43 0.0007053435    1.619    0.382
       131 -10.2849     66.9706    161.5909   1.2268017271e+02   3.3672866778e+01    0.2757397     0.189739 -62.47 0.0004029278    1.318    0.241
       132 -10.0697     68.2354    166.2729   1.2313574701e+02   3.2316158690e+01    0.2514338    0.2275856 -82.24 0.0003682497    1.018    0.018
       133  -8.5162     64.7207    167.2923   1.2422243741e+02   3.2557495811e+01    0.1820476    0.1668382 -53.38 0.0004886326    1.160    0.138
       134 -10.4051     44.3913    165.2313   1.2918291914e+02   3.5691190790e+01    0.3703112    0.2241898 -34.18  0.001704185    2.306    0.566
       135 -10.2888     29.0394    161.1415   1.3255929627e+02   3.8382702096e+01    0.2383971    0.1780497  78.96  0.001085327    1.346    0.257
       136  -9.6970     24.0396    162.0209   1.3394272091e+02   3.8659630800e+01    0.1936548    0.1615795 -75.41 0.0003309347    1.028    0.028
       137  -9.0128     43.2375    161.0135   1.2886614547e+02   3.6875908789e+01    0.1922303     0.156159 -74.30 0.0001931974    1.064    0.061
       138  -9.7758     46.4421    156.2643   1.2729548055e+02   3.7683201835e+01    0.2221659    0.2009165  83.77 0.0002142437    1.108    0.098
       139 -11.2408     25.2569    155.3134   1.3275813109e+02   4.0184479986e+01    0.5490265    0.2092599  30.28   0.00238427    2.921    0.658
       140  -8.4981    228.4265    155.4963   8.3780001706e+01   4.4882666455e+00    0.1414929    0.1238723 -45.75 0.0001515361    1.051    0.048
       141  -9.9564     32.3290    153.4187   1.3063423765e+02   3.9949595554e+01    0.3126582    0.1480902 -80.49  0.001087792    2.409    0.585
       142 -12.8367    248.1027    101.2054   6.9542040837e+01   1.0872759950e+01    0.9564695    0.6481851 -37.68   0.00526558    1.471    0.320
       143 -11.8258    247.8889    142.4488   7.7913818285e+01   3.4847355620e+00     0.544731    0.5002155 -24.84  0.003452541    1.168    0.144
       144 -11.4431    150.1600    246.6286   1.1670463954e+02   5.4897307236e-01     0.358974    0.2921155  -2.33  0.002088534    1.484    0.326
       145  -9.9549     87.0156    151.0201   1.1528768829e+02   3.3257739647e+01    0.2201542    0.2033742 -72.35            0    1.022    0.021
       146 -10.6399      5.0397    150.8474   1.3739845176e+02   4.2976968160e+01     0.187456    0.1771886 -17.09 0.0008107866    1.359    0.264
       147 -10.2912     82.6712    149.2477   1.1612817711e+02   3.4402627857e+01    0.2567051    0.2366669 -56.40 0.0002920953    1.054    0.051
       148 -10.3926     53.8186    146.4956   1.2365255214e+02   3.9215308216e+01    0.3647221    0.1195879  36.54  0.001334211    3.137    0.681
       149 -10.9302     21.9220    149.0931   1.3279226265e+02   4.2013513043e+01     0.445158    0.1558128  39.00  0.001874498    3.060    0.673
       150 -11.9325     68.1684    144.1991   1.1918974728e+02   3.7856300308e+01    0.7229068    0.5062644  89.97  0.002429247    1.766    0.434
       151 -11.4278      2.1887    143.5637   1.3727836737e+02   4.4912085361e+01    0.6320463    0.1380559 -67.64  0.002337336    3.171    0.685
       152 -12.1406      9.2992    142.9386   1.3533151106e+02   4.4546529251e+01    0.5268244    0.2524264 -56.41  0.002347944    1.703    0.413
       153 -11.7128      5.7945    141.8979   1.3612934304e+02   4.5053233100e+01    0.4311363    0.2163461 -63.81  0.001119172    1.537    0.349
       154  -9.6883    235.9048    145.8746   8.0518518203e+01   4.9709868470e+00    0.2055835    0.1772841 -20.21 0.0005229551    1.254    0.203
       155  -8.4857     97.5572    146.4557   1.1145672510e+02   3.2597127977e+01     0.152159    0.1434948 -53.65 1.782467e-05    1.047    0.045
       156 -10.1206    133.2558    141.2985   1.0085790216e+02   2.6980877833e+01    0.4100018    0.2574584 -59.50  0.001198722    1.722    0.419
       157 -11.0436     16.7581    140.0656   1.3293318333e+02   4.4645604567e+01    0.2905814    0.2457175  87.05  0.000537393    1.191    0.160
       158  -9.5761    107.6660    135.7408   1.0630611030e+02   3.3364479838e+01    0.3976287    0.2546347 -21.10  0.001516913    2.515    0.602
       159  -9.2838     40.5559    147.5138   1.2750865420e+02   4.0531285286e+01    0.1378218    0.1177664 -71.82 0.0001391572    1.025    0.024
       160 -13.4116      4.1427    125.5875   1.3442024061e+02   4.9009404231e+01     1.204029    0.4741766 -62.10  0.005807341    1.873    0.466
       161  -9.1612     94.1457    133.1307   1.0946953188e+02   3.6446121925e+01    0.2237681    0.1945769 -26.41 0.0004344398    1.253    0.202
       162  -9.9882     44.2519    129.9167   1.2339578256e+02   4.4430694037e+01    0.2041075    0.1709422 -77.87 0.0005397892    1.193    0.162
       163 -10.2341     33.6671    127.8598   1.2616316812e+02   4.6050095474e+01    0.2896045    0.1582194  88.65  0.001164219    2.983    0.665
       164  -9.6718     66.4681    126.9621   1.1616486883e+02   4.2321008055e+01    0.2045899    0.1243572 -82.73 0.0008096191    2.550    0.608
       165 -11.8067     20.2793    123.2075   1.2934602823e+02   4.8375587425e+01    0.4294122    0.2153564 -44.08  0.002115302    1.885    0.470
       166 -10.0404    249.7337    117.9277   7.2690896839e+01   7.6155501676e+00    0.2633951    0.2307401 -33.71 0.0006812333    1.242    0.195
       167  -9.7220     48.0314    125.9927   1.2150844129e+02   4.4941474187e+01    0.2035049    0.1839629 -61.52 0.0003922159    1.045    0.043
       168 -10.4467    231.9496    116.3662   7.4966000147e+01   1.1272763838e+01    0.2463937    0.1707081 -54.08 0.0006740327    1.303    0.232
       169 -13.0788      9.0977    111.5755   1.3079848782e+02   5.1913847896e+01    0.8198143    0.2904134 -66.35  0.002661167    2.354    0.575
       170 -11.5125     13.3663    127.6610   1.3207875631e+02   4.7872119332e+01    0.2739675    0.2046847 -31.92 0.0009253952    1.480    0.324
       171  -9.6643    167.5724    112.8514   8.5866734728e+01   2.5804015788e+01    0.2932291    0.2291323 -88.64 0.0009629838    1.530    0.346
       172 -10.8787    249.6090    150.5880   7.9283529983e+01   1.6989944442e+00    0.4993609    0.2772648 -44.66   0.00248255    1.532    0.347
       173 -12.1070    247.9661    112.8544   7.1911712089e+01   8.8475182338e+00    0.7725604    0.6059225   2.05  0.004170489    2.086    0.521
       174 -10.8179     18.7418    105.9863   1.2675598061e+02   5.2478940954e+01    0.2427815    0.2024873  77.66  0.001331302    1.469    0.319
       175 -12.6236     14.7928    100.4406   1.2697719032e+02   5.4020029816e+01    0.5482793     0.296102 -37.33  0.002922656    1.769    0.435
       176  -8.6344     71.7586    100.0587   1.0811783947e+02   4.7733296343e+01    0.1742969    0.1127902 -50.57 0.0002836725    1.466    0.318
       177 -10.2432     94.4202    150.4361   1.1314740986e+02   3.2158516482e+01    0.3201794    0.3045334  47.12  0.001035171    1.110    0.099
       178 -11.6094      2.3007     78.5024   1.2682793577e+02   5.9512868695e+01    0.5456202   0.07069824 -59.17  0.001845569    4.350    0.770
       179 -10.9997      2.9243     60.4417   1.2235868815e+02   6.3027888144e+01    0.3389412    0.1014834 -38.87  0.001515128    2.766    0.638
       180 -11.3683     59.8961    245.8793   1.3514295779e+02   1.4806329460e+01    0.4584631    0.3011352  55.13  0.001836936    1.298    0.230
       181 -10.9060     74.1088    243.5793   1.3208237089e+02   1.3275507850e+01    0.3968765    0.3053138 -59.93  0.002420251    1.472    0.320
       182 -10.9067    198.4158    245.8798   1.0677307145e+02  -7.0573728415e+00    0.2721347    0.1546499  20.46  0.001339754    1.945    0.486
