#   1 NUMBER                 Running object number                                     
#   2 MAG_AUTO               Kron-like elliptical aperture magnitude                    [mag]
#   3 X_IMAGE                Object position along x                                    [pixel]
#   4 Y_IMAGE                Object position along y                                    [pixel]
#   5 X_WORLD                Barycenter position along world x axis                     [deg]
#   6 Y_WORLD                Barycenter position along world y axis                     [deg]
#   7 A_WORLD                Profile RMS along major axis (world units)                 [deg]
#   8 B_WORLD                Profile RMS along minor axis (world units)                 [deg]
#   9 THETA_WORLD            Position angle (CCW/world-x)                               [deg]
#  10 FWHM_WORLD             FWHM assuming a gaussian core                              [deg]
#  11 ELONGATION             A_IMAGE/B_IMAGE                                           
#  12 ELLIPTICITY            1 - B_IMAGE/A_IMAGE                                       
         1 -13.8950    182.2307     85.2318   7.5748022760e+01   2.7932601858e+01     12.87518     5.570189 -63.28   0.03241028    6.249    0.840
         2 -13.2817    147.0702     42.4987   7.1124425696e+01   4.2710645393e+01     3.487417     1.779622  67.44   0.01571505    2.015    0.504
         3 -12.1713    214.8986     55.8548   6.3976215322e+01   2.5346523635e+01     1.217074    0.7948248 -80.42  0.006536679    1.576    0.366
         4 -10.5641    212.1329     16.3627   5.6024485645e+01   3.1104762321e+01    0.2947043    0.2086592 -44.17 0.0004991052    1.498    0.332
         5 -11.4166    246.9280     36.8935   5.6779184961e+01   2.1347863756e+01    0.8925365    0.4368776 -74.90  0.004068709    2.246    0.555
         6 -13.6076    226.3617     45.0672   6.0386278742e+01   2.4435563245e+01     4.418787     1.211278 -54.06   0.01472008    4.423    0.774
         7 -12.0625    249.5111     25.6052   5.4507439201e+01   2.2308132517e+01    0.7196906    0.3070961 -44.26 0.0009157225    2.056    0.514
         8 -13.5424    210.9870     67.3610   6.7000258786e+01   2.4440789550e+01     12.52524     3.819229 -56.35   0.03135937    6.857    0.854
         9 -14.0618    239.3156     16.6765   5.3713801107e+01   2.5417976048e+01     4.509194    0.1537773  62.34   0.01289538    7.913    0.874
        10 -11.7896    249.2202      3.7566   5.0719216149e+01   2.4952538764e+01    0.3802013    0.2073553 -49.18 0.0004512959    1.610    0.379
        11 -11.6521    246.0295     47.3912   5.8826615804e+01   2.0080033397e+01     1.079235    0.6067443 -89.67  0.005888485    1.860    0.462
        12 -10.7197    187.0107     20.5778   5.9599128464e+01   3.6163298521e+01    0.4230291    0.1873634 -42.63  0.001401358    2.266    0.559
        13 -11.8588    120.0845     10.2955   6.6902665521e+01   5.2200595772e+01     0.778131     0.524627  69.20   0.00298357    1.387    0.279
        14  -8.9880    142.0000     12.9882   6.3886977785e+01   4.7126196263e+01    0.3632616    0.1512293 -34.41  0.001299797    2.652    0.623
        15  -9.7654    143.9675      6.6463   6.1872585968e+01   4.7252730109e+01    0.5384241    0.2577654 -15.43  0.002545513    3.111    0.679
        16  -8.5029    151.5228     11.7034   6.2097661297e+01   4.5103356094e+01    0.2051322    0.1236107 -28.41  0.000674682    1.988    0.497
        17  -9.1952      2.4997      7.5008   1.0466603775e+02   7.1483106347e+01    0.1058373   0.07394397  -8.88 -0.0004835422    1.009    0.009
        18  -8.8723    235.0985      3.3657   5.1634022316e+01   2.7770382690e+01    0.2912407     0.230393  84.94  0.001769915    1.227    0.185
        19  -8.3846    171.9704      2.9137   5.7297249516e+01   4.1315549174e+01    0.3831657    0.1685563 -68.44  0.001616073    3.379    0.704
        20 -11.0972    129.4235     20.1586   6.8082278859e+01   4.9245315486e+01    0.4832263    0.3283893  38.83  0.002201759    1.497    0.332
        21  -8.7271     52.0637      2.6336   8.1486308732e+01   6.5849862351e+01    0.1975516    0.1354938  -1.41 0.0008294966    1.399    0.285
        22  -8.6240    183.2845      3.2890   5.6145800379e+01   3.8768443310e+01    0.1936849    0.1621562 -62.03  0.001029912    1.246    0.197
        23  -8.1613    165.2841      1.8468   5.7824634107e+01   4.2901502838e+01    0.1421984    0.1104593 -11.59 0.0009251471    1.789    0.441
        24  -7.3222    150.6884      2.3340   5.9794090160e+01   4.6118236340e+01    0.1216788   0.08089297 -74.05 0.0002743675    1.680    0.405
        25  -8.7086    210.3143      1.3996   5.3207912766e+01   3.3090148077e+01    0.1825309   0.09094716  75.07 0.0006058094    1.660    0.397
        26 -10.0537    189.2626    138.4419   8.7040802428e+01   1.5847604861e+01    0.4358695    0.3276129  41.66  0.001616895    1.443    0.307
        27 -11.1634    230.9636    250.5971   1.0100654338e+02  -1.2428515123e+01    0.1968213    0.1159011  30.85  0.001129602    1.607    0.378
        28  -8.3038    158.7499    138.9919   9.3812151906e+01   2.2251421138e+01    0.2035034    0.1314053 -46.50 0.0003317352    1.501    0.334
        29  -9.2873    190.5630    132.0047   8.5305314328e+01   1.6924526892e+01    0.3313679    0.1969271  68.86  0.001282272    2.476    0.596
        30 -10.1359    160.8200    129.2134   9.1003793583e+01   2.3978175830e+01    0.4603027    0.3698479  27.66  0.002195979    1.455    0.313
        31  -9.2940    204.0178    127.7091   8.1745464080e+01   1.4963847191e+01    0.2079307    0.1996241  89.26  0.001176454    1.088    0.081
        32  -9.1881    216.0387    117.4843   7.7347953788e+01   1.4480597665e+01    0.2091624    0.1430452  56.08  0.001034113    1.596    0.374
        33 -10.0651    167.7127    113.5283   8.5635936687e+01   2.5794537315e+01    0.3842008    0.3228036 -72.58 0.0007460249    1.263    0.209
        34  -8.7196    248.9745    240.2954   9.5965662177e+01  -1.3244383793e+01    0.1912024    0.1447524 -21.04 0.0004016538    1.133    0.118
        35  -7.9776    156.6533    112.3223   8.7783301074e+01   2.8526925394e+01    0.1620299    0.1213273 -85.52 0.0007049639    1.738    0.425
        36 -10.7981    206.1145    110.3045   7.7431817064e+01   1.7946420784e+01    0.5244901    0.3198469  57.64  0.002433563    1.762    0.432
        37  -7.9323    135.2205    107.0078   9.1539335840e+01   3.4383288784e+01     0.211084     0.124408 -44.31 0.0008756359    1.684    0.406
        38  -7.7646    142.6707    103.6830   8.8830330637e+01   3.3437015737e+01    0.1548141    0.1231659   5.75  0.000704637    1.682    0.405
        39  -9.3701    216.2318    101.0946   7.3695895773e+01   1.7520550975e+01    0.2611109    0.2015776  76.12 0.0006735249    1.386    0.278
        40  -9.9360    196.1241     96.4801   7.5976067939e+01   2.2742083726e+01    0.5229006    0.3193642 -46.18  0.001703029    1.545    0.353
        41  -7.7488    125.3258    101.3188   9.2560376366e+01   3.7693276924e+01    0.1546261    0.1210109   1.81 0.0003334731    1.677    0.404
        42  -9.1865    148.8509     99.3712   8.6237069103e+01   3.2924413362e+01    0.3013923    0.2617685  28.18 0.0008354018    1.289    0.224
        43 -10.7842      3.0760     98.3844   1.3051574540e+02   5.5274313739e+01    0.6069706   0.06427818 -59.11  0.002060866    3.904    0.744
        44 -10.5351      4.6022     81.8272   1.2677465222e+02   5.8742574623e+01    0.3829485    0.1062057 -63.80  0.001483163    3.359    0.702
        45  -9.1891    168.2566     97.5551   8.1526974352e+01   2.8860790541e+01    0.2512552     0.248598  13.13 0.0002701683    1.126    0.112
        46 -10.0936    142.9836    227.7372   1.1512634500e+02   5.3869244208e+00    0.2449517    0.2144797 -50.02 0.0004872554    1.225    0.184
        47  -8.5608    135.0286     95.9445   8.8629939504e+01   3.6685193321e+01    0.2267949    0.2165289 -89.04 0.0006327208    1.078    0.072
        48 -10.0125    159.8752     91.9266   8.1841683762e+01   3.1855206294e+01     0.576539    0.3730233  32.88  0.002489516    2.008    0.502
        49  -9.8364    249.9782     88.1652   6.6300877445e+01   1.2990466677e+01    0.4562919    0.2257034 -40.23  0.002206751    1.879    0.468
        50  -9.4090    142.9276     88.7283   8.4770896988e+01   3.6319630245e+01     0.315539    0.2859609 -70.75 0.0006319596    1.152    0.132
        51 -12.4353      5.1822    194.8158   1.4174682483e+02   3.2448271473e+01    0.9089006    0.5348832 -78.39  0.004784897    1.352    0.260
        52  -7.2554    111.6336     87.3235   9.2352838284e+01   4.3338049013e+01     0.150047    0.1177897  88.20  0.000177213    1.795    0.443
        53 -10.9095    158.2288     81.8813   7.9560736285e+01   3.4073290220e+01    0.3794738    0.3113669 -42.96 0.0008143826    1.247    0.198
        54  -8.4385    250.6452    197.7975   8.7929334512e+01  -6.6972404617e+00    0.1729943     0.105496 -44.68 0.0002708741    1.566    0.361
        55  -7.9125    111.5025     78.0869   8.9703323332e+01   4.5089303601e+01    0.1952615    0.1407198 -37.70 0.0003529094    1.416    0.294
        56  -8.2626    231.5293    194.5204   9.0687120245e+01  -3.2367972616e+00    0.2759061    0.1925946  71.91  0.001251296    2.915    0.657
        57 -10.9904    196.3949     68.0378   6.9269952121e+01   2.7594090582e+01    0.8785996    0.3798867  41.56  0.002997864    4.040    0.752
        58  -8.1347    250.4937     66.5068   6.2018162809e+01   1.6374780952e+01    0.1272536    0.1012159 -66.96 0.0008106178    1.006    0.006
        59  -8.3659    193.3052    195.6512   9.8399114413e+01   3.0199618648e+00    0.1408421    0.1163329 -86.48 0.0007041752    1.700    0.412
        60  -8.4891    190.4833    190.4799   9.7963288925e+01   4.5835247941e+00    0.2732942    0.1355576 -55.99  0.001030057    2.558    0.609
        61  -9.2195    244.9003     60.3137   6.1419114975e+01   1.8416758140e+01    0.2453548    0.1935969  84.38 0.0008101188    1.224    0.183
        62  -8.6077    250.3429    158.9492   8.0417477057e+01   2.5670161362e-01     0.191165    0.1494265 -41.01 0.0005788922    1.078    0.072
        63  -9.5760    249.2359    179.3834   8.4625221549e+01  -3.2684311014e+00    0.3853871    0.2637878 -67.89  0.001119191    2.380    0.580
        64  -8.9550    190.9190     53.3831   6.6659659628e+01   3.1074927172e+01     0.367786    0.1998726 -51.15  0.001472061    1.835    0.455
        65  -9.3060    188.3675     45.8116   6.5248299217e+01   3.2725979218e+01    0.5081331    0.1673781 -45.27   0.00197739    2.972    0.663
        66  -9.2095    197.4444     56.4965   6.6445993380e+01   2.9133516180e+01    0.4280891    0.2504427 -72.01  0.001993443    2.053    0.513
        67  -8.1686    194.5124     58.0162   6.7218431207e+01   2.9572443029e+01    0.3164487    0.1516622 -53.94  0.001373863    2.203    0.546
        68  -8.1233    250.1635     56.6845   6.0177915601e+01   1.7922239589e+01    0.1847124      0.12603 -82.85 0.0003718562    1.363    0.266
        69 -10.5697    124.9156     56.2657   7.9769232091e+01   4.5809679553e+01    0.2794965    0.2479834 -39.22 0.0005113957    1.213    0.175
        70 -10.1306    197.4690     45.9548   6.4037592453e+01   3.0637336823e+01     0.280819    0.2020779 -54.60 0.0005854533    1.332    0.249
        71  -9.3481    114.8485     51.9748   8.0911553710e+01   4.8608397467e+01    0.2307117    0.1815648  50.11 0.0003486941    1.184    0.156
        72  -8.3967    159.4981    166.0307   9.9734975291e+01   1.5926671841e+01    0.2162166    0.2074651  37.65 -9.894914e-05    1.070    0.065
        73  -8.5994     93.0344    167.8743   1.1678735986e+02   2.8080628807e+01    0.2131513    0.1987295 -66.64  0.000336683    1.039    0.038
        74 -10.3120    206.3184    162.6998   8.8984963441e+01   7.3439267775e+00     0.325633    0.2840812 -77.87 0.0004741799    1.350    0.259
        75 -12.3062     20.9326    176.9022   1.3649954838e+02   3.5269055208e+01     1.118378     0.619424 -79.41  0.005779964    1.574    0.365
        76 -12.5152     38.1304    172.8516   1.3182076375e+02   3.4483363818e+01    0.8640203    0.7492949 -38.05  0.001546893    1.383    0.277
        77 -12.2194     48.5764    166.0203   1.2819766329e+02   3.4977718106e+01     1.004608    0.7819915 -68.59  0.002615255    1.123    0.109
        78  -8.9293    221.2004    176.8455   8.9083475213e+01   1.8023063344e+00    0.3051505    0.2156648  87.75   0.00131767    2.787    0.641
        79 -10.1487    135.1577     20.3565   6.7093889482e+01   4.7949446048e+01    0.2709045    0.2262408  32.53   0.00170043    1.302    0.232
        80  -9.5486    237.3523    174.7559   8.5742084170e+01  -5.3606494172e-01    0.2931465    0.2455083  58.80  0.001005301    1.524    0.344
        81  -8.5582    237.1689    249.2027   9.9626957257e+01  -1.3037628939e+01    0.1483277    0.1366849   6.13 0.0004245325    1.346    0.257
        82 -12.0307    175.5507     66.2834   7.2237964048e+01   3.2667438613e+01     0.578186    0.5142571 -71.81  0.003379641    1.080    0.074
        83  -8.2486    185.3821    246.1714   1.0914500066e+02  -5.1088682210e+00    0.1665655    0.1244783 -54.21  0.000728464    1.666    0.400
        84  -8.0638     92.1467    152.4509   1.1402094202e+02   3.2105728418e+01    0.1984277    0.1517484  36.09 0.0003458807    1.395    0.283
        85  -8.2144    135.0770    148.1526   1.0169516357e+02   2.5095560053e+01    0.2734483    0.1859023  68.77 0.0008065671    1.987    0.497
        86 -10.4223     68.1855    144.4937   1.1914801782e+02   3.7829094071e+01    0.6759307    0.4469949  66.52  0.002703364    1.985    0.496
        87  -8.8916    226.0307    145.2763   8.1647968856e+01   7.1021498442e+00    0.2308088    0.1810541 -44.58 0.0003524243    1.127    0.113
        88  -8.1815    211.6460    144.2997   8.4009030259e+01   1.0061861321e+01    0.2478725    0.1796071  62.67 0.0008969469    1.653    0.395
        89  -8.6875    192.0895    144.1053   8.7749163119e+01   1.4059129551e+01    0.2235451    0.2013941 -16.37 0.0003344626    1.220    0.181
        90  -7.8478    154.0542    143.0313   9.5860529984e+01   2.2336845562e+01    0.1845073    0.1818097  74.14 0.0003123853    1.038    0.036
