#   1 NUMBER                 Running object number                                     
#   2 MAG_AUTO               Kron-like elliptical aperture magnitude                    [mag]
#   3 X_IMAGE                Object position along x                                    [pixel]
#   4 Y_IMAGE                Object position along y                                    [pixel]
#   5 X_WORLD                Barycenter position along world x axis                     [deg]
#   6 Y_WORLD                Barycenter position along world y axis                     [deg]
#   7 A_WORLD                Profile RMS along major axis (world units)                 [deg]
#   8 B_WORLD                Profile RMS along minor axis (world units)                 [deg]
#   9 THETA_WORLD            Position angle (CCW/world-x)                               [deg]
#  10 FWHM_WORLD             FWHM assuming a gaussian core                              [deg]
#  11 ELONGATION             A_IMAGE/B_IMAGE                                           
#  12 ELLIPTICITY            1 - B_IMAGE/A_IMAGE                                       
         1 -14.6641     68.3355    144.6784   9.6737969437e+01   3.7468505233e+01     4.966275     2.711746  75.51  0.002960176    3.695    0.729
         2 -14.0474    200.8112     46.3176   4.0826097986e+01   2.9294661522e+01     1.448779     1.006217 -56.31  0.002479197    1.335    0.251
         3 -14.2437    209.3562     40.3779   3.8478589772e+01   2.8197336537e+01     1.420135     1.097565  38.44  0.008362529    1.822    0.451
         4 -14.0087    225.7154     26.0161   3.3805194293e+01   2.6512273304e+01     1.188708     1.023959  47.69  0.005003775    1.606    0.377
         5 -12.9392    247.5175      4.9713   2.8172814332e+01   2.4561670031e+01    0.5941548    0.3655187 -61.15  0.004045847    1.258    0.205
         6  -9.2486     88.9736    210.3009   1.0147770418e+02   1.8452995780e+01    0.1910736     0.163147  46.94 0.0002929725    1.081    0.075
         7 -15.3195      6.3646    186.3518   1.1864623686e+02   3.4014914732e+01     6.922889     1.007405 -75.35  0.002038941    5.815    0.828
         8 -16.8949     20.9111    243.1796   1.1934933053e+02   2.0123977611e+01     8.563349     6.083642  37.31   0.03329156    1.444    0.307
         9 -11.2700    193.2038    195.2602   7.5284407951e+01   4.1127924152e+00     1.006018     0.504262 -63.13  0.002697177    7.185    0.861
        10  -9.7108    122.3083    198.5791   9.1741713908e+01   1.5687097399e+01    0.2889098    0.2157947 -89.32  0.001404488    1.763    0.433
        11  -9.8328    110.8556    203.1494   9.5222684592e+01   1.6593615783e+01     0.216261    0.1825895  66.72 0.0004755594    1.236    0.191
        12 -15.1574      9.6988    207.8283   1.1940803895e+02   2.8789873257e+01     1.332624     1.129045 -65.32  0.007266582    1.355    0.262
        13  -9.8461    146.9826    186.8457   8.3800950986e+01   1.3897612471e+01    0.2237073    0.2011632  73.75  0.001210263    1.284    0.221
        14  -9.1905     80.9798    183.4665   9.9681149763e+01   2.5926774547e+01     0.203407    0.1377074  36.14 2.154412e-05    1.466    0.318
        15  -9.5097     99.4540    180.8976   9.4489094348e+01   2.3615168741e+01    0.2159615    0.1936823  40.85 0.0006354306    1.100    0.091
        16 -10.1805    187.2223    175.5338   7.2665028718e+01   8.8982509311e+00    0.3201538    0.2547037 -52.53  0.001505151    1.377    0.274
        17 -12.1920     60.2870    174.0593   1.0375647802e+02   3.1187589394e+01    0.4699974    0.3128921 -31.65  0.002199007    2.073    0.518
        18 -12.0736     65.4010    169.1472   1.0166159144e+02   3.1717023956e+01    0.3507348     0.291492 -30.61  0.000921124    1.444    0.308
        19  -9.8373     85.4601    174.4821   9.7094922346e+01   2.7427970974e+01    0.2466773    0.2336095 -28.86 0.0006600418    1.183    0.155
        20 -10.1117     88.3165    172.6772   9.6033776891e+01   2.7419059216e+01     0.289345    0.2152707  61.62 0.0007647275    1.439    0.305
        21 -11.1667    239.3283    173.8249   6.2626366016e+01   5.1728435946e-01    0.1760354    0.1620279 -15.78  0.001165159    1.139    0.122
        22 -13.5606     62.5378    155.6818   1.0034508070e+02   3.5498159072e+01    0.5259084    0.3634308 -38.66  0.001438062    1.664    0.399
        23 -12.7694     83.0086    153.6088   9.4122384023e+01   3.2997101827e+01     1.156842    0.6064291 -47.11   0.00188876    1.959    0.490
        24 -12.3931     75.5260    159.8797   9.7363507968e+01   3.2580194109e+01    0.5991486    0.4731812  15.03 0.0005492865    1.513    0.339
        25 -13.2871     31.8882    199.7635   1.1381091685e+02   2.8393351646e+01     0.484631    0.3762585 -46.34  0.001211027    1.590    0.371
        26  -9.7154     42.6753    164.5252   1.0722285233e+02   3.5754307358e+01    0.2610014    0.1382921  26.63  0.001189412    2.115    0.527
        27 -10.4750     48.4383    169.8513   1.0636024462e+02   3.3742851098e+01    0.3433398    0.2393726 -66.03 0.0008201004    1.329    0.248
        28  -9.5063     51.3236    161.3028   1.0438635124e+02   3.5534948502e+01     0.140669    0.1037054 -34.90 0.0002544692    1.636    0.389
        29 -11.4224     32.5373    156.4262   1.0898041968e+02   3.8886184006e+01    0.4603929    0.2908246 -83.24  0.001101568    1.540    0.350
        30 -10.6536    134.0000    146.5204   7.8737107321e+01   2.5430700693e+01    0.6955285    0.1973855 -53.34  0.001850392    4.264    0.765
        31  -9.7242    174.8276    149.0762   6.9699569628e+01   1.6615070456e+01    0.2282912     0.206709 -78.47 0.0006073092    1.263    0.208
        32 -10.7113     29.3116    143.0088   1.0812652930e+02   4.2578357105e+01    0.4200363    0.3132582   3.59  0.001703931    1.704    0.413
        33 -10.8730     98.5542    139.4863   8.6807165448e+01   3.3874038158e+01    0.5756578    0.3867751 -14.64   0.00229788    2.369    0.578
        34 -12.4630     85.4099    138.8759   9.0516271192e+01   3.6284131162e+01    0.3076905    0.2828875 -46.66  0.000500863    1.081    0.075
        35 -10.9590    107.3906    130.4142   8.2226969677e+01   3.4432954941e+01    0.5411304    0.3404188  29.91  0.002185854    1.778    0.438
        36 -10.7046    135.5634    128.3364   7.4106398276e+01   2.9250418981e+01    0.6228576    0.1525313 -47.98  0.001647869    4.142    0.759
        37  -9.6234     96.7083    125.4559   8.4170721734e+01   3.7603550535e+01    0.2549731    0.2125325  -7.09 0.0005366597    1.427    0.299
        38  -9.6456    115.7082    124.1618   7.8384699040e+01   3.4277277137e+01    0.2948189    0.2077076   9.08  0.001130337    2.080    0.519
        39  -9.0489    163.2139    120.9684   6.5713776494e+01   2.4901031873e+01    0.2016665    0.1210336 -44.16 0.0008496003    1.627    0.385
        40 -10.7903     13.0017    120.9728   1.1006996391e+02   4.9431790325e+01     0.312117    0.1463723  37.82   0.00147573    2.370    0.578
        41  -8.8979    110.6924    167.3406   8.9129087743e+01   2.4931562223e+01    0.1573832    0.1174888  76.02 0.0007043072    1.686    0.407
        42  -9.9085    106.0401    118.8924   7.9831923544e+01   3.7400052039e+01     0.219088    0.2138761 -12.69 0.0002777314    1.037    0.036
        43  -9.0718     77.7867    112.8180   8.7006956678e+01   4.3885189514e+01    0.1988731    0.1720855  86.34 0.0005163679    1.357    0.263
        44 -10.1382    205.2783    110.3321   5.5020677203e+01   1.7965493800e+01    0.3002636    0.2539021  37.73  0.001114965    1.359    0.264
        45  -8.9288     32.2676    109.3242   1.0165975858e+02   5.0656600570e+01    0.1409413     0.089068 -39.17 0.0003291678    1.568    0.362
        46 -12.1307    248.2406    103.1119   4.7183267761e+01   1.0924388541e+01    0.3301914    0.2560591 -55.93   0.00205213    1.156    0.135
        47  -8.7150    130.6444     96.3072   6.7077601805e+01   3.7187671362e+01    0.1578614    0.1217547  89.44 0.0007041925    1.722    0.419
        48 -11.1363     53.1454     91.6687   9.0163896662e+01   5.2431935165e+01    0.3554474    0.1995264 -59.46  0.001150951    1.848    0.459
        49 -10.9211    246.2176     87.4132   4.4255139849e+01   1.3795066409e+01    0.1659829    0.1165592  83.13 0.0009550094    1.675    0.403
        50 -10.9351    249.0130     84.0137   4.3247285973e+01   1.3809528795e+01    0.3565989    0.1048666 -52.86  0.001159529    4.382    0.772
        51  -9.6908    161.0374     83.4875   5.6606168336e+01   3.2671039122e+01    0.2216628    0.1430211  56.04 0.0004581797    1.537    0.349
        52 -12.6830     82.9539    215.9246   1.0360659911e+02   1.8099267038e+01    0.7725447    0.5436113  79.08  0.001095255    1.588    0.370
        53  -9.1816     25.6625     68.2522   9.4742364553e+01   6.0613539956e+01    0.1145293   0.09752829  54.59 0.0001938854    1.568    0.362
        54  -9.4253     37.3475     63.8103   8.8493133890e+01   6.0311372408e+01     0.202206    0.1667355  28.67 0.0006545259    1.333    0.250
        55 -15.5774     41.1537    190.7547   1.1071231778e+02   2.9482335858e+01     5.139246     2.249124  77.23    0.0180464    3.753    0.734
        56 -12.4267    161.4127    224.3780   8.7080828288e+01   3.9515495918e+00     0.593339    0.2902394  27.65  0.002595732    2.116    0.527
        57 -12.6203    218.6306     32.3879   3.5781491532e+01   2.7219346674e+01    0.4768519    0.3478034  63.66  0.001082079    1.464    0.317
        58 -10.8070    184.7814    213.5627   8.0337732048e+01   2.1676912072e+00    0.3262523    0.2067655 -63.89  0.001468645    2.721    0.633
        59 -10.6567     40.7370     58.6688   8.5427680817e+01   6.0912370734e+01    0.2963834    0.2025725  42.32  0.001380209    1.776    0.437
        60  -9.9008     18.3119     54.9933   9.4182062110e+01   6.3954029469e+01    0.1757763    0.1390964 -35.58 0.0005258893    1.068    0.063
        61 -11.0846      4.3495     49.8915   9.9256180003e+01   6.5974713382e+01    0.3646861    0.1419787  23.75  0.001445643    2.717    0.632
        62 -10.2880    132.1716     39.0487   4.9787881279e+01   4.6400205104e+01    0.2372917    0.1844716  73.07 0.0003848131    1.274    0.215
        63 -11.6994     13.1378     59.7858   9.7907491640e+01   6.3401713464e+01    0.2866844    0.2521523  55.84 0.0005389448    1.556    0.357
        64 -10.2596     21.3551     30.6663   8.4251280528e+01   6.8048518497e+01      0.15817    0.1462704  49.51 0.0008298877    1.676    0.403
        65 -10.5856    198.0055     24.0225   3.6009051726e+01   3.2744855027e+01    0.2537344    0.1855415 -25.65  0.001009984    1.718    0.418
        66  -9.0959    189.5026     15.0093   3.4809230330e+01   3.5670109291e+01    0.1699975    0.1164686 -39.69 0.0005443056    1.533    0.348
