#   1 NUMBER                 Running object number                                     
#   2 MAG_AUTO               Kron-like elliptical aperture magnitude                    [mag]
#   3 X_IMAGE                Object position along x                                    [pixel]
#   4 Y_IMAGE                Object position along y                                    [pixel]
#   5 X_WORLD                Barycenter position along world x axis                     [deg]
#   6 Y_WORLD                Barycenter position along world y axis                     [deg]
#   7 A_WORLD                Profile RMS along major axis (world units)                 [deg]
#   8 B_WORLD                Profile RMS along minor axis (world units)                 [deg]
#   9 THETA_WORLD            Position angle (CCW/world-x)                               [deg]
#  10 FWHM_WORLD             FWHM assuming a gaussian core                              [deg]
#  11 ELONGATION             A_IMAGE/B_IMAGE                                           
#  12 ELLIPTICITY            1 - B_IMAGE/A_IMAGE                                       
         1 -11.5318     80.4275     23.4066   8.0165862389e+01   6.1003868708e+01    0.5603126    0.3003848  31.90 0.0005823806    2.222    0.550
         2 -10.0771     77.3680     13.3378   7.6433004504e+01   6.3055725890e+01    0.7441543    0.3095797  41.33  0.002505635    2.532    0.605
         3  -9.5757     63.9296     14.0320   8.1599925615e+01   6.5327075243e+01    0.5201747    0.3157863  -2.91  0.002491365    2.191    0.544
         4  -8.8014    125.1395     10.3385   6.2154338716e+01   5.2951809533e+01    0.2423549    0.2164231  20.45 0.0003940169    1.063    0.059
         5  -9.6873    133.9564     13.6117   6.1704422783e+01   5.0397713956e+01    0.3144855    0.2447187  32.66  0.000303514    1.280    0.219
         6 -10.0279    130.0981      9.6068   6.0828190429e+01   5.1800771779e+01    0.5198657    0.3265398 -14.48 0.0004720272    1.637    0.389
         7  -7.5837    134.2900      3.3224   5.7424929381e+01   5.1369316271e+01     0.223286    0.1336728  56.04 0.0004308705    1.557    0.358
         8  -9.5665     31.0803     11.1394   9.4428095570e+01   7.0340395287e+01    0.5057579    0.3181981   6.84  0.001238271    1.985    0.496
         9  -9.1118     31.9986      6.2563   9.1479055302e+01   7.1051468011e+01    0.2958268    0.1959068  -7.51  0.000344683    1.650    0.394
        10  -9.2220     46.7535      6.1377   8.4510330455e+01   6.9154343733e+01    0.2540157    0.2357439 -35.31 0.0005693679    1.364    0.267
        11  -9.2412     40.9655      6.1285   8.7116222143e+01   6.9954228023e+01    0.4338106     0.220399 -19.34  0.001128944    2.424    0.588
        12  -8.0372    112.1972     11.7922   6.5707441128e+01   5.5889736011e+01    0.2110536    0.1548068  25.66  0.001079981    1.383    0.277
        13  -8.9084     97.2864     11.8914   6.9617180287e+01   5.9225363211e+01     0.261738    0.1868774  39.01 0.0006759605    1.376    0.273
        14  -9.0831     71.4256      8.9199   7.6254666722e+01   6.4751561075e+01    0.2753017      0.20701  22.78   0.00119044    1.327    0.247
        15 -10.0925      7.6389      5.4397   1.0410744060e+02   7.3477267431e+01    0.4870908    0.2427917  -5.26  0.002559582    2.974    0.664
        16  -8.9324    119.2828      6.8838   6.1915825289e+01   5.4745828365e+01    0.2539464    0.1996758  32.41 0.0002211765    1.222    0.182
        17  -8.8485    100.4974      6.3372   6.6126543052e+01   5.9170022569e+01    0.2613406    0.2102868 -72.76   0.00132188    1.723    0.420
        18  -8.9663     77.4511      6.6837   7.3051292737e+01   6.3915523629e+01    0.2762025    0.1662331  38.50  0.001424847    1.671    0.401
        19  -8.6364     76.3721      2.8699   7.1412561211e+01   6.4583895590e+01    0.3093061    0.1872706 -16.21  0.001379117    1.562    0.360
        20  -9.4036     92.4406      5.2105   6.7754064536e+01   6.1049911238e+01    0.4211429     0.204923  52.96  0.001911465    2.040    0.510
        21  -9.6825     84.8048      5.4633   7.0104982756e+01   6.2610331427e+01    0.2756845    0.2239377 -19.31  0.001629505    1.154    0.134
        22  -9.3956    110.8240      3.4704   6.2267056889e+01   5.7109270244e+01    0.4113711    0.2321744 -29.22  0.001936025    1.738    0.425
        23  -7.9202    153.6380      3.2658   5.4205171722e+01   4.6350428324e+01    0.1483093    0.1060896 -65.37 0.0005290554    1.643    0.391
        24  -8.5633     57.4147      3.2207   7.8438556248e+01   6.7927844872e+01     0.272217    0.1666059  30.73     0.001488    1.716    0.417
        25  -8.1903    143.1364      2.1321   5.5419098358e+01   4.9204592180e+01    0.2165627    0.1754011  34.75 0.0002758489    1.206    0.171
        26  -8.2909    105.1548      2.0901   6.2950685830e+01   5.8562878093e+01    0.2287852    0.1683572  24.62  0.001222422    1.321    0.243
        27  -8.3711    156.0964      7.1281   5.5279424290e+01   4.5335849065e+01    0.2217784    0.1839206  33.11 0.0003405676    1.214    0.176
        28  -8.0378    133.6684    106.6133   9.2863123109e+01   3.4521578013e+01    0.2222193    0.1794659   2.38 0.0007639998    1.651    0.394
        29 -11.9563    233.5370    249.9713   9.9881380207e+01  -4.3963445954e+00    0.2130449    0.1292501  34.65 0.0004543707    1.189    0.159
        30  -9.8446    197.0128    250.2315   1.0542086895e+02   7.7158489446e-01    0.2496481    0.1234289  44.59  0.001596964    1.561    0.359
        31 -10.6881    188.2008    248.4017   1.0656291719e+02   2.2415981407e+00    0.4750272     0.267068  58.88  0.002819688    2.467    0.595
        32  -7.8028    124.0064    107.4523   9.5413099405e+01   3.6296236948e+01    0.1957201    0.1288306  19.94 0.0003897964    2.419    0.587
        33  -7.6614    108.8060    106.8244   9.9084158216e+01   3.9314324360e+01    0.2393252    0.1625657  -9.49 0.0009572272    2.950    0.661
        34  -9.1558     14.7919    105.0717   1.2428614071e+02   5.1695076577e+01    0.3266994    0.1619692 -41.64  0.001683639    2.779    0.640
        35  -8.5342    246.4795    101.4846   6.9928806568e+01   1.0352450153e+01    0.1387725    0.1239443 -18.35 0.0003840262    1.065    0.061
        36  -8.7636    170.0139     96.0085   8.1906856718e+01   2.8533989082e+01    0.2168005    0.2117854 -12.00            0    1.005    0.005
        37  -7.5026    132.5236     95.4316   9.0247341119e+01   3.7033475861e+01    0.1458533     0.143634 -34.18 2.127662e-05    1.039    0.038
        38 -10.0495     13.5399     93.9935   1.2330986270e+02   5.4262650065e+01    0.3513215    0.2960727   5.96   0.00255788    1.668    0.401
        39  -8.4161    242.3243     94.3242   6.8764737108e+01   1.2205070694e+01    0.1475806    0.1018484  14.48 0.0007048104    1.687    0.407
        40  -7.5289     82.3692     94.2966   1.0328972501e+02   4.6539020662e+01    0.1364152    0.1062574 -21.05 0.0007029605    1.730    0.422
        41  -8.7190     43.4554     92.1239   1.1422451301e+02   5.2078194983e+01    0.2799496    0.2189275 -29.92  0.001721067    1.635    0.388
        42  -8.4198     96.7394     90.3781   9.8276940760e+01   4.5038359117e+01    0.3855691    0.2563255  -8.76  0.001540423    3.038    0.671
        43  -7.9394    109.8623     90.6823   9.4772756110e+01   4.2578929208e+01    0.2807747    0.1325397  36.79  0.001074955    2.557    0.609
        44  -9.0925    226.1350     88.4697   6.9696828045e+01   1.6613361204e+01    0.2607913    0.2255237 -13.61 0.0004089745    1.089    0.082
        45 -10.0649     37.4434     81.2108   1.1400556490e+02   5.5169218915e+01    0.6445926    0.3479045 -29.36  0.002949073    3.050    0.672
        46  -8.3089    230.8651     84.8875   6.8040185701e+01   1.6052656112e+01    0.2246195    0.1878426   9.34  0.000627196    1.235    0.190
        47  -8.1153    126.2914     83.8480   8.8570728897e+01   4.0692256233e+01    0.2770047    0.1935391  19.92  0.001207549    2.019    0.505
        48  -8.0058     66.1343     84.2095   1.0569034076e+02   5.1159615946e+01    0.1951607    0.1670021 -41.11 0.0003492949    1.224    0.183
        49  -8.3004    240.3330     83.3241   6.6260416699e+01   1.4148577277e+01    0.1493756    0.1037849  16.46 0.0007050745    1.708    0.414
        50  -9.6298      7.4023     78.2015   1.2305634150e+02   5.8202912390e+01     0.404645     0.190649 -42.49  0.001937167    2.418    0.586
        51  -8.6466     88.1129     78.8547   9.7669938929e+01   4.9017014168e+01     0.359145    0.2086991  26.97  0.001542256    2.404    0.584
        52  -9.0724     49.1417     77.2231   1.0940362168e+02   5.4844984024e+01    0.4610397    0.2785636 -13.30   0.00204358    3.255    0.693
        53  -7.8865    184.1913     77.8478   7.3949768910e+01   2.8275944909e+01    0.2118926    0.1786939  14.84  0.000494048    1.298    0.230
        54  -8.4558     74.7876     74.5261   1.0053042390e+02   5.2075674001e+01    0.3113794    0.1972294 -28.23  0.001193293    2.111    0.526
        55  -7.9862     23.4431     69.4855   1.1631442651e+02   5.9046756652e+01    0.2078852    0.1577069 -82.90 0.0005134222    1.246    0.197
        56  -8.7417     23.6118     74.1583   1.1714751304e+02   5.7982893623e+01    0.2878551     0.131024 -57.23  0.001101701    1.712    0.416
        57  -9.4733     28.1155     69.6317   1.1474714059e+02   5.8632286607e+01    0.4640627    0.2287447 -28.84   0.00204547    3.408    0.707
        58  -8.3649     48.8180     71.4015   1.0813551091e+02   5.6188522920e+01    0.3198031    0.1142359  36.63  0.001350493    3.146    0.682
        59  -7.6158    129.0165     69.6509   8.3556190881e+01   4.2887107130e+01    0.2553771     0.112474  31.98 0.0007048186    4.505    0.778
        60  -7.6975    106.9810     67.0000   8.8610294004e+01   4.8041713881e+01    0.2324256   0.08462393  46.38 0.0008018005    2.938    0.660
        61  -8.6029     83.2534     64.5391   9.4925335339e+01   5.2875044714e+01    0.3653082    0.2437402 -16.35  0.001655036    2.231    0.552
        62  -9.4650     18.9555     61.5294   1.1628530338e+02   6.1161430531e+01    0.2822098    0.1436221 -38.04  0.001347512    2.212    0.548
        63  -9.6741     61.9721     61.3292   1.0094202824e+02   5.6766837955e+01    0.7006333    0.3148861  25.49  0.002794385    3.426    0.708
        64  -9.4334     36.0000     61.0249   1.1001722492e+02   5.9837203489e+01    0.2969163    0.1335072 -51.47  0.001460267    1.788    0.441
        65  -8.6342     99.0386     56.4600   8.7393412961e+01   5.1666623448e+01    0.2959455    0.1762287 -18.78  0.001172787    2.526    0.604
        66  -8.2005    111.1698     58.5618   8.4622555577e+01   4.8833613650e+01    0.2836239    0.1738129  34.05  0.001236848    1.930    0.482
        67  -8.0579     49.6941     58.5910   1.0443923656e+02   5.8908140410e+01    0.2158727    0.1308206  23.98 0.0009379542    2.111    0.526
        68  -7.0699    145.3479     57.7083   7.5694149254e+01   4.1243809949e+01    0.1563614    0.1205152 -72.81 0.0006905173    1.667    0.400
        69  -8.3130     72.0000     54.0338   9.5193668634e+01   5.6846677827e+01    0.3788083    0.1424946 -47.67  0.001492221    2.333    0.571
        70  -9.9084     75.0374     50.0856   9.2796951987e+01   5.7164339618e+01    0.3331749    0.2885474 -44.82 0.0003153479    1.070    0.065
        71  -7.7405     89.0220     53.8287   8.9542746935e+01   5.4045486515e+01    0.2308999    0.1638911   6.67  0.001086674    2.000    0.500
        72  -8.5209    118.5486     51.0384   7.9956393680e+01   4.8628764258e+01    0.2712536    0.2169277  45.87 0.0005349938    1.303    0.233
        73  -8.2458    107.1269     48.3066   8.2102825741e+01   5.1563985343e+01    0.2925798     0.205787   6.24  0.001175207    1.954    0.488
        74  -9.0654     45.7567     48.5353   1.0285788394e+02   6.1507648474e+01    0.2571314    0.2028524 -31.53 0.0006991614    1.254    0.203
        75  -8.7814     10.5031     47.0458   1.1633647645e+02   6.4901673078e+01    0.2818848    0.1551398 -63.67  0.000793824    1.371    0.271
        76  -9.0020     13.5463     45.5588   1.1475826268e+02   6.5029264223e+01    0.2270697    0.1889119 -72.38 0.0006179676    1.173    0.148
        77  -9.0393      3.1433     42.4598   1.1829375897e+02   6.6303649801e+01    0.5367854   0.06747122 -57.95   0.00208128    3.364    0.703
        78  -9.1978     57.2321     42.0542   9.6282708474e+01   6.1397712883e+01    0.6994121    0.3258578 -25.49  0.002320033    4.549    0.780
        79  -8.5657     93.0523     41.7138   8.3786598461e+01   5.5561101838e+01    0.4254403    0.1972544 -29.31  0.001444217    2.418    0.586
        80  -8.1991     91.7316     37.0115   8.2329843582e+01   5.6637320890e+01    0.2075091    0.1879822 -51.55 0.0004052461    1.225    0.184
        81 -10.9462     83.1831     40.0455   8.6297824257e+01   5.7692230817e+01    0.4001489     0.263168 -24.21  0.001976089    1.602    0.376
        82  -9.0972     87.7094     38.0281   8.4017103221e+01   5.7225060108e+01    0.3129723    0.2652663  -3.08 0.0008271792    1.213    0.176
        83  -7.9689    113.8323     41.7402   7.7759543572e+01   5.1262269443e+01    0.2478401    0.1511278  13.55  0.000940174    2.711    0.631
        84  -8.4514    222.0019     40.1521   5.6950007875e+01   2.4243450064e+01    0.3706177    0.1976344 -30.50    0.0012778    1.712    0.416
        85  -7.8200    124.0054     39.9643   7.4429428950e+01   4.9247936384e+01    0.2404705    0.1726321  16.43 0.0005108907    1.696    0.410
        86  -9.4829     68.6708     37.3136   9.0237781707e+01   6.0632555592e+01     0.577803    0.3873569  21.45  0.003009113    1.840    0.457
        87  -8.0927     73.9974     34.4785   8.7187957287e+01   6.0283726943e+01    0.2169547    0.1754604 -10.37 0.0005061543    1.265    0.209
        88  -8.5501     35.6226     37.8003   1.0335124149e+02   6.4823855359e+01    0.3045568    0.1334824 -57.17   0.00143572    2.036    0.509
        89  -8.5316     38.7215     35.4489   1.0123156462e+02   6.4972725671e+01    0.2619199    0.1808722 -27.77 0.0006129988    1.466    0.318
        90  -7.9674    106.0137     36.6722   7.7935506136e+01   5.3789829121e+01    0.2030321    0.1834478  21.58 0.0005828089    1.120    0.107
        91  -8.9242     56.4990     35.1197   9.3930353421e+01   6.2844796264e+01    0.3601184    0.2215171 -12.66 0.0007495005    2.403    0.584
        92  -8.7514     19.1751     35.6606   1.0967451837e+02   6.6727720103e+01    0.1928713    0.1287296 -21.61 0.0006434806    1.729    0.421
        93  -8.7242     23.1903     35.7168   1.0794595397e+02   6.6397772427e+01    0.2074134    0.1953314  17.55   0.00154194    1.332    0.249
        94  -8.9848     22.0295     31.9986   1.0724518611e+02   6.7255580466e+01    0.2338436     0.178071 -40.42 0.0004226812    1.121    0.108
        95  -9.6872      5.7615     33.3378   1.1493950018e+02   6.8096454240e+01    0.3735256    0.2922502  36.45  0.002704533    1.682    0.405
        96  -8.6785      1.2437     29.0050   1.1582960512e+02   6.9237263543e+01    0.2481586    0.1163834 -59.32 0.0007833148    1.510    0.338
        97  -8.9798     42.2063     27.3427   9.6623428139e+01   6.6151852866e+01     0.297289     0.196304 -48.88   0.00119095    1.343    0.255
        98  -9.4242     62.0282     25.4820   8.7738271732e+01   6.3784487897e+01    0.4947626    0.1810283 -35.39  0.001348217    2.595    0.615
        99  -7.7094    110.5009     26.5264   7.2530818651e+01   5.4364429262e+01    0.1454256    0.1324546   1.85 4.691241e-06    1.034    0.033
       100  -8.2733    101.7904     25.2328   7.4369738331e+01   5.6460052261e+01    0.3045934    0.1819059  16.63  0.001221547    2.390    0.582
       101  -9.3714    206.5976    249.8837   1.0391302076e+02  -5.7990623329e-01    0.1825738    0.1380792  45.59  0.001271344    1.335    0.251
       102  -9.1437     69.8015     25.8624   8.4996504984e+01   6.2474721434e+01    0.2635086    0.2165184 -11.45 0.0009320912    1.154    0.133
       103  -8.8631     25.4863     25.5273   1.0336435301e+02   6.8249628287e+01    0.2641698    0.1191511 -41.08   0.00106614    1.855    0.461
       104  -8.9757     28.5886     21.2180   1.0019888970e+02   6.8783429817e+01    0.2707568    0.1754874 -17.45 0.0009149773    1.743    0.426
       105  -8.8767    144.6256     23.3875   6.3445231168e+01   4.6530623094e+01     0.262601    0.2330654  27.56 0.0002406443    1.120    0.107
       106  -7.7461    129.1744     22.5829   6.6354817679e+01   5.0510026263e+01    0.2104796    0.1251848  44.77 0.0008844041    1.668    0.400
       107  -9.1142     92.4443     20.4255   7.4974316568e+01   5.9108359551e+01    0.2952861    0.2343224 -11.24 0.0007332225    1.193    0.162
       108  -9.0241     46.0798     20.2947   9.1891004058e+01   6.6950520342e+01    0.3682596    0.2258375 -38.35  0.001482773    1.354    0.262
       109  -8.2142    140.3129     20.0684   6.3012951689e+01   4.8038690524e+01    0.2396846    0.1870253  42.90   0.00041597    1.257    0.205
       110  -8.6617      9.6472     19.9130   1.0891748496e+02   7.0593872662e+01    0.2568501     0.161265 -17.39  0.001208715    1.831    0.454
       111  -7.9531      5.2690     18.9282   1.1078095435e+02   7.1063019309e+01    0.1606172    0.1325075 -60.74 0.0003811506    1.211    0.174
       112  -7.1677    146.7036     18.7552   6.1276222679e+01   4.6554433517e+01    0.1480555    0.1049282  33.47 0.0002460899    1.481    0.325
       113  -8.3332    127.6546     16.9148   6.4371240149e+01   5.1585097301e+01    0.2393152     0.184788  43.27 0.0002728765    1.259    0.206
       114  -8.5595    216.4858    249.4919   1.0236491704e+02  -1.9595960246e+00    0.1056534   0.07504081  31.61 -1.066147e-05    1.010    0.010
       115  -8.9850    173.2160    249.5853   1.0903215892e+02   4.3113216698e+00    0.1591121    0.0753187  37.13 0.0009627153    1.682    0.406
       116  -7.4000    189.3216     15.3262   5.3491251294e+01   3.5631854621e+01    0.1557827    0.1055627  32.79 0.0007047682    1.685    0.407
       117  -9.2863    163.1486    245.1372   1.1012506339e+02   6.2936957108e+00      0.14819    0.1049762  55.45  0.001087576    1.348    0.258
       118  -8.5727    250.6500    239.0973   9.5867317990e+01  -5.8555032004e+00    0.1411267   0.08890855 -19.95 0.0003659269    1.770    0.435
       119 -10.1625    187.6525    234.1007   1.0489431010e+02   3.8634169899e+00    0.2610822    0.2343809 -68.34  0.001424645    1.629    0.386
       120 -10.0276    145.6325    226.5357   1.1090636668e+02   1.1269780977e+01    0.1974592    0.1559902  46.69 0.0002895514    1.033    0.032
       121  -8.4075    105.0074     14.0383   6.8524376326e+01   5.7264033763e+01    0.2327959    0.1551367  20.51  0.001018258    1.664    0.399
       122  -8.2645     88.1500     13.0801   7.2845505577e+01   6.0986902259e+01    0.2142662    0.1650167   9.61 0.0005124618    1.295    0.228
       123  -7.3294     18.4679    218.4781   1.3148254247e+02   2.8941483071e+01   0.09729349    0.0682992  70.19 0.0008086697    1.060    0.057
       124  -7.7025    147.2466    212.3654   1.0893111716e+02   1.2998394380e+01    0.1625916   0.08866283  49.02 0.0004561293    1.516    0.340
       125  -7.4730    101.1826    176.3197   1.1300863131e+02   2.6292526526e+01     0.168773   0.09323585  52.08 0.0008998763    1.614    0.381
       126  -8.8351    239.7895    173.0110   8.6603075352e+01   2.3972598891e+00    0.2255981    0.1560902  40.26 0.0007088722    1.368    0.269
       127  -7.7392    163.0072     12.2591   5.6102966252e+01   4.2984336184e+01    0.1891447    0.1243299  66.24 0.0004162585    1.495    0.331
       128  -8.1715     95.3145    167.1667   1.1301614181e+02   2.8935832148e+01    0.1896149    0.1545113  46.81 0.0004197546    1.241    0.194
       129  -7.4414    240.4833    163.4654   8.4638165595e+01   3.4204727478e+00    0.1290787     0.104853  12.89 9.892603e-05    1.037    0.036
       130  -7.5821    152.3271    157.3297   9.9571806602e+01   2.1016106030e+01    0.1342627    0.1051273   8.72 0.0007050976    1.707    0.414
       131  -7.7941    188.6922    148.3544   9.0626189969e+01   1.5413115433e+01    0.1341532    0.1102454 -83.69 0.0004417092    1.721    0.419
       132  -7.6368    133.4996    147.9999   1.0180548912e+02   2.6268519837e+01    0.1861363    0.1177333 -26.49 0.0008106219    2.574    0.612
       133  -9.1198     67.3586    144.8665   1.1616970298e+02   3.7465845016e+01    0.4213642    0.2123353  59.65  0.002071621    2.127    0.530
       134  -8.1334    228.1214    143.8612   8.2618865160e+01   8.2484031599e+00     0.183518    0.1779319 -11.99 0.0004021362    1.232    0.188
       135  -7.6894     68.5035    134.4669   1.1445321956e+02   3.9559056605e+01    0.1255478     0.109869 -83.60 0.0001118196    1.077    0.072
       136  -8.0273    131.8147    125.7820   9.7745870632e+01   3.0989617212e+01    0.2340732    0.1615032  -0.69 0.0009528359    2.830    0.647
       137  -7.9022     12.0264    121.2505   1.2663916813e+02   4.8339380069e+01    0.1256366   0.09512294  37.49 0.0008907117    1.594    0.373
       138  -8.2859    245.4596    118.4792   7.4134018744e+01   8.2735711606e+00    0.1368641    0.1198313  -4.31 9.543483e-05    1.013    0.013
       139  -7.4579    119.0826    118.8085   9.9233768609e+01   3.4861441971e+01    0.1889478    0.1078755  46.35 0.0004962342    1.760    0.432
       140  -7.5877    100.4922    118.5112   1.0375288766e+02   3.8240527866e+01    0.2802035    0.1313551  24.88 0.0008095959    5.586    0.821
       141  -7.4546    142.6224    111.7085   9.2017603432e+01   3.1634047355e+01    0.1503816    0.1166664  10.90 0.0003774808    1.738    0.425
       142  -7.6170      1.6528    110.6667   1.2827861697e+02   5.1369843725e+01    0.1124974   0.06712814 -53.99 0.0007048942    1.769    0.435
