#   1 NUMBER                 Running object number                                     
#   2 MAG_AUTO               Kron-like elliptical aperture magnitude                    [mag]
#   3 X_IMAGE                Object position along x                                    [pixel]
#   4 Y_IMAGE                Object position along y                                    [pixel]
#   5 X_WORLD                Barycenter position along world x axis                     [deg]
#   6 Y_WORLD                Barycenter position along world y axis                     [deg]
#   7 A_WORLD                Profile RMS along major axis (world units)                 [deg]
#   8 B_WORLD                Profile RMS along minor axis (world units)                 [deg]
#   9 THETA_WORLD            Position angle (CCW/world-x)                               [deg]
#  10 FWHM_WORLD             FWHM assuming a gaussian core                              [deg]
#  11 ELONGATION             A_IMAGE/B_IMAGE                                           
#  12 ELLIPTICITY            1 - B_IMAGE/A_IMAGE                                       
         1 -14.9475    160.0298     41.5958   8.3222298651e+01   4.0208124006e+01     1.420127     1.019325 -12.22  0.004067748    1.454    0.312
         2 -14.5114    172.4252      8.5867   6.9968515872e+01   4.0703439775e+01     1.055682    0.9794502  14.42  0.003926795    1.103    0.093
         3 -12.2240    168.0632    244.0207   1.2555785979e+02   7.6336401108e+00    0.1636268    0.1188206  26.71 0.0003393114    1.010    0.010
         4 -19.9858     79.6190    192.1799   1.3679768221e+02   2.6697737098e+01     12.38242     6.108523 -68.45   0.06787751    2.307    0.567
         5 -12.4386    123.4366    166.3555   1.2382288348e+02   2.5352345921e+01    0.3988329    0.2870326 -85.68  0.001172174    2.087    0.521
         6 -13.8665    138.2666    172.0583   1.2147730527e+02   2.2019336639e+01    0.5886374    0.4697417  64.14  0.002931213    1.553    0.356
         7 -13.7731    130.6505    170.8048   1.2292867599e+02   2.3432402815e+01    0.7432705    0.3116127  40.46  0.002538691    2.126    0.530
         8 -13.4890    144.6990    169.2258   1.1963159615e+02   2.1474032779e+01    0.4378682     0.336475  27.23  0.001713424    1.193    0.162
         9 -13.1056    148.0146    173.0117   1.1956244107e+02   2.0308882476e+01    0.3879825    0.2463191  45.82  0.001534451    1.552    0.356
        10 -11.2729     26.0637    172.4336   1.4690197930e+02   3.6132593920e+01    0.2335469    0.1796739  50.30 0.0009436708    1.161    0.139
        11 -12.6623    186.1460    168.5982   1.1112479595e+02   1.4762472413e+01    0.3232022    0.2421643 -43.64  0.001922696    1.648    0.393
        12 -11.9994    201.9895    165.7327   1.0763797699e+02   1.2561769329e+01    0.2677312    0.2491997  88.79  0.001242951    1.760    0.432
        13 -11.2862     22.4517    221.1161   1.5003517012e+02   2.7609589990e+01    0.1477979    0.1198214 -70.92  0.001254158    1.530    0.346
        14 -11.8685    119.0245    213.8868   1.3107017895e+02   1.8032455859e+01    0.3682241    0.2543804  25.16  0.001468907    1.388    0.280
        15 -11.4757    223.7697    163.6988   1.0344654291e+02   9.3211512501e+00    0.2142053    0.1767257 -21.50 0.0004572483    1.319    0.242
        16 -11.3285     23.6948    215.2948   1.4957112679e+02   2.8467549725e+01    0.1369645    0.1245789  75.16 0.0004397396    1.285    0.222
        17 -10.9846      7.9623    239.8444   1.5314015581e+02   2.5877060725e+01    0.1127147   0.07651942  75.55 0.0008813808    1.298    0.229
        18 -11.8339     17.4556    153.8900   1.4773578414e+02   4.0651887751e+01    0.3084298    0.1666752  89.73  0.001490611    1.670    0.401
        19 -13.0382     11.4134    206.1299   1.5150834509e+02   3.1072037679e+01    0.4002075    0.2376483  24.05  0.002266183    1.906    0.475
        20  -9.9789     13.7671    238.9716   1.5215363431e+02   2.5532139196e+01   0.09374055   0.06452868  79.73 0.0003109882    1.352    0.260
        21 -10.5748     22.9629    156.0621   1.4655540676e+02   3.9750641354e+01    0.1710594    0.1445419  76.39 0.0004970324    1.036    0.035
        22 -14.0277    134.0896    146.0604   1.1783339435e+02   2.7377255196e+01     1.179797    0.3502167 -53.81  0.003544354    5.026    0.801
        23 -10.3353    183.3882    150.1922   1.0808584978e+02   1.7976053880e+01    0.1716564    0.1224334 -42.59 0.0003873624    1.610    0.379
        24 -10.5185      7.3790    149.7410   1.4992165384e+02   4.2271581268e+01    0.2376381     0.133376 -38.89  0.001323311    2.659    0.624
        25 -12.4544    174.2757    148.5851   1.0957749219e+02   1.9846477743e+01    0.3105313    0.2934529 -38.76  0.001385243    1.282    0.220
        26 -14.2979    136.4135    126.7452   1.1329928893e+02   3.0645628082e+01     1.360865     0.394316 -47.77  0.004354107    3.746    0.733
        27 -11.6710    139.5681    148.7979   1.1709849717e+02   2.5928893542e+01    0.2464858    0.1790627  36.84 0.0003733794    1.285    0.222
        28 -11.9441     27.3507    145.6701   1.4469698380e+02   4.1605475189e+01    0.2914068    0.2020933 -69.11  0.001374352    1.376    0.273
        29 -11.4990    176.4891    142.9308   1.0795528482e+02   2.0354909619e+01    0.1976577    0.1298121 -35.08 0.0006808786    1.552    0.356
        30 -13.3352    153.6621    145.8941   1.1338234481e+02   2.3979530878e+01    0.4411355    0.3023533  41.49  0.002330491    1.399    0.285
        31 -10.1997     25.8436    229.2201   1.4974891657e+02   2.6004095051e+01    0.1042539   0.08868381  68.62 0.0002609125    1.214    0.177
        32 -10.4765     23.2253    204.7159   1.4919934965e+02   3.0327421648e+01    0.2053389    0.1417315 -30.28  0.001365819    2.571    0.611
        33 -11.9159    140.7101    199.6688   1.2505910636e+02   1.7189359191e+01    0.2654274    0.1826204  25.46 0.0005135417    1.335    0.251
        34 -11.4530    123.3664    197.2742   1.2823413926e+02   2.0039815731e+01    0.3365849     0.238206 -25.95  0.002054337    1.881    0.468
        35 -12.5149    160.6545    128.0380   1.0802479272e+02   2.5824097780e+01     0.345346    0.3055699 -56.69  0.001902055    1.368    0.269
        36 -12.1182    136.1710    197.1235   1.2562090511e+02   1.8236686192e+01    0.3731202    0.2452573  65.54  0.002037016    2.323    0.570
        37 -12.3195    210.3403    187.7793   1.1014331815e+02   8.4205550995e+00    0.2503688    0.1801909 -49.69  0.001314502    2.310    0.567
        38 -12.9221    148.4637    188.6509   1.2193691295e+02   1.7734906273e+01    0.3543025      0.23587  17.18  0.002028861    1.629    0.386
        39 -12.9156     30.8021    182.4500   1.4648303685e+02   3.3748796335e+01    0.6254162    0.2614121  61.27 0.0003100038    2.311    0.567
        40 -11.7695     27.6431    179.9729   1.4701305373e+02   3.4511256267e+01    0.2889518     0.215029 -28.33   0.00193952    2.077    0.519
        41 -11.4785    123.8672    185.4318   1.2655886366e+02   2.1928317193e+01    0.2536091    0.1738048  58.52  0.001463078    1.694    0.410
        42 -14.4774    143.9708    144.1779   1.1519756717e+02   2.6005382907e+01    0.9067593    0.5810226 -66.43  0.004085346    2.524    0.604
        43 -13.9841    196.7757    172.5343   1.0985976318e+02   1.2481984806e+01    0.7946962    0.4469712 -47.43  0.002720698    2.567    0.610
        44 -12.8725    205.5003    180.0211   1.0963641631e+02   1.0121097805e+01    0.3556975    0.2653033 -43.06  0.001723555    1.823    0.451
        45 -10.6746    205.5222    110.1839   9.4919092607e+01   1.9844744236e+01    0.2447562     0.189187  36.90   0.00065116    1.306    0.234
        46 -13.4120    208.8083    178.0042   1.0869197938e+02   9.8666199105e+00    0.4349678    0.3223763 -15.73  0.001839048    1.286    0.222
        47 -12.2515     22.0071    243.2819   1.5091587902e+02   2.4181210137e+01    0.1787522       0.1136  84.04  0.001483749    1.539    0.350
        48 -12.6880    157.3093    178.3570   1.1852701813e+02   1.7968687625e+01    0.2619607    0.2187586 -41.77 0.0008155262    1.389    0.280
        49 -11.2349    154.7112    239.9365   1.2739902537e+02   9.8156898536e+00    0.1425304    0.1188795  29.93  0.001148222    1.149    0.130
        50 -13.2843    178.6030    173.7927   1.1351624113e+02   1.5240014283e+01    0.2816429    0.2665334   4.34  0.001387357    1.232    0.188
        51 -13.5980    177.4972    169.9721   1.1304663685e+02   1.5984596136e+01    0.4887136    0.3334137  16.60  0.002394452    1.472    0.321
        52 -10.3396    103.8376     81.8968   1.1061943178e+02   4.5964653323e+01    0.2138219    0.1922739  -3.59 0.0003971091    1.165    0.142
        53 -12.1590    168.4306    175.8402   1.1586968165e+02   1.6578790468e+01    0.2330859    0.1580959  33.32 0.0006187197    1.291    0.225
        54 -14.2857    149.1434     56.4389   9.0473972720e+01   4.0737106462e+01    0.9693298    0.8283972  20.41  0.000956591    1.200    0.167
        55 -11.5461    149.3783     35.8869   8.3205897355e+01   4.3636714256e+01    0.6290032    0.3531862 -86.96   0.00212053    3.587    0.721
        56 -10.4912    159.9914    247.2843   1.2729874057e+02   8.2849454921e+00     0.172066    0.1218571   3.16   0.00106338    1.595    0.373
        57 -12.9748    163.6972     33.1229   7.9658447963e+01   4.0363389538e+01    0.4375665    0.3746753 -10.32 0.0007983982    1.158    0.136
        58 -11.2692     13.3958     59.8576   1.3885989859e+02   6.2740363719e+01    0.1847702    0.1679882  60.55  0.000486229    1.271    0.213
