#   1 NUMBER                 Running object number                                     
#   2 MAG_AUTO               Kron-like elliptical aperture magnitude                    [mag]
#   3 X_IMAGE                Object position along x                                    [pixel]
#   4 Y_IMAGE                Object position along y                                    [pixel]
#   5 X_WORLD                Barycenter position along world x axis                     [deg]
#   6 Y_WORLD                Barycenter position along world y axis                     [deg]
#   7 A_WORLD                Profile RMS along major axis (world units)                 [deg]
#   8 B_WORLD                Profile RMS along minor axis (world units)                 [deg]
#   9 THETA_WORLD            Position angle (CCW/world-x)                               [deg]
#  10 FWHM_WORLD             FWHM assuming a gaussian core                              [deg]
#  11 ELONGATION             A_IMAGE/B_IMAGE                                           
#  12 ELLIPTICITY            1 - B_IMAGE/A_IMAGE                                       
         1 -12.7160    201.7136     34.3578   5.8176798171e+01   3.0235268760e+01    0.8690811    0.5324658 -78.31   0.00460085    1.700    0.412
         2 -13.9700    213.5781     20.8970   5.3946354814e+01   2.9159980301e+01     1.430055     1.031599  31.70  0.008289495    2.130    0.531
         3 -10.5904      2.0000     10.9873   1.1636906753e+02   7.7588108849e+01    0.4486612   0.06356246 -60.39  0.001245995    6.864    0.854
         4  -9.8531      2.3317      2.3102   1.1084774793e+02   7.9197664632e+01     0.200738   0.09172101 -43.99  0.001033369    1.939    0.484
         5 -10.5078    237.1824      1.6859   4.8378323484e+01   2.6283336305e+01    0.3555598    0.1432901  80.58  0.001614478    2.499    0.600
         6 -10.2976     53.4784    242.2146   1.3187201362e+02   1.8194403831e+01    0.3064955    0.1555957  62.25  0.001115273    2.077    0.518
         7 -14.0525    135.4484    247.9274   1.1457727337e+02   7.0986044352e+00     2.151685    0.4256465  31.58  0.007492493    3.914    0.744
         8 -15.0141     10.5295    206.8799   1.3997062280e+02   2.9567881900e+01     10.83349     6.553876  51.73   0.01067385    1.308    0.235
         9 -12.4693     12.4442    246.7018   1.4091445796e+02   2.1543532478e+01    0.7860215    0.4512323 -77.47 0.0005972324    2.006    0.502
        10 -15.5510     42.1802    199.0147   1.3157369352e+02   2.8174236800e+01     11.94568     4.200449  65.77   0.03920833    4.523    0.779
        11 -13.2901      4.6238    248.7636   1.4257751380e+02   2.1867070990e+01     1.537345     1.178136  26.63   0.01029843    1.370    0.270
        12 -12.8728     30.5827    219.6920   1.3577732044e+02   2.5004284391e+01    0.4509865    0.3749832 -41.61 0.0008024072    1.629    0.386
        13  -9.9457     73.5516    206.6987   1.2421562418e+02   2.2714045083e+01    0.2197825    0.1918557 -26.82  0.000934937    1.424    0.298
        14 -13.9239     38.1422    210.8386   1.3342768823e+02   2.6056140011e+01     1.111655    0.7380756  45.54   0.00482687    1.211    0.174
        15  -9.8715    192.4868    193.4859   9.5095778599e+01   7.5349772099e+00    0.2485076    0.1098458 -54.12 0.0008104221    5.822    0.828
        16 -11.6477     58.7234    188.7120   1.2626231410e+02   2.8541764229e+01    0.3865359    0.2876178 -30.37  0.001323083    1.793    0.442
        17  -8.9395     54.3111    184.6512   1.2706246356e+02   3.0019216285e+01     0.142194    0.1226457  50.95 0.0008355169    1.005    0.005
        18  -9.5671     50.9433    181.7420   1.2771079546e+02   3.1103787265e+01    0.3478395    0.1592622  54.44  0.001176431    2.227    0.551
        19 -11.6988     64.7609    181.8228   1.2385697426e+02   2.9348695318e+01    0.3106361    0.2582276 -34.64 0.0008430827    1.471    0.320
        20 -11.1872    103.3765    236.7113   1.2024685995e+02   1.3068058822e+01    0.2115556    0.1912576 -12.32 0.0009986045    1.310    0.237
        21 -10.6992    103.8301    172.5535   1.1177567655e+02   2.5676874895e+01    0.5716654    0.1441636  42.26  0.001704492    3.663    0.727
        22 -10.9746     74.9572    170.7064   1.1956836329e+02   3.0548898048e+01    0.2591958    0.2521865  12.37 0.0004163355    1.133    0.118
        23  -9.7733    227.7588    170.7390   8.4865572534e+01   5.8281392400e+00    0.1843987   0.08464493 -43.38 0.0008888773    2.410    0.585
        24 -13.2229     61.6757    167.8600   1.2307315322e+02   3.3065560993e+01     0.529981    0.3162084 -42.53   0.00135932    2.092    0.522
        25 -12.1908     56.5695    127.7979   1.1883224751e+02   4.3886153363e+01     2.470093    0.8304871 -77.85  0.004888112    9.271    0.892
        26 -12.7384     67.6397    144.0008   1.1780529395e+02   3.8159671733e+01     0.919769    0.6249572  71.87    0.0029224    1.745    0.427
        27  -9.6150     40.4363    234.5666   1.3432523316e+02   2.1045090137e+01    0.3435079    0.1491623  58.13  0.001578493    2.191    0.544
        28  -9.9459     96.6085    147.5918   1.0944364915e+02   3.2628791584e+01    0.3314627    0.2830763 -30.09 0.0007529238    1.322    0.244
        29  -9.3848     99.5195    143.9737   1.0788358669e+02   3.2976438512e+01    0.3180039    0.1981474 -23.65  0.001220654    2.551    0.608
        30 -11.9730     84.8153    146.4369   1.1279185891e+02   3.4892199509e+01    0.3048911    0.2710914 -42.72 0.0004769326    1.223    0.182
        31 -11.1047     70.5272    250.0078   1.2867049429e+02   1.4859342930e+01    0.3060762    0.1663608  28.58 0.0008473284    1.492    0.330
        32  -9.6089    150.3136    228.6638   1.0906245736e+02   8.0636584035e+00    0.1179341   0.08918938  50.97 0.0006349951    1.690    0.408
        33  -9.8228    108.3622    133.7051   1.0314582965e+02   3.3758235181e+01    0.4234455     0.371903 -87.76  0.001379126    1.289    0.224
        34 -10.5464     95.7680    130.8468   1.0631550089e+02   3.6788710561e+01    0.3055631    0.2587651  -1.66   0.00065392    1.400    0.286
        35 -10.1334     51.9998    227.2660   1.3121195764e+02   2.1181848462e+01    0.4407436    0.1815429  67.30  0.001337691    3.399    0.706
        36  -9.3600    106.0472    121.6929   1.0109025448e+02   3.7003247904e+01    0.2121137    0.1889106  36.58 0.0002936952    1.095    0.087
        37 -10.3440    168.1680    113.0042   8.3314078304e+01   2.5711005886e+01    0.3662686    0.2783237 -76.38  0.001286359    1.796    0.443
        38  -9.3483    204.3410    110.6596   7.6291919403e+01   1.8794267575e+01    0.2825715    0.1621875  42.01  0.001378746    1.961    0.490
        39 -12.2571     82.1154    162.3229   1.1626108342e+02   3.1478166281e+01     1.194332    0.6020543  53.13    0.0029469    2.249    0.555
        40  -9.5266    159.6242     79.1846   7.6141199464e+01   3.3663149953e+01    0.2021989    0.1406634 -26.20 0.0005216931    1.617    0.382
        41 -10.6068      2.0000     51.4559   1.2967704927e+02   6.8613701270e+01    0.4233342   0.06706403 -72.97  0.001143759    5.810    0.828
        42 -12.4317    195.7986     39.3900   6.0030334535e+01   3.0959221569e+01    0.8234405     0.508808 -65.71  0.004279282    1.629    0.386
        43 -10.9630     28.4436    249.3540   1.3766219279e+02   1.9545339262e+01    0.5366125    0.2380009  23.92  0.002852117    2.126    0.530
        44 -12.0947     83.4184    246.9028   1.2561856064e+02   1.3848026838e+01    0.4165381    0.2915135  15.44  0.001614249    1.493    0.330
        45 -10.2360      2.0000     23.4279   1.2190521179e+02   7.5028769717e+01    0.2637376   0.06475253 -65.26 0.0009276759    3.878    0.742
        46  -9.8420    189.6625     15.0206   5.4281262440e+01   3.5142313902e+01    0.1833358     0.150947 -52.54 0.0007100626    1.117    0.105
        47 -11.6909     38.0034    244.4823   1.3539356523e+02   1.9453716703e+01    0.5549275    0.3788171  71.73  0.003345091    1.468    0.319
        48 -11.5767     31.6410    244.2551   1.3675779034e+02   2.0147800149e+01    0.5006713    0.2151336  39.45  0.002781239    1.629    0.386
