#   1 NUMBER                 Running object number                                     
#   2 MAG_AUTO               Kron-like elliptical aperture magnitude                    [mag]
#   3 X_IMAGE                Object position along x                                    [pixel]
#   4 Y_IMAGE                Object position along y                                    [pixel]
#   5 X_WORLD                Barycenter position along world x axis                     [deg]
#   6 Y_WORLD                Barycenter position along world y axis                     [deg]
#   7 A_WORLD                Profile RMS along major axis (world units)                 [deg]
#   8 B_WORLD                Profile RMS along minor axis (world units)                 [deg]
#   9 THETA_WORLD            Position angle (CCW/world-x)                               [deg]
#  10 FWHM_WORLD             FWHM assuming a gaussian core                              [deg]
#  11 ELONGATION             A_IMAGE/B_IMAGE                                           
#  12 ELLIPTICITY            1 - B_IMAGE/A_IMAGE                                       
         1 -14.3249      5.8425     76.2843   1.1656098518e+02   5.9273649648e+01      2.26651    0.8262111 -66.45   0.01082871    2.065    0.516
         2 -13.6892     24.0020     49.6857   1.0324635859e+02   6.3898415283e+01     1.231381    0.7281178 -29.60  0.007025553    1.598    0.374
         3 -15.4827      9.1162     27.0800   1.0283503476e+02   6.9350097267e+01     2.756231    0.9484213 -49.15   0.01386508    2.074    0.518
         4 -13.1854     30.5875     10.5332   8.4720770922e+01   7.0234437853e+01     1.534917     0.489717 -34.47  0.006759696    2.804    0.643
         5 -14.5723     44.2186     41.5408   9.1770747480e+01   6.3526358461e+01     2.816203     1.269936 -39.52   0.01123158    1.908    0.476
         6 -14.4221     96.5932     71.5371   8.2927819859e+01   4.9615946695e+01     2.288832     1.535897  -6.31  0.002136153    2.134    0.531
         7 -14.6779     37.3472     84.7510   1.0710228076e+02   5.5091012256e+01     2.292075     1.089916 -51.44   0.01107777    1.703    0.413
         8 -14.4872     79.4200     70.3211   8.8237249494e+01   5.2908212097e+01     2.943113     1.542451 -24.52   0.01098719    2.881    0.653
         9 -14.0864     70.1472     56.5609   8.6923008251e+01   5.7150795912e+01     1.429089     1.244981 -31.86  0.005707558    1.085    0.079
        10 -12.8015    138.4151      4.1492   4.7777279356e+01   4.9748905420e+01     1.349961    0.3234306  58.74  0.004690187    3.001    0.667
        11 -12.7845     80.6497     32.2061   7.3693655630e+01   5.9555685044e+01    0.8118162    0.6521744  33.69   0.00407361    1.224    0.183
        12 -11.8152     73.3959      1.5034   6.2220827854e+01   6.4645506048e+01    0.2629819    0.1469231  50.28 0.0005789306    1.704    0.413
        13 -13.2530     83.6487     22.6241   6.8579503951e+01   6.0314668207e+01    0.7931207     0.546985  49.66 0.0005437022    1.531    0.347
        14 -13.0051    123.8331     10.3661   5.2803687419e+01   5.2778232706e+01    0.9529087    0.4036632  50.25 0.0003270334    1.998    0.499
        15 -12.3522     75.8064     13.3293   6.7041224389e+01   6.2952883268e+01    0.3370045    0.2781451  30.81  0.001042229    1.142    0.124
        16 -14.9768     87.5557      6.8868   6.0354306460e+01   6.1305386646e+01     3.084303     1.282383  58.58    0.0130769    2.584    0.613
        17 -11.3864    153.6206     20.7491   5.0803483290e+01   4.4270866029e+01    0.5181432    0.2485478 -37.33  0.001900746    2.176    0.540
        18 -11.7138    149.9847     21.5009   5.1697466248e+01   4.5117006431e+01    0.4497361    0.3970085 -43.71  0.002268114    1.225    0.184
        19 -13.0778    185.8850     12.8408   4.3646780510e+01   3.6819912334e+01     1.072192     0.626567 -23.72  0.005195332    1.923    0.480
        20 -12.5685    193.1171      6.2592   4.0988454566e+01   3.5655019662e+01    0.5863078    0.4445226 -37.78  0.003074817    1.377    0.274
        21 -11.5971     64.7205     17.9307   7.3218335060e+01   6.4368506874e+01    0.4324539    0.2778893  24.63  0.001392948    1.487    0.327
        22 -10.1136    132.9637     15.5085   5.2841487628e+01   5.0038447245e+01    0.4238138    0.1242342 -32.91   0.00149285    3.347    0.701
        23 -12.3957    175.2271     14.1001   4.5389145777e+01   3.9419621501e+01    0.5635518    0.3585027  35.83  0.002367045    1.877    0.467
        24 -11.9987    178.4052      8.7740   4.3406371202e+01   3.9142313359e+01    0.3445359    0.2088099  39.36  0.001465223    1.927    0.481
        25 -11.1605    188.3335      5.3351   4.1259184506e+01   3.6951304002e+01    0.3218349    0.2328255  23.51   0.00134125    1.829    0.453
        26 -11.7421    169.3127     10.5478   4.5128974096e+01   4.1299637181e+01    0.3857695    0.2297558  68.07  0.001428648    1.503    0.335
        27 -11.1745    156.0379     10.0390   4.6903462260e+01   4.4754979320e+01    0.2896839    0.2129398 -55.13   0.00098196    1.515    0.340
        28 -12.1822    149.4597      8.4837   4.7428226990e+01   4.6578975747e+01    0.7752396    0.3781137  74.04  0.002438513    2.104    0.525
        29 -13.2318    104.4385      4.8650   5.4974674544e+01   5.7824208919e+01    0.7501931    0.6051245 -31.74  0.003508504    1.418    0.295
        30 -10.3286     49.2886      4.6246   7.2918673060e+01   6.8498373524e+01    0.2445512     0.198755 -12.62   0.00132004    1.201    0.167
        31 -11.4324    168.2560      2.5024   4.2830260381e+01   4.2322386714e+01    0.2999924    0.2687519  56.05  0.001841059    1.115    0.103
        32  -9.7752    211.9149      1.5144   3.7922534654e+01   3.1479049963e+01    0.1929431    0.1148748  77.16 0.0004639463    1.517    0.341
        33 -10.7114    114.2810     97.1331   8.5334428645e+01   4.0692927476e+01    0.3524595    0.2747941 -45.73 0.0009783064    1.246    0.197
        34 -14.6626     60.3993     71.8579   9.5464224935e+01   5.5400068717e+01     1.751886     1.104942  32.28  0.008106585    1.752    0.429
        35 -11.3316    188.7456     94.2348   6.6374993285e+01   2.4030014012e+01    0.4485029    0.3401558 -59.30  0.001670606    1.483    0.326
        36 -12.0052    120.7787     90.1705   8.1464508086e+01   4.0848976513e+01    0.8359233     0.623502  35.91  0.003923554    1.398    0.284
        37 -12.2805    125.1714     72.5462   7.4769020833e+01   4.3449118585e+01    0.8557855    0.5462593  53.98  0.003725459    1.675    0.403
        38 -11.9430    128.2747     81.9154   7.6884775039e+01   4.0912055356e+01    0.5121133    0.4629602 -64.86  0.001387176    1.224    0.183
        39 -13.4538    119.5444     79.1570   7.8452473043e+01   4.3395868846e+01     1.133235     0.917848 -79.19  0.005383169    1.642    0.391
        40 -10.9802    112.9324     81.9415   8.1232558250e+01   4.4230291661e+01    0.3639333    0.3287137  74.34 0.0009372397    1.293    0.227
        41 -10.2453      2.3917    171.1936   1.2759665976e+02   3.7818079092e+01    0.1669395   0.08252317  87.89  0.000908801    1.661    0.398
        42 -11.6872    249.0987     86.0720   5.4353514630e+01   1.1603162766e+01    0.4402739    0.3161021 -39.49  0.001815973    1.220    0.181
        43 -11.5031    152.0233     72.8695   6.8064067837e+01   3.7020507245e+01    0.5926122    0.4605776 -31.57  0.002117577    1.310    0.236
        44 -12.5347    144.6588     76.0141   7.0805124933e+01   3.8235254281e+01      0.82064    0.6573004 -42.33  0.003229656    1.260    0.206
        45  -9.8429    152.3237     88.4253   7.2695787802e+01   3.4003209128e+01    0.2132237    0.1549651  61.30 0.0009347621    1.513    0.339
        46 -10.4043    148.5102     80.5313   7.1254608964e+01   3.6452025730e+01    0.2852378    0.2703878 -30.29 0.0006018957    1.053    0.050
        47  -9.8964    234.4763     76.0341   5.3940341297e+01   1.6345647963e+01    0.2109735    0.1962399  84.05 0.0008646487    1.141    0.124
        48 -10.0576    250.0830     74.0011   5.1389695573e+01   1.3253407800e+01    0.2166214    0.1862725 -44.60 0.0008493207    1.020    0.019
        49 -10.3283    170.8363     72.4077   6.3794098398e+01   3.2404237278e+01     0.420427    0.2743145  71.56  0.001757375    1.855    0.461
        50 -10.0794    182.6466     71.8216   6.1280648523e+01   2.9526121488e+01    0.2662969    0.2164539  73.62 0.0005666612    1.317    0.241
        51 -11.5525    117.2348     67.6690   7.5389580355e+01   4.6139534768e+01    0.4720254    0.3719682  16.33  0.001442094    1.424    0.298
        52 -10.1091    118.5590     63.4711   7.3600140710e+01   4.6623997605e+01    0.2552322    0.2235719  24.70 0.0005357756    1.138    0.121
        53 -11.9475     24.2105     66.2473   1.0763313004e+02   6.0366605777e+01    0.3951112    0.2089404 -39.37  0.002097088    1.697    0.411
        54 -10.2183    146.7499     66.6011   6.7331472526e+01   3.9435623783e+01    0.3119627    0.2459267  12.98  0.001154993    1.516    0.340
        55 -11.2797    214.4912     60.9946   5.2962681526e+01   2.3349802799e+01    0.4129285    0.2820126 -28.96  0.001998613    1.503    0.334
        56 -10.5416    170.1473     63.0047   6.1113715679e+01   3.4169562653e+01    0.3007054    0.2112039  52.97 0.0003834621    1.396    0.284
        57  -9.0795    132.7178     61.2985   6.9055597273e+01   4.3752428934e+01     0.147982    0.1212392 -72.75 0.0002028455    1.545    0.353
        58  -9.1436    190.2937     59.6063   5.6395263240e+01   2.9579753279e+01    0.1638516    0.1088438 -62.94 0.0007006166    1.787    0.440
        59 -12.4595    124.7751     57.0185   6.9679851731e+01   4.6348965524e+01    0.3657197    0.3006527  37.04 0.0004360398    1.192    0.161
        60 -10.6267    227.5406     57.2353   5.0199150915e+01   2.0801501444e+01    0.2859157    0.2445432  74.43 0.0006382326    1.205    0.170
        61 -11.4493    174.6287     56.4458   5.8267405259e+01   3.4072371180e+01    0.2713826    0.2608889  88.52 0.0003164719    1.029    0.028
        62 -12.4649    133.7101     53.9354   6.6314899860e+01   4.4751865486e+01    0.5498952    0.3285762  61.07 0.0009925609    1.844    0.458
        63  -9.5846    209.0359     55.4683   5.2292077460e+01   2.5515222468e+01    0.2074917    0.1098075  40.64 0.0008088353    2.463    0.594
        64 -10.6628    154.0105     53.1520   6.1366473076e+01   3.9851875158e+01    0.5694823    0.2716099  39.34   0.00205605    2.497    0.600
        65 -11.7580     28.4048    154.3628   1.2039704917e+02   3.9381026052e+01    0.3807513    0.2461234 -16.63  0.001953703    2.870    0.652
        66 -11.3200    145.3994     50.5484   6.2402242585e+01   4.2420623196e+01     0.369519    0.3108977 -37.23 0.0008490379    1.227    0.185
        67 -11.2521     99.2675     50.0463   7.4570471036e+01   5.3098266326e+01    0.5535725    0.2799554  36.85  0.002302455    2.075    0.518
        68  -9.2981    166.3020     62.7138   6.1801845278e+01   3.5196061471e+01    0.2158838     0.138008  48.66 0.0002128542    1.547    0.353
        69 -10.9336    137.6496     48.5621   6.3520139368e+01   4.4643490294e+01    0.3791589    0.2951099 -54.52    0.0014133    1.482    0.325
        70 -10.7388    139.8113     43.6142   6.1320860023e+01   4.4849801424e+01    0.4660709    0.2750368  64.14  0.001580229    1.824    0.452
        71  -9.5594    126.9726     48.7322   6.6210248034e+01   4.7189191304e+01    0.2075851    0.1823491  40.96 0.0004358288    1.093    0.085
        72 -10.9256    175.6693     45.0465   5.4640729474e+01   3.5501082687e+01    0.5061818    0.3764056 -19.54   0.00247659    1.515    0.340
        73 -11.1239    181.7540     43.2709   5.3082831580e+01   3.4181284888e+01    0.3847561    0.2489939  59.71 0.0003535739    1.477    0.323
        74 -11.5049    157.3211     43.5637   5.7583975074e+01   4.0437780474e+01    0.3766504    0.2702172  48.43 0.0007717339    1.346    0.257
        75 -11.2690    122.4082     43.6274   6.5563837492e+01   4.9045055551e+01    0.3017215    0.2571957 -13.69 0.0006550343    1.196    0.164
        76 -10.7162    203.8491     43.2752   4.9742609167e+01   2.8554061738e+01    0.4556566    0.2839735  47.96  0.001905854    1.745    0.427
        77 -11.2124    197.3312     40.8832   5.0006427362e+01   3.0524048389e+01    0.3251629    0.3035542 -59.65  0.001268155    1.054    0.051
        78 -12.6428    216.7546     38.7043   4.6844844211e+01   2.5984693225e+01    0.8112165     0.303091  59.73  0.003171203    2.547    0.607
        79 -11.9296    202.3165     37.7329   4.8444834980e+01   2.9688383653e+01    0.8513708    0.4274825  69.65  0.003625593    2.008    0.502
        80  -9.5504    102.8186     43.7802   7.1123242602e+01   5.3387977395e+01    0.1780236    0.1670218 -53.67 0.0003119528    1.273    0.214
        81  -9.0619    172.3120     40.2960   5.3777734031e+01   3.7029777769e+01     0.150253    0.1096463  32.03 0.0003097457    1.597    0.374
        82 -10.5277    198.8033    154.2041   7.9209558234e+01   1.0400898854e+01    0.2434066    0.1721096 -84.85 0.0009606023    2.878    0.653
        83 -11.3273     18.4896    153.6789   1.2268489961e+02   4.0431188696e+01    0.2858141     0.149791  71.91  0.001502679    1.942    0.485
        84 -10.4325    233.0205    154.0000   7.2610111403e+01   3.6831500569e+00    0.2206233   0.07826243  45.49 0.0008039623    2.953    0.661
        85  -9.7045    139.4584    152.4984   9.2168901829e+01   2.3053420426e+01    0.1499862    0.1461832  57.88 0.0002403522    1.005    0.005
        86 -13.2047     49.9074    141.6425   1.1341552939e+02   4.0157447288e+01    0.8920088    0.6614693  37.06  0.005176836    1.500    0.333
        87 -11.0376    214.2312    142.9139   7.3594313400e+01   9.2806710833e+00    0.4123675    0.1878771  43.74  0.001630063    2.241    0.554
        88 -12.2836     76.4521    138.8686   1.0582846666e+02   3.7383048251e+01     0.798291    0.2521411 -62.43  0.002673592    3.167    0.684
        89  -9.9160    140.9487     34.7389   5.8005275353e+01   4.5796472828e+01    0.2958137    0.1771842  12.46  0.001164452    2.569    0.611
        90 -10.2196    240.6522     34.1468   4.3076618182e+01   2.0961460802e+01    0.2314134    0.1840794  69.63 0.0005445378    1.311    0.237
        91 -11.0760    176.5940     33.5028   5.1004133272e+01   3.6819279445e+01    0.3083005    0.2563745  80.89 0.0006481598    1.181    0.153
        92 -10.0057     97.2824     33.8707   6.8939279829e+01   5.6038890513e+01    0.2671854    0.1897592  37.37 0.0008161773    1.330    0.248
        93  -9.5174    249.7710     32.0139   4.1710482160e+01   1.9204528308e+01    0.1707991   0.09655355 -35.66 0.0005062324    1.620    0.383
        94 -10.5975    151.2102     31.8071   5.4918648691e+01   4.3579789997e+01    0.4710821    0.2548338  57.57  0.002055316    1.691    0.408
        95  -9.7039    216.1713     28.7596   4.4359552202e+01   2.7407208609e+01    0.1828399     0.159908  39.46 0.0009880341    1.369    0.270
        96 -10.1624    104.2472     29.4216   6.5099551927e+01   5.5163371807e+01    0.3440025    0.1529439  40.05  0.001271683    2.231    0.552
        97  -9.9799    108.9666     27.8479   6.3164866523e+01   5.4321243719e+01    0.2899719    0.1891406  40.52  0.001442066    1.424    0.298
        98 -10.4979    167.8725     27.5418   5.0583855736e+01   3.9815247712e+01    0.3774997    0.2352172  80.61  0.001709848    1.775    0.437
        99 -11.7279    241.6190     22.5791   4.0301407182e+01   2.2186324862e+01    0.4532672    0.2933687 -84.83 0.0008580073    1.543    0.352
       100 -10.5483    236.5072     21.4799   4.0508636745e+01   2.3480180192e+01    0.2607656    0.1792758  83.71  0.001011093    1.407    0.289
       101 -11.8444     33.8690    135.8624   1.1688228514e+02   4.3232055094e+01    0.2645859    0.2426948  77.83  0.001459293    1.159    0.137
       102 -11.4637     82.2230    134.3267   1.0340434030e+02   3.7623612008e+01    0.3093823    0.1968195 -70.18  0.001442168    1.620    0.383
       103 -10.6056    139.4294     20.9069   5.3484280160e+01   4.7853330739e+01    0.2791334    0.2475712  41.64 0.0006812614    1.062    0.058
       104 -11.0917    209.0673     18.9166   4.2614529409e+01   3.0325181971e+01    0.3621531    0.2630601 -65.47  0.001479641    1.330    0.248
       105  -9.7133    221.8071     19.6063   4.1462330255e+01   2.7147280428e+01    0.1923686    0.1160063  89.10 0.0009505845    1.693    0.409
       106 -10.0336     87.0000    129.9744   1.0121296305e+02   3.7932132499e+01    0.2476611   0.07871162 -56.78 0.0008048539    2.959    0.662
       107 -10.9988    199.1905    127.6796   7.2926662056e+01   1.5297499357e+01    0.3916618    0.1957168 -50.96  0.001438007    2.435    0.589
       108 -11.0293    122.2955    127.3343   9.0922981953e+01   3.2203348453e+01    0.4440545    0.4128675  72.90   0.00152949    1.116    0.104
       109 -10.4920    193.0137    113.4897   7.0614375129e+01   1.9394760914e+01    0.2372026    0.1538566  49.30 0.0008662989    1.583    0.368
       110 -10.1720    250.5061    108.4824   5.9389042391e+01   7.7564832522e+00    0.1399079    0.1227807 -27.85 -3.339061e-05    1.023    0.023
       111 -10.4655    195.0182    249.0000   9.7218950296e+01  -3.9919161678e+00    0.2027912   0.05470139  39.45 0.0008029266    2.946    0.661
       112 -10.5810    249.9980    243.4946   8.6642014636e+01  -1.1327905592e+01    0.1730796     0.125593  -6.37 0.0005669169    1.228    0.185
       113  -9.9859    123.9965    206.0002   1.0507295681e+02   1.4697124009e+01    0.1841286    0.1619985  51.69  -0.04270636    1.022    0.021
       114  -9.2202    246.4593    183.5113   7.6409224306e+01  -3.2315416657e+00     0.132154    0.1079493  -1.11 0.0008091294    1.014    0.014
       115 -10.3931     34.1535    177.5028   1.2131542267e+02   3.3526626326e+01    0.2444212     0.167673 -46.81  0.001446128    1.917    0.478
       116 -10.2826    100.9845    175.9946   1.0578127422e+02   2.4840421240e+01    0.1938674    0.1750246  72.82            0    1.007    0.007
       117 -10.2195    202.6665    173.6599   8.2601964528e+01   6.1386653227e+00    0.1514976    0.1051895   4.98 0.0007051436    1.750    0.429
       118 -10.4131    159.7433     36.1508   5.4726760905e+01   4.0831255798e+01    0.2580925     0.196451  56.68 0.0003719746    1.233    0.189
       119 -12.8601    140.9240     95.8578   7.7699512033e+01   3.5177153392e+01     1.177987    0.8511212  47.40  0.005339281    1.398    0.285
