#   1 NUMBER                 Running object number                                     
#   2 MAG_AUTO               Kron-like elliptical aperture magnitude                    [mag]
#   3 X_IMAGE                Object position along x                                    [pixel]
#   4 Y_IMAGE                Object position along y                                    [pixel]
#   5 X_WORLD                Barycenter position along world x axis                     [deg]
#   6 Y_WORLD                Barycenter position along world y axis                     [deg]
#   7 A_WORLD                Profile RMS along major axis (world units)                 [deg]
#   8 B_WORLD                Profile RMS along minor axis (world units)                 [deg]
#   9 THETA_WORLD            Position angle (CCW/world-x)                               [deg]
#  10 FWHM_WORLD             FWHM assuming a gaussian core                              [deg]
#  11 ELONGATION             A_IMAGE/B_IMAGE                                           
#  12 ELLIPTICITY            1 - B_IMAGE/A_IMAGE                                       
         1 -14.2541    201.1346     15.3642   6.3863011794e+01   3.2341200942e+01     3.140223     1.696653  27.96    0.0108716    2.244    0.554
         2 -13.7752    205.7141      8.7388   6.1235243371e+01   3.1760436724e+01     2.304638     1.111676  29.88  0.001467717    2.657    0.624
         3 -13.6154      6.6928     11.4154   1.2374570899e+02   7.1547710283e+01     2.078306    0.6728379 -51.09   0.01034495    2.009    0.502
         4 -14.5776     50.1925    220.4440   1.3906481928e+02   2.5653240662e+01     1.359771     1.140081  35.97  0.008590104    1.492    0.330
         5 -11.6947    139.8929    249.4975   1.2658403383e+02   1.0718834668e+01    0.3570974     0.154185  39.47  0.002221519    1.677    0.404
         6 -11.4924    124.5302    249.8650   1.2907381149e+02   1.2710657437e+01    0.3614689    0.1231181  39.54  0.002019237    2.162    0.537
         7 -11.4669    124.6020    243.6988   1.2852618226e+02   1.3453380026e+01    0.3435716    0.2012186  89.97  0.002064827    3.284    0.696
         8 -11.5211    119.9176    238.0399   1.2879072126e+02   1.4788546650e+01    0.2655874    0.1798728 -85.34  0.001933388    2.083    0.520
         9 -11.9995    106.5326    247.0650   1.3171449716e+02   1.5360099743e+01    0.3778259    0.1927098  56.47  0.002569833    1.759    0.431
        10 -11.5122     98.1963    248.3767   1.3313308583e+02   1.6224447120e+01     0.354773    0.1742219  53.87  0.001649531    1.642    0.391
        11 -11.2601    101.1510    245.8596   1.3247970284e+02   1.6184764340e+01    0.2123224    0.1793597  63.91 0.0008736088    1.224    0.183
        12 -11.1664     82.6514    243.4619   1.3524519966e+02   1.8728883847e+01    0.1772313    0.1231758  75.55 0.0009021704    1.434    0.303
        13 -10.8723     88.8653    249.1033   1.3464591104e+02   1.7252842054e+01    0.2076477    0.1393869  63.46 0.0007730432    1.302    0.232
        14 -11.8997     80.9275    248.0949   1.3581449473e+02   1.8312854382e+01    0.3338107    0.2135948  75.97  0.002699037    1.609    0.379
        15 -14.6500     32.8156    247.2764   1.4301933172e+02   2.3493124211e+01     7.347339     2.430824  28.85   0.03185501    6.498    0.846
        16 -15.3285     20.4589    172.6647   1.4162464273e+02   3.6553740000e+01     5.627878     1.752027  83.43   0.02349044    4.469    0.776
        17  -9.6672    229.3978    229.2185   1.0962805166e+02   4.5766942064e-02     0.122313   0.09889984 -23.66 0.0007877913    1.689    0.408
        18 -13.9097      9.8857    206.9910   1.4502416543e+02   3.1543296839e+01    0.9560891     0.732812  43.24  0.007652662    1.425    0.298
        19 -10.2812     35.3454    225.1880   1.4170502277e+02   2.6423583284e+01    0.2164565    0.1217995  59.39 0.0008236987    1.301    0.232
        20  -9.8411     33.3015    228.9182   1.4219282010e+02   2.6063095946e+01     0.165413    0.1116954  76.59 0.0006878775    1.238    0.193
        21 -11.2103    248.6969    244.2377   1.0875508962e+02  -3.8715377396e+00    0.2398614    0.1168785  23.32  0.001553629    1.589    0.371
        22  -9.5354     94.7930    216.6443   1.3118296157e+02   2.1052423114e+01     0.201055    0.1172243  60.94 0.0006293798    1.622    0.383
        23  -9.0377    152.7097    212.9349   1.2045544829e+02   1.3426664625e+01    0.1456115    0.1228033  40.31 0.0002981093    1.094    0.086
        24 -10.2973    192.8805    194.7479   1.1060594852e+02   9.3732559001e+00    0.5781868    0.3297874 -62.57  0.001898632    7.987    0.875
        25 -11.5389     68.2234    196.3100   1.3426466892e+02   2.7548859761e+01    0.2736483    0.2078722 -44.06  0.001653351    1.926    0.481
        26 -11.6252     73.2773    188.9872   1.3268709239e+02   2.8201825233e+01    0.2142374    0.1968463 -62.58 0.0004820966    1.379    0.275
        27 -13.2136     69.6941    174.3346   1.3202488411e+02   3.1246468389e+01    0.3958921    0.2436679 -44.72  0.001823667    2.292    0.564
        28 -10.9231     82.2677    176.6307   1.2970210097e+02   2.9272496631e+01    0.1992504    0.1714915  68.76 0.0003572905    1.038    0.037
        29 -10.2334    127.6038    174.2056   1.2008463391e+02   2.3184978610e+01    0.2503068   0.08341101  42.56  0.001035955    2.568    0.611
        30 -12.1802     88.3234    167.1442   1.2737081826e+02   3.0219557339e+01     0.937503    0.4560903  55.40  0.004759117    2.138    0.532
        31 -12.7925     67.4986    144.4504   1.2922275812e+02   3.7307127442e+01    0.9272969    0.5196531  79.93  0.004703579    2.288    0.563
        32 -12.0863     58.5114    133.3310   1.2996986639e+02   4.0650259008e+01     1.683614    0.5565175 -79.53  0.004515493    7.775    0.871
        33 -11.9552     33.0205    156.0611   1.3801930939e+02   3.8595450946e+01    0.3596762    0.1681249 -76.47   0.00210777    1.907    0.476
        34  -9.2756    103.7723    147.0868   1.2118784280e+02   3.1851216012e+01    0.2774673    0.1918158 -18.17   0.00137842    2.460    0.594
        35 -11.9502     89.8246    150.7328   1.2491840727e+02   3.3159397973e+01    0.2312179    0.2186168 -22.90 0.0005470333    1.302    0.232
        36 -11.1708     45.0978    148.3239   1.3474199841e+02   3.8977804489e+01    0.3057949    0.1983307 -45.65  0.001888618    2.000    0.500
        37  -9.9721    100.9156    151.4436   1.2250462736e+02   3.1431346097e+01    0.2438857    0.2181441  49.67 0.0007180731    1.068    0.064
        38  -8.9001    192.2164    144.1703   1.0140121164e+02   1.6446645259e+01    0.1680651    0.1620927  45.77 0.0004022605    1.291    0.226
        39  -9.7632    111.4000    136.7679   1.1767833929e+02   3.2690383032e+01    0.2967797    0.2051796 -21.12  0.001364538    2.202    0.546
        40 -10.4459     99.0285    133.8808   1.2015260567e+02   3.5207767504e+01    0.2554235    0.2098712 -26.66 0.0004723582    1.512    0.339
        41 -10.8244     50.5071    129.9362   1.3150745894e+02   4.2228994090e+01    0.2415354    0.1730179  52.78 0.0006292028    1.373    0.271
        42  -8.8128    117.3022    129.3597   1.1488299589e+02   3.3186138918e+01    0.1364036    0.1059309 -12.24 0.0004956019    1.720    0.419
        43 -10.6801     43.1453    126.8598   1.3296080456e+02   4.3619384134e+01    0.1839648    0.1405362  74.98 0.0006071411    1.215    0.177
        44 -14.9376      3.0890    229.1698   1.4676530594e+02   2.8695303097e+01     5.611002    0.4361533 -75.12    0.0233653    7.569    0.868
        45  -9.4592    108.0697    123.6691   1.1605380079e+02   3.5876829069e+01    0.1787263      0.16201  39.73 0.0003497618    1.105    0.095
        46 -11.0119    168.3794    113.4188   9.9350866038e+01   2.6311966991e+01    0.3481645    0.3115999  87.69 0.0008294237    1.469    0.319
        47 -10.9584     53.0645    110.5512   1.2824167770e+02   4.6158142987e+01    0.3263172    0.1615597 -67.08  0.001532585    1.804    0.446
        48 -10.5909     44.0595    108.9335   1.3046390108e+02   4.7422892985e+01    0.3575632    0.1139941  45.05  0.001486763    3.371    0.703
        49 -10.8230    238.6153    248.8708   1.1091175855e+02  -2.8728612992e+00     0.157943    0.1284205 -25.12  0.001318392    1.877    0.467
        50 -13.2767     45.0315    230.5420   1.4043384150e+02   2.4669244637e+01    0.5871016     0.241217  41.62  0.001599119    1.854    0.461
