#   1 NUMBER                 Running object number                                     
#   2 MAG_AUTO               Kron-like elliptical aperture magnitude                    [mag]
#   3 X_IMAGE                Object position along x                                    [pixel]
#   4 Y_IMAGE                Object position along y                                    [pixel]
#   5 X_WORLD                Barycenter position along world x axis                     [deg]
#   6 Y_WORLD                Barycenter position along world y axis                     [deg]
#   7 A_WORLD                Profile RMS along major axis (world units)                 [deg]
#   8 B_WORLD                Profile RMS along minor axis (world units)                 [deg]
#   9 THETA_WORLD            Position angle (CCW/world-x)                               [deg]
#  10 FWHM_WORLD             FWHM assuming a gaussian core                              [deg]
#  11 ELONGATION             A_IMAGE/B_IMAGE                                           
#  12 ELLIPTICITY            1 - B_IMAGE/A_IMAGE                                       
         1 -11.4761     66.0426     17.2044   4.2364497892e+01   6.3100650182e+01    0.3409466    0.2590614 -14.19  0.001855596    1.567    0.362
         2 -12.3558     20.7955     17.0698   6.2010909202e+01   7.1329020817e+01    0.4065457    0.2087506  28.66  0.002185344    1.686    0.407
         3 -11.9663    183.7481     14.7618   2.2253215703e+01   3.7582018957e+01     0.199759    0.1520603  62.70 0.0008291155    1.499    0.333
         4 -11.6926    131.9789     14.5102   2.7689635786e+01   4.8684100338e+01    0.2014706    0.1482364 -75.51  0.001275272    1.314    0.239
         5 -11.6452      6.4226     14.7111   6.9977501187e+01   7.3512513948e+01    0.2054562    0.1126208 -46.85  0.001148527    2.236    0.553
         6 -10.4490    203.9934     13.3845   2.0448970925e+01   3.3786943068e+01    0.1761997    0.1115561 -60.21  0.000418703    1.263    0.208
         7 -12.8633    116.0532     13.3124   2.9694007970e+01   5.2387781018e+01    0.4590575    0.1764063  66.48  0.001661492    2.127    0.530
         8 -12.4770    134.7271      3.9951   2.4510959071e+01   4.9020576028e+01     0.353484    0.2561052  10.65  0.002195331    2.196    0.545
         9 -12.9399    131.0790      3.6756   2.4856306870e+01   4.9857466304e+01    0.3918591    0.3556836 -11.61  0.001958864    1.483    0.326
        10 -12.1461    120.0000      8.9042   2.7790987442e+01   5.1892543273e+01    0.3913096    0.1452897 -33.89  0.001862108    2.881    0.653
        11 -12.9226    123.4193      6.2319   2.6542898747e+01   5.1353938266e+01      0.43975    0.2950718  66.40 0.0009784476    1.244    0.196
        12 -11.5369     49.3531     13.5476   4.6593106739e+01   6.6845561293e+01    0.2393421    0.2081549  36.66  0.000999682    1.098    0.089
        13 -11.0342     45.0754     11.9915   4.7569566152e+01   6.7826480627e+01    0.2226028    0.1502873  43.64 0.0008710025    1.204    0.169
        14 -11.3058     35.0913     13.1593   5.2518972524e+01   6.9520977427e+01    0.1949896    0.1547876  27.32 0.0007489928    1.007    0.007
        15 -14.2187    163.0387      7.9046   2.2553753924e+01   4.2530731984e+01    0.7393239    0.5810574 -68.04  0.005330564    1.143    0.125
        16 -14.1630    174.2848      3.3713   2.0592986761e+01   4.0616306314e+01     1.282561    0.4331209  86.71  0.005583068    3.263    0.693
        17 -12.0593     78.0721      7.9823   3.5387161351e+01   6.1377110367e+01    0.2585397    0.1469817  54.95 0.0008161067    1.394    0.283
        18 -11.0361     27.4936     11.0662   5.5259852721e+01   7.1042835709e+01    0.1625319    0.1137536 -24.53  0.001028941    1.579    0.367
        19 -13.0497     56.8826      8.0917   4.1455104794e+01   6.5870340394e+01    0.5724264    0.2991377  37.94  0.002237375    1.766    0.434
        20 -11.8310    115.1636      8.8628   2.8500831477e+01   5.2987998146e+01    0.1933532    0.1783874 -72.47 0.0009824306    1.199    0.166
        21 -12.8872    113.8395      2.2378   2.6711481764e+01   5.3836195919e+01    0.5519407    0.2300125  69.56  0.001461018    1.916    0.478
        22 -13.2481     86.7774      6.0080   3.2680273702e+01   5.9617663675e+01    0.6105815    0.3219131  35.07  0.003132126    2.269    0.559
        23 -11.7520      3.3542      8.3854   6.8865965056e+01   7.4752384693e+01    0.2154225    0.1702996  11.69 0.0007994162    1.140    0.123
        24 -13.0996    104.6989     10.2413   3.0651507301e+01   5.5234545829e+01    0.3843819    0.2744306 -61.18  0.002175346    1.589    0.371
        25 -10.9880     46.2509      6.9704   4.4738894566e+01   6.8093219642e+01    0.1349023    0.1020977 -18.17 0.0003725961    1.538    0.350
        26 -11.6315     23.0111      5.2408   5.4591194067e+01   7.2418519753e+01     0.170447    0.1254064  29.53 0.0004023102    1.075    0.070
        27 -13.0909     98.3529      7.6425   3.0952167516e+01   5.6889498152e+01    0.4462352    0.3069398 -73.56  0.002252107    1.697    0.411
        28 -12.9707     71.1718      9.7948   3.7873264222e+01   6.2717940376e+01    0.6033812    0.2181879  65.53  0.002434203    2.937    0.660
        29 -12.0522     38.2622      2.3284   4.5683636205e+01   7.0039305528e+01      0.32929    0.1824438  49.51  0.001241142    1.478    0.323
        30 -11.9587    144.1856      1.7889   2.2911763632e+01   4.7128442789e+01     0.270592    0.1273165  85.03 0.0006751072    1.939    0.484
        31 -11.2208     79.0099      1.4891   3.2702589100e+01   6.1689871861e+01    0.1918349   0.09696636  63.28 0.0004951638    1.572    0.364
        32 -14.7652     76.1315    186.2935   8.4975939646e+01   2.5438752574e+01     1.024609    0.7767318 -53.01  0.005061151    1.327    0.247
        33 -10.8801     18.3560    249.2413   1.0672021628e+02   1.6757377126e+01    0.2453563    0.2258184  54.14  0.001692547    1.094    0.086
        34 -11.7514     10.6064    247.9313   1.0842925861e+02   1.7741822833e+01     0.543395    0.2465075  46.92  0.002740725    1.846    0.458
        35 -10.6955      1.3670    250.2265   1.1062117133e+02   1.8043680485e+01    0.2304153    0.1518804  78.05  0.001055041    1.448    0.309
        36 -10.6559      2.1362    245.7518   1.1024813417e+02   1.8942776391e+01    0.2568715    0.1958705  -7.28 0.0008225432    1.709    0.415
        37 -10.8487      5.9682    242.9515   1.0924011021e+02   1.9231749087e+01    0.2432289    0.1268211  46.56 0.0008704536    1.614    0.381
        38 -12.5684      5.7481    226.3637   1.0842036617e+02   2.3017066917e+01    0.5843654    0.4677323  -8.38  0.002480126    1.550    0.355
        39 -13.6312      2.9267    219.9586   1.0876110124e+02   2.4758302814e+01      1.32464    0.4432663 -82.35  0.005201431    3.045    0.672
        40 -11.6869      9.8278    220.1278   1.0704088249e+02   2.4152395043e+01    0.4440657    0.2583975 -52.48  0.002197104    1.912    0.477
        41 -12.5996      3.1634    238.7147   1.0967982133e+02   2.0407432489e+01    0.7685658    0.4530374 -67.25  0.002569952    1.776    0.437
        42 -12.7951      8.9956    237.9721   1.0827615670e+02   2.0079620039e+01    0.5788397    0.5142463   7.74  0.003685352    1.302    0.232
        43 -12.9546     35.3541    186.8732   9.7197458323e+01   3.0203884402e+01    0.4893298    0.2752557  73.92  0.002023399    2.244    0.554
        44 -12.4610    102.9753    187.2207   7.7481293008e+01   2.1333372009e+01    0.3317749    0.1955889  33.58  0.001230431    1.638    0.390
        45 -10.9913      9.5354    187.1828   1.0481658996e+02   3.2446766229e+01     0.261668    0.1447203 -36.26  0.001161745    2.213    0.548
        46 -14.3656     86.4377    185.0324   8.1780417479e+01   2.4312283506e+01    0.9122923    0.5929685 -46.35  0.004140972    1.555    0.357
        47 -10.0473     11.8225    180.5911   1.0360336726e+02   3.4001555265e+01    0.1995507    0.1162664  35.94 0.0006071005    1.677    0.404
        48 -11.4107     52.3244    178.4252   9.0994714136e+01   3.0565958559e+01    0.3548975    0.1956089  66.13  0.001331068    2.583    0.613
        49 -12.8397     46.1541    188.5728   9.4176134853e+01   2.8596160043e+01    0.5691881    0.3750051 -69.33  0.002708558    1.527    0.345
        50 -13.5996     28.0114    189.2587   9.9621590430e+01   3.0301983280e+01     0.832292    0.4362366 -87.13   0.00350536    2.151    0.535
        51 -11.9404     36.2917    175.4317   9.5585050804e+01   3.3158332265e+01      0.44677     0.182063  43.26  0.001648579    2.513    0.602
        52 -12.2145     96.4186    195.1867   8.0600963212e+01   2.0358039994e+01    0.2805076    0.1972788  36.84 0.0008378823    1.390    0.281
        53 -12.8563     62.0739    170.3193   8.6764600554e+01   3.1506234917e+01    0.4833289    0.2527636  33.61  0.001968219    1.841    0.457
        54 -10.6658     44.2597    167.3892   9.2004293737e+01   3.4467893231e+01    0.2156674    0.1316246  34.97 0.0009507099    1.615    0.381
        55 -11.3642     31.9834    166.9801   9.5912013467e+01   3.5879153098e+01    0.2550783    0.1633154  57.35  0.001149544    1.738    0.425
        56 -11.6322     25.8588    161.2799   9.7206790812e+01   3.8013041821e+01    0.3771436    0.2876632 -15.23   0.00129292    1.485    0.327
        57 -10.9619     33.0025    162.2811   9.4980166494e+01   3.7055407870e+01    0.2090587    0.1986161  10.51  0.001170208    1.097    0.089
        58 -13.9985     69.0183    177.8757   8.5799782501e+01   2.8587494457e+01    0.6847721    0.5897739   7.22  0.003549857    1.204    0.169
        59 -10.3023     71.6575    159.2892   8.1872676152e+01   3.3119734829e+01    0.1610429    0.1163977  59.73 0.0004835231    1.649    0.394
        60 -10.3100     45.6607    158.2908   9.0216921313e+01   3.6775035661e+01    0.1585046     0.109768  57.51 0.0007024491    1.645    0.392
        61 -11.3844     53.5837    155.7173   8.7163853918e+01   3.6515482663e+01    0.3745072    0.2397065  62.01   0.00156677    1.983    0.496
        62  -9.8350     46.6177    130.8815   8.5192606897e+01   4.4051133685e+01    0.1988493    0.1442216 -79.72 0.0002904669    1.590    0.371
        63  -9.5871     61.3408    129.6720   7.9595550036e+01   4.2400125943e+01    0.1615964    0.1181659  63.96 0.0007051479    1.738    0.425
        64 -11.6594      5.9655    121.2021   9.9201021908e+01   5.0390533870e+01    0.2491962    0.1875175 -67.77 0.0003576879    1.223    0.182
        65 -10.1368     22.7817    114.6282   9.1420148710e+01   5.0874879305e+01    0.2084138    0.1254912  30.77 0.0009535195    1.721    0.419
        66 -12.2385      2.3851    111.5335   9.9301833514e+01   5.3137857823e+01    0.4339387    0.2295562 -66.67  0.001342051    1.676    0.403
        67 -12.6098      2.7968    104.2429   9.8052746872e+01   5.4998797168e+01    0.5387278    0.3744348  -9.66   0.00285286    1.494    0.331
        68 -13.3918      5.5597     96.2481   9.5521473422e+01   5.6866310644e+01    0.7017853    0.5094933  12.88  0.002405405    1.438    0.305
        69  -9.2911     66.3142    103.2801   7.1562173740e+01   4.8190328204e+01    0.1529767    0.1145603 -12.04 0.0006982985    1.571    0.363
        70 -10.7556    132.1860     92.6705   4.8880329122e+01   3.7523078579e+01    0.2163471    0.1869318 -63.37 0.0004627552    1.178    0.151
        71 -10.4673     17.9917    108.3472   9.2270518617e+01   5.2911204380e+01     0.201661    0.1723605  -1.27 0.0006653201    1.185    0.156
        72 -11.9286      2.0031     87.6339   9.5611839809e+01   5.9200302046e+01    0.4234622    0.1692498 -64.85  0.001776106    2.225    0.551
        73 -11.0925     28.1739     87.1549   8.3225989355e+01   5.7211557168e+01    0.2161264    0.1720382 -23.82 0.0002734116    1.184    0.155
        74 -11.7692     13.1486    105.9307   9.3895144447e+01   5.3905586290e+01    0.2073763    0.1896754  71.94 0.0004804601    1.257    0.205
        75 -10.2278     35.2981     82.6192   7.8780769213e+01   5.7444477731e+01    0.1404622    0.1110045  66.64 0.0007021984    1.764    0.433
        76 -12.8918      2.2142     76.0697   9.3218665698e+01   6.1950511115e+01    0.6071029    0.2958264 -64.44  0.002835235    1.955    0.489
        77 -12.4266      5.6016     80.2104   9.2401815035e+01   6.0773052810e+01    0.3022854     0.195024 -33.61  0.001412656    1.392    0.282
        78 -10.7246     53.4952     77.5143   6.9330784669e+01   5.5992573077e+01    0.3505815    0.2626245  57.44  0.001697397    1.731    0.422
        79  -9.6350    216.0229     78.2125   3.1912448858e+01   2.3343094650e+01    0.1293076   0.09203885  69.01  0.000303726    1.550    0.355
        80 -10.4680     11.3297     73.2988   8.7930356039e+01   6.1973604042e+01    0.1462408   0.08578721 -28.12 0.0004426679    1.641    0.391
        81 -11.8756     41.0957     70.3005   7.2504166613e+01   5.9352154565e+01    0.2708471    0.2492358 -84.69  0.001581674    1.427    0.299
        82 -11.7479      4.4927     64.2345   8.9258400733e+01   6.4494471582e+01    0.2998874    0.2101384 -41.77 0.0006579765    1.240    0.194
        83 -12.5643      3.5457     59.1245   8.8443169030e+01   6.5667651864e+01    0.3999524    0.2721155 -32.35  0.001489828    1.266    0.210
        84 -11.8563      7.8418     68.5908   8.8566249585e+01   6.3295971783e+01    0.2522418    0.1964711 -42.74 0.0005217863    1.156    0.135
        85  -9.7030     98.4727     60.4646   4.8233743171e+01   5.0465332190e+01    0.1398528    0.1268342  71.21 -1.960618e-05    1.125    0.112
        86 -10.3641     22.5280     57.9360   7.7668014078e+01   6.4219412885e+01    0.1893684    0.1244802 -47.71 0.0004525598    1.525    0.344
        87  -9.4212     96.6956     55.3149   4.7093633125e+01   5.1657252737e+01    0.1356089    0.1063184 -86.88 0.0003651098    1.621    0.383
        88  -9.6218     78.2446     55.6635   5.2785153477e+01   5.5506822713e+01    0.1280069    0.1080897 -81.91 0.0002403087    1.554    0.356
        89 -10.4683     43.9490     62.2251   6.8559669708e+01   6.0545354559e+01    0.2043314     0.174043  34.45 0.0009161757    1.214    0.176
        90 -10.3570     23.4966     50.4678   7.4606315373e+01   6.5564115193e+01    0.1331091    0.1119836  -2.66 0.0001331445    1.003    0.003
        91 -10.0885     94.0667     48.5569   4.5622975538e+01   5.3232627745e+01    0.1769964    0.1734789 -23.24 9.442201e-05    1.140    0.123
        92 -11.9655      6.4275     46.0959   8.2862364271e+01   6.8127785926e+01    0.3975528    0.2075685 -13.95  0.001108908    2.066    0.516
        93 -10.4555     39.1123     43.7522   6.4078786138e+01   6.4596409808e+01    0.2466571    0.1810024  47.02  0.001379531    1.575    0.365
        94 -10.2000     20.7445     44.4063   7.3908036589e+01   6.7012529445e+01    0.1758165    0.1094467  11.90 0.0005334576    1.530    0.346
        95 -10.1377    118.1478     42.6179   3.8063541513e+01   4.8660620926e+01     0.198514     0.104441  51.06 0.0009453892    1.767    0.434
        96 -10.4522     40.3914     35.8411   6.0269926330e+01   6.5639053555e+01    0.2254629    0.1560079  40.00 0.0007126731    1.362    0.266
        97  -9.3311     81.7295     35.6894   4.4685931251e+01   5.7651770617e+01    0.1290826    0.0937443  26.39 0.0001969752    1.547    0.353
        98  -9.8824    154.1572     31.8634   2.9247830953e+01   4.1924033302e+01    0.1570679    0.1304397  62.32 0.0003684981    1.266    0.210
        99 -10.9952     17.6617     31.4131   7.0492486365e+01   6.9620120079e+01    0.2031685    0.1742208  -8.94 0.0003148862    1.136    0.120
       100 -11.6280      4.1754     31.5716   7.9032913681e+01   7.1022271961e+01    0.3103185    0.1851386  20.82  0.001026865    1.530    0.346
       101 -10.8185    175.2989     29.2478   2.6173131241e+01   3.7727615284e+01    0.1982311    0.1553233 -14.65   0.00126787    1.924    0.480
       102 -10.0564    160.5187     26.9858   2.7281879093e+01   4.1103603986e+01    0.1627309    0.1120979 -41.91 0.0005089099    1.512    0.339
       103 -10.0997    153.4479     27.5227   2.8266901267e+01   4.2574441176e+01    0.1213698    0.1022282  89.35 6.452048e-05    1.028    0.027
       104 -11.0089    110.5673     24.3999   3.4036606845e+01   5.2532801065e+01    0.2401875    0.1698868  71.55  0.001273828    1.248    0.198
       105 -10.1367    195.6725     24.6895   2.3303164774e+01   3.4155415769e+01   0.09965626     0.083825  50.77 0.0002892256    1.662    0.398
       106 -11.4195     87.8393     23.6007   3.8720032285e+01   5.7729397300e+01     0.323274    0.1748369 -58.92  0.001268711    2.953    0.661
       107  -9.4269     49.6473     24.2803   5.1246676105e+01   6.5577555628e+01     0.118393   0.09689418  70.25 0.0003687456    1.653    0.395
       108  -9.7937    245.7680     23.3878   1.9621213505e+01   2.5415510977e+01    0.1129258   0.08222226  82.55 0.0002553835    1.445    0.308
       109 -11.6188    136.0795     23.1738   2.9468332979e+01   4.6891852943e+01    0.1847595    0.1498476  59.34 0.0004256836    1.243    0.196
       110 -12.5247     96.4955     21.8235   3.6083425122e+01   5.5983893734e+01    0.3187624    0.2368537  71.01 0.0004094032    1.226    0.184
       111 -10.8157     38.1328     22.6677   5.5584036769e+01   6.7852191409e+01    0.1806908    0.1671575   6.41 0.0004330051    1.216    0.178
       112  -9.8263     72.8105     22.3760   4.2352555599e+01   6.1128718023e+01    0.1806097   0.09757241  47.76 0.0003174194    1.542    0.352
       113  -9.7785    159.3004     20.3294   2.5835146490e+01   4.2088261424e+01    0.1106287   0.08581556  46.16 0.0007031402    1.644    0.392
       114 -11.2051     27.1777    232.4876   1.0352098090e+02   1.9664418001e+01    0.2587318    0.1505872 -52.81  0.001306827    1.923    0.480
       115 -10.1773     35.4226     19.2588   5.5294504964e+01   6.8743907424e+01    0.1415598     0.117622 -34.31 0.0003714928    1.485    0.327
       116 -12.4163     11.7658     17.9495   6.8004632962e+01   7.2413136217e+01    0.5007994    0.2168616  11.95  0.001913201    3.863    0.741
       117 -10.7759    147.4038     17.7872   2.6579927019e+01   4.4936183515e+01     0.140669     0.118615 -17.14 0.0006879197    1.612    0.380
       118 -12.5173     31.5326    238.2232   1.0286292894e+02   1.7926745832e+01    0.5141568    0.3695885  42.07 0.0009867484    1.219    0.180
       119 -11.7350     38.2850    236.7737   1.0108452212e+02   1.7570568944e+01    0.4590234    0.2289076 -58.09  0.002004518    2.132    0.531
       120 -12.4857     34.2715    229.2676   1.0149171042e+02   1.9709843820e+01    0.9194596     0.214199  42.34  0.003099223    3.521    0.716
       121 -11.4274     84.7973     15.5944   3.6591363546e+01   5.9211729511e+01    0.3251349    0.1076637  62.85  0.001307231    2.671    0.626
       122 -10.4302     82.2764    238.2915   9.0190515498e+01   1.2243316202e+01    0.2544907    0.1553166  21.53  0.001258772    1.520    0.342
       123 -11.8670     15.2783    211.1234   1.0503242576e+02   2.5876874970e+01    0.3987689    0.2299542  54.17  0.001960078    1.671    0.402
       124 -11.8305    127.7248     14.1902   2.8191286194e+01   4.9669820406e+01    0.2577113     0.135016  61.34 0.0007121631    1.618    0.382
       125 -11.6384     17.1756    234.1553   1.0609404594e+02   2.0220324701e+01     0.417552    0.2508582  56.58  0.001126642    1.553    0.356
       126 -13.3356     17.3180    226.6190   1.0557423947e+02   2.1956499562e+01    0.7839056    0.5131165  62.27  0.004292496    1.465    0.317
       127 -11.8468     21.6544    218.6444   1.0391106822e+02   2.3463764013e+01    0.3438488     0.258969 -37.18  0.001449322    1.579    0.367
       128 -12.8861     20.4278    214.6432   1.0393314192e+02   2.4551342363e+01    0.6179761    0.3867894 -22.93   0.00295998    2.198    0.545
       129 -10.9128     52.1451    233.9887   9.7359257474e+01   1.6721046236e+01     0.252121    0.1794558 -43.03  0.001355123    1.609    0.378
       130 -12.1939     95.4601    228.1460   8.5615810791e+01   1.2816935473e+01    0.5052996    0.2434418 -37.92  0.002064981    2.512    0.602
       131 -11.2272     62.0275    225.5145   9.3959881828e+01   1.7551893250e+01    0.2212397    0.1263582  26.86  0.001035942    1.602    0.376
       132 -11.8437     26.8576    222.6497   1.0286804203e+02   2.2008037149e+01     0.465384    0.1408225 -64.87  0.001762987    3.060    0.673
       133 -13.0417     51.9997    218.3756   9.5862323217e+01   2.0403870745e+01    0.3863778    0.3318327  49.96  0.001287702    1.114    0.102
       134 -12.7043     34.9949    218.6527   1.0041604672e+02   2.2164699366e+01    0.5650542    0.3208284 -20.42  0.002204833    2.718    0.632
       135 -11.2842     81.8590    218.3346   8.7875386276e+01   1.6796957613e+01    0.3103803    0.1018242  34.01  0.001104851    2.606    0.616
       136 -11.9977     64.7759    216.3970   9.2210126906e+01   1.9387358296e+01     0.249956    0.1622996 -14.49  0.001124092    2.045    0.511
       137 -12.6294     45.1338    213.7647   9.7242924391e+01   2.2290244433e+01    0.4346496    0.2401255 -55.24  0.001571481    1.866    0.464
       138 -12.2040     56.6563    211.3447   9.3839547939e+01   2.1583377832e+01    0.3921819    0.1840523 -85.23  0.001405668    3.231    0.690
       139 -12.2888     61.3749    210.6014   9.2457375497e+01   2.1206757842e+01    0.2363384    0.2228558  46.43  0.001373527    1.035    0.033
       140 -12.4576     93.2207    207.4871   8.3347324668e+01   1.7849883828e+01    0.4116423    0.2450868  49.04  0.001801189    1.915    0.478
       141 -11.5541     51.5200    208.3974   9.4927044839e+01   2.2907288251e+01    0.2932971    0.1401922 -68.90  0.001216075    2.186    0.543
       142 -11.1778    117.4731    207.0151   7.6909585957e+01   1.4565755724e+01    0.2222454    0.1409287 -51.99 0.0009371426    1.626    0.385
       143 -12.7875      6.5645    201.9959   1.0672297052e+02   2.8876573628e+01    0.6197467    0.3693662  85.83  0.003104728    1.666    0.400
       144 -13.6590     24.5214    198.8609   1.0152945867e+02   2.8136765671e+01    0.8221887    0.4587133  42.00  0.003871588    1.694    0.410
       145 -10.6971    102.3273    204.6590   8.0486162473e+01   1.7253340708e+01    0.1513047    0.1112475  60.93 0.0007051411    1.736    0.424
       146 -12.1469     32.2321    202.3137   9.9681627131e+01   2.6509892902e+01    0.2888997    0.1869286  87.60  0.001221643    1.674    0.403
       147 -12.0289     13.8761    201.1605   1.0467654933e+02   2.8493238966e+01    0.2352107    0.1890063  12.80  0.001070944    1.361    0.265
       148 -14.5362     89.3239    195.4351   8.2607119025e+01   2.1305870005e+01     1.279072    0.4893579 -56.19  0.004628396    2.572    0.611
