#   1 NUMBER                 Running object number                                     
#   2 MAG_AUTO               Kron-like elliptical aperture magnitude                    [mag]
#   3 X_IMAGE                Object position along x                                    [pixel]
#   4 Y_IMAGE                Object position along y                                    [pixel]
#   5 X_WORLD                Barycenter position along world x axis                     [deg]
#   6 Y_WORLD                Barycenter position along world y axis                     [deg]
#   7 A_WORLD                Profile RMS along major axis (world units)                 [deg]
#   8 B_WORLD                Profile RMS along minor axis (world units)                 [deg]
#   9 THETA_WORLD            Position angle (CCW/world-x)                               [deg]
#  10 FWHM_WORLD             FWHM assuming a gaussian core                              [deg]
#  11 ELONGATION             A_IMAGE/B_IMAGE                                           
#  12 ELLIPTICITY            1 - B_IMAGE/A_IMAGE                                       
         1 -11.9835     62.7467     38.1862   6.3357643770e+01   6.4089961152e+01    0.5284852    0.4628808  35.78  0.001378365    1.182    0.154
         2 -10.4559     81.4516     26.2411   5.0061325642e+01   6.1949730936e+01    0.5083637    0.3221595 -44.04  0.002330001    1.622    0.383
         3 -10.9186     15.4913     29.0573   8.7376502156e+01   7.3294478773e+01    0.8772439    0.4936019 -52.18  0.004464022    1.567    0.362
         4 -10.4361      6.9088     22.3079   9.1665138869e+01   7.5551343534e+01     0.446644    0.2789658 -57.31  0.002019705    1.384    0.278
         5 -10.2320      1.8785     21.2405   9.5726093906e+01   7.6106329522e+01    0.5672055     0.153808 -56.48  0.002289489    2.657    0.624
         6 -12.2953     46.0059      9.1855   5.4655600862e+01   7.2536392455e+01    0.6736467    0.3243722 -34.37 0.0003559453    2.063    0.515
         7 -11.7571     28.2144     18.6723   7.2473079168e+01   7.4039836567e+01    0.6406728    0.4336716 -11.94  0.003199917    1.975    0.494
         8 -11.8762     30.1737     29.6650   7.7110724728e+01   7.1476561903e+01    0.9004418    0.3698039 -63.04  0.002741435    3.208    0.688
         9 -11.9271     35.3692     26.8608   7.2263144939e+01   7.1314936632e+01    0.9222605    0.4331845  31.00 0.0009218449    2.433    0.589
        10 -11.6099     35.7027     19.0903   6.7545903897e+01   7.2793819990e+01    0.9685964    0.5230125  22.07  0.003244635    2.809    0.644
        11 -11.9129     24.0767     11.9872   7.1304878875e+01   7.5932160935e+01    0.3944148    0.3276622 -45.63 0.0003231684    1.181    0.153
        12 -11.0266     10.0284     15.0520   8.5525977656e+01   7.6938487007e+01    0.3263968    0.2877113   8.29 0.0004178463    1.197    0.165
        13 -12.4436     15.9779     13.5506   7.9216119045e+01   7.6658726840e+01    0.3281734    0.2631932  -0.44 0.0004349255    1.321    0.243
        14 -10.5766     46.2870     28.5532   6.6663297472e+01   6.9147600610e+01    0.6348787    0.3144359  37.07  0.002256788    2.177    0.541
        15 -10.6170    232.8096     13.6975   2.4074359276e+01   2.4815937103e+01    0.4097809    0.2810025  35.91  0.002332564    2.093    0.522
        16 -11.2880    236.0805     29.6428   2.7760597398e+01   2.2506846400e+01    0.5401329    0.3455226 -18.71  0.001932671    1.588    0.370
        17 -11.7329    238.3027     20.5125   2.5423099635e+01   2.3003859118e+01    0.7168039    0.2880167 -35.18  0.002292255    1.844    0.458
        18 -10.2367     99.3703      6.1702   3.4993620615e+01   5.9783583119e+01    0.6074497    0.3528215 -32.83  0.002390826    1.732    0.423
        19 -11.4529    100.1349     16.3042   3.9853531087e+01   5.8478078230e+01    0.5537353    0.4181429  45.41  0.001240218    1.362    0.266
        20 -11.9938     89.2879      3.2904   3.5582948087e+01   6.2771928189e+01    0.5708938    0.3514509  64.68  0.002710339    1.495    0.331
        21 -12.0712    111.8769     19.0708   3.8614369253e+01   5.4965530265e+01    0.5852454    0.4374407   7.25  0.002799759    1.696    0.410
        22 -10.7522     92.9037     10.2885   3.8504695522e+01   6.1099256616e+01    0.5975894    0.3826316  80.76  0.001360764    1.656    0.396
        23 -10.9778     56.3153     17.8610   5.5274602178e+01   6.9054906439e+01    0.7077097    0.3530167  41.83   0.00294454    2.102    0.524
        24 -11.1728     59.0028     12.4960   5.0673951710e+01   6.9260656075e+01    0.6288235    0.3030548  52.94  0.002241403    1.990    0.498
        25 -10.4438    152.8320      3.2184   2.6504746277e+01   4.5306836002e+01    0.4374302    0.3335434  -2.43  0.002284972    1.583    0.368
        26 -10.1456    156.5280      9.9875   2.8543499302e+01   4.3671486749e+01    0.3285279    0.2398142 -26.92 0.0008380316    1.399    0.285
        27 -10.4318    153.4457      9.5284   2.8695717401e+01   4.4550852617e+01    0.4136134    0.2988163  53.17  0.001373673    1.493    0.330
        28 -11.1154    150.8203     18.3129   3.2132906745e+01   4.4350184807e+01     0.589036    0.5020759  74.84  0.002286313    1.152    0.132
        29 -10.4891    155.2662     14.8481   3.0380796065e+01   4.3517955566e+01    0.3536499    0.2440267  56.11  0.001031153    1.521    0.343
        30  -9.0467     71.6435      7.1302   4.2542222699e+01   6.6933679331e+01    0.2960947    0.1931561 -79.41  0.001328434    2.108    0.526
        31  -9.8635     75.6949     12.4782   4.4449341689e+01   6.5290933523e+01    0.4251413    0.2140439 -40.84  0.001553294    2.058    0.514
        32  -9.0626    176.2336     12.1814   2.7448244517e+01   3.8242975586e+01    0.4394386    0.2184345 -68.84 0.0003429009    2.145    0.534
        33 -12.5213    187.1494     13.6469   2.7004977797e+01   3.5321519196e+01    0.4273014    0.2945166 -34.08 0.0003612278    1.330    0.248
        34 -11.7523    182.5118     12.5285   2.7036061045e+01   3.6601896309e+01    0.4038596    0.3164917   2.24  0.001440172    1.602    0.376
        35 -12.0299    128.0328      4.8241   2.9806119151e+01   5.1995418994e+01    0.5080428    0.3470801 -63.08  0.001436635    1.460    0.315
        36  -9.7646    136.0556      1.8379   2.7650912317e+01   5.0032622706e+01    0.5324033    0.1916322  63.16  0.001982854    2.472    0.596
        37 -12.0334    122.3330     11.3348   3.3359831831e+01   5.2948118505e+01    0.6288075     0.380905  48.05 0.0007763971    1.743    0.426
        38  -9.1757    116.9403      8.7965   3.3107501956e+01   5.4699255650e+01    0.2874315     0.167046 -70.19  0.000982963    1.966    0.491
        39  -9.8367    247.1257     13.4132   2.3292573948e+01   2.1946339331e+01    0.2311931    0.1643338 -30.66 0.0006336319    1.214    0.176
        40  -9.0229    145.0000     12.9485   3.0886477281e+01   4.6513118065e+01    0.2492753    0.1914893 -30.48 0.0005553667    1.322    0.244
        41  -8.9109    142.4134     10.4684   3.0266384085e+01   4.7475543545e+01    0.2623554    0.1700284 -86.91 0.0006748919    1.533    0.348
        42  -9.3606    132.3674     13.1544   3.2620904884e+01   4.9977071510e+01    0.3528183     0.166298  60.98  0.001428823    1.977    0.494
        43 -11.1208    209.6609      8.9193   2.4134811573e+01   3.0374988128e+01    0.5505218    0.3639078  34.73  0.002513073    2.149    0.535
        44 -11.5915    216.7360      6.2076   2.3026882003e+01   2.9023121812e+01     0.478003    0.2749875 -14.75  0.001593435    1.945    0.486
        45 -10.4204     35.1426      9.3821   6.1290735656e+01   7.4601290460e+01    0.3846982    0.2878802 -31.80  0.002179273    1.302    0.232
        46 -11.5709      8.8627      7.8194   8.2441570201e+01   7.8582748069e+01     0.815903     0.410699 -20.91  0.001282239    2.943    0.660
        47 -10.8307      9.6251      1.4355   7.6972899537e+01   7.9776594364e+01     1.380763    0.3162918  39.87  0.004449169    5.460    0.817
        48 -11.1455      3.0180      3.8991   8.6358655002e+01   7.9901641313e+01    0.4431284    0.3127777  58.04  0.002560589    1.948    0.487
        49 -10.5590    238.2887      6.8440   2.2153592903e+01   2.4340260316e+01    0.4943734    0.1117655 -44.67  0.001415172    2.839    0.648
        50 -10.8081    167.8929      5.9778   2.6148609160e+01   4.1021862762e+01    0.4288119    0.2908477 -37.29  0.001374741    1.366    0.268
        51  -9.6967     77.8056      6.8324   4.0494854806e+01   6.5414984977e+01    0.3685825    0.2035165 -27.32  0.001660034    1.850    0.460
        52 -10.6761    106.0095      3.3687   3.2393021468e+01   5.8230181391e+01    0.6882166    0.3399599 -72.85  0.002214266    2.659    0.624
        53  -8.5154     63.3819      6.2984   4.4857604874e+01   6.9040841438e+01    0.1520343   0.09671305  31.98 0.0007021177    1.768    0.434
        54  -9.4606    204.2940      3.1272   2.2861735337e+01   3.2172412851e+01     0.249379     0.175795  60.10 0.0008427578    1.638    0.390
        55 -10.3906    193.4384      2.6018   2.3326418415e+01   3.4828199568e+01    0.4736605    0.2756429  56.96  0.002127087    1.962    0.490
        56  -9.8850     40.8694      5.1481   5.4490670560e+01   7.4157142486e+01    0.2036302    0.1743268  59.31  0.000293911    1.290    0.225
        57 -10.4431     33.2305      2.6901   5.7266942399e+01   7.5985836167e+01    0.4727739    0.2403148  36.90  0.001659182    2.105    0.525
        58 -10.3990    244.6594      1.8162   2.0712243381e+01   2.3518358859e+01    0.4473428    0.1768551  89.97   0.00215226    2.844    0.648
        59  -9.4292    230.8622      2.3797   2.1396417152e+01   2.6298618599e+01    0.2973368    0.1375475 -60.06 0.0009253459    1.928    0.481
        60  -8.3648    176.0000      4.9002   2.5170981198e+01   3.9006272419e+01    0.2206689   0.07532429 -21.90 0.0007980572    2.912    0.657
        61  -9.6753    119.5740      2.3660   2.9870984169e+01   5.4564803548e+01    0.3309803    0.2557166  44.47  0.001716288    1.386    0.279
        62  -9.1905    179.0266      6.7409   2.5522991197e+01   3.8055670371e+01    0.1860148    0.1575194 -70.03 0.0002071168    1.053    0.051
        63  -8.5869     64.4798      1.4558   4.1220484479e+01   6.9307694769e+01    0.1383006     0.126964  39.78 6.535127e-05    1.039    0.038
        64  -8.5572     26.9693      1.0000   6.0318773999e+01   7.7361121292e+01    0.1972638   0.07074636  45.41 0.0003531259    2.832    0.647
        65 -10.6613     15.8607    128.8757   1.0464457314e+02   4.7833443034e+01      0.38758    0.2128794  89.23 0.0007150006    1.670    0.401
        66 -12.0345     11.9954    128.7599   1.0591973722e+02   4.8180714697e+01    0.7049335    0.4501477  66.24  0.002838386    1.358    0.264
        67 -10.8740      8.4963    118.8552   1.0645792963e+02   5.0934820239e+01    0.5678877    0.2410486  66.77  0.002461024    2.258    0.557
        68 -10.3884      1.9912    116.2589   1.0859743461e+02   5.2031872585e+01    0.3895435    0.2186707  24.10  0.001423354    1.869    0.465
        69 -10.8687      1.4129    112.1818   1.0858374710e+02   5.3097566194e+01    0.3703372    0.1903896 -83.55  0.001211786    1.702    0.412
        70 -10.2508      2.8842    131.4983   1.0905213140e+02   4.8182753087e+01    0.3434896    0.3171401 -21.32  0.002303003    1.411    0.292
        71 -10.9485     24.9943    131.6094   1.0184798953e+02   4.6318810089e+01    0.4784217    0.3225398  19.85  0.002560148    1.697    0.411
        72 -10.5917     29.5766    124.6754   9.9637925370e+01   4.7605798187e+01    0.3639463    0.3163987 -14.68  0.001558296    1.502    0.334
        73 -10.5284     23.8018    124.5759   1.0160446089e+02   4.8202148375e+01    0.4047756    0.2490217 -85.28  0.001408871    1.502    0.334
        74  -8.6846     97.6836    125.9968   7.7977927070e+01   3.7251990134e+01     0.199021    0.1872637  80.96 0.0003400983    1.045    0.043
        75 -10.5435    229.9406    123.1483   5.0007960195e+01   1.2177873275e+01    0.4850421    0.3120431 -49.03   0.00271051    1.910    0.476
        76  -9.4741     69.6556    123.6499   8.6074616131e+01   4.2629689645e+01    0.4976605    0.2312983 -75.93  0.001802962    2.855    0.650
        77  -9.6093     33.8905    132.8863   9.9060646130e+01   4.5083853012e+01    0.1857849    0.1820933 -65.31            0    1.241    0.194
        78 -11.2136     50.0962    126.1648   9.2889129403e+01   4.4826606668e+01    0.6108054    0.3478459  17.32  0.001461364    2.351    0.575
        79  -8.5950    135.7785    120.0268   6.6579861096e+01   3.0972364501e+01    0.1928182    0.1212598 -45.88 0.0005131507    1.644    0.392
        80  -9.3941     83.1342    119.1487   8.0935162468e+01   4.1480697092e+01    0.2132531    0.2054209  -1.24 0.0004397546    1.230    0.187
        81  -9.0483     22.2304    118.6946   1.0158820147e+02   4.9845671414e+01    0.3454213    0.1505571  67.90  0.001390611    2.490    0.598
        82  -9.9124     67.5715    117.6881   8.5667993252e+01   4.4429167888e+01    0.5428662    0.2053938  36.83  0.001990088    2.485    0.598
        83  -9.7810     57.6954    117.9576   8.9044165480e+01   4.5848665689e+01    0.2939749    0.1901765  42.05 0.0007445254    1.461    0.316
        84  -9.4327     45.8948    117.5072   9.3058951705e+01   4.7560814540e+01    0.2724067    0.1956389 -88.29 0.0008081597    1.354    0.261
        85 -10.0442     28.8088    117.1354   9.9076803299e+01   4.9608634710e+01    0.5191459     0.231394  44.83  0.002266169    2.037    0.509
        86  -9.7343     26.2833    112.9698   9.9516247062e+01   5.0932857395e+01    0.2448227    0.2238301 -74.63 0.0009941951    1.159    0.137
        87 -10.5061     21.4683    110.3995   1.0101866089e+02   5.2048776916e+01    0.3282118    0.2880124  55.92  0.001994637    1.112    0.101
        88 -10.2534     26.1588    107.7777   9.8947590194e+01   5.2289864495e+01    0.4888359    0.2253827  56.61  0.001589128    2.226    0.551
        89  -8.5239     98.5469    117.4718   7.5904657585e+01   3.9044016020e+01    0.1504567    0.1407404  68.61 9.522946e-05    1.003    0.003
        90  -9.7518     84.1927    113.0448   7.9312766926e+01   4.2757120629e+01    0.2345057    0.2026016  49.97  0.000255751    1.114    0.102
        91  -8.9107     62.4940    112.0113   8.6320005123e+01   4.6635707589e+01    0.2134933    0.1401147 -66.26 0.0004575453    1.502    0.334
        92 -10.3892     45.1706    109.1013   9.2002646245e+01   4.9810033911e+01    0.4361044    0.2458487  52.27  0.001688788    1.756    0.430
        93 -10.0272     34.9141    108.9816   9.5798500392e+01   5.1065193152e+01    0.4207802    0.2017159 -63.41  0.001837752    1.946    0.486
        94  -8.9699     77.9677    109.2706   8.0505790054e+01   4.4777191478e+01    0.1992142    0.1842137  53.68 0.0002089616    1.081    0.075
        95 -10.5296      8.4857    108.5436   1.0572808847e+02   5.3564068310e+01    0.5003628    0.2421619   0.18  0.002120683    3.105    0.678
        96  -9.1816    121.5582    107.9477   6.7212080120e+01   3.6468292137e+01    0.3904707    0.1595488  35.67  0.001223221    3.327    0.699
        97  -9.1346     72.5182    107.9822   8.2055218018e+01   4.6030604161e+01    0.2344034    0.1841548  44.19 0.0005502097    1.242    0.195
        98 -10.1907     17.4121    107.6380   1.0226484509e+02   5.3114935797e+01    0.3679287    0.1455226 -88.36  0.001064163    2.574    0.612
        99 -10.4675     66.1841    105.4877   8.3718204438e+01   4.7696571704e+01    0.4330902    0.2850565 -57.70  0.002036223    1.513    0.339
       100 -10.1369     57.6851    105.0679   8.6680527551e+01   4.9118247412e+01    0.5013359     0.282867 -89.72   0.00142388    2.353    0.575
       101  -8.4873    139.3208    106.3246   6.2378892859e+01   3.2932756713e+01    0.1517258    0.1200017   7.28 0.0005940053    1.679    0.405
       102  -9.7865    126.9559    105.9667   6.5311008724e+01   3.5716891439e+01    0.2245578    0.2150965  83.75  0.001219835    1.033    0.032
       103  -9.2391    131.9430    104.7014   6.3735267986e+01   3.4882872858e+01    0.2189643    0.1959628  52.19 0.0009675599    1.095    0.087
       104 -10.9668    107.7588    103.3376   6.9830176687e+01   4.0399025981e+01    0.4225737    0.2880828  51.72 0.0007093468    1.442    0.307
       105 -11.2482     80.7804    103.1967   7.8184682023e+01   4.5752814399e+01    0.3145637    0.3098579  17.55            0    1.160    0.138
       106 -10.2590     10.6455    102.2043   1.0437284061e+02   5.5046703601e+01    0.3787486    0.2449581 -26.00 0.0009431788    2.094    0.522
       107  -8.9609    141.1987    101.8282   6.0772491058e+01   3.3393991255e+01    0.1974295    0.1759671  13.44 0.0003249317    1.282    0.220
       108  -9.3536     53.2037    100.4659   8.7428569415e+01   5.0947457334e+01     0.312768    0.2039571 -56.40  0.001484623    1.528    0.345
       109  -9.9745     68.3353     99.2997   8.1585770347e+01   4.8891545675e+01    0.2809158    0.2370983 -14.71 0.0008413406    1.567    0.362
       110  -9.5959     69.6793     96.3147   8.0398682298e+01   4.9406922601e+01     0.252054    0.2064851  63.54 0.0006968143    1.210    0.174
       111 -10.9171    102.8110     85.4210   6.6327042503e+01   4.5435710815e+01    0.6006284    0.3602614 -36.53  0.002450789    1.956    0.489
       112 -11.7714    101.6428     97.8450   7.0189093616e+01   4.2912770499e+01    0.2965074    0.2608669  53.23 0.0002113289    1.107    0.097
       113 -11.1264     97.6995     94.8583   7.0588893600e+01   4.4413448895e+01     0.657805    0.4619311 -13.79  0.002631979    2.495    0.599
       114 -12.0476    104.4834     77.6261   6.3419451942e+01   4.6747633981e+01     1.065109    0.6090074 -39.11  0.004318755    1.891    0.471
       115 -12.0766    111.0006     65.8278   5.7595895391e+01   4.7627601326e+01    0.4049309    0.3753321 -13.33 0.0003269204    1.239    0.193
       116 -10.7836    108.1733     62.8365   5.7343531314e+01   4.8900341877e+01    0.3380601      0.26528 -26.31  0.001591451    1.476    0.323
       117 -10.8520     61.1821     97.3053   8.3754664610e+01   5.0554782164e+01     0.326551    0.2725294  74.44 0.0002707071    1.183    0.155
       118 -10.1044     38.4065     98.1299   9.2750635324e+01   5.3488180623e+01    0.4985678    0.2873825  -9.83  0.001871035    3.414    0.707
       119  -9.3786     35.6011     95.8218   9.3485697795e+01   5.4416146780e+01    0.3203511    0.1708239 -71.35  0.001076016    1.753    0.430
       120 -10.4284    115.7582     97.5907   6.6056458654e+01   3.9936639390e+01    0.3178751    0.1476183  49.70  0.001176406    2.139    0.532
       121 -10.0963     26.7251     96.9917   9.7294007975e+01   5.5049452289e+01    0.4115234     0.218165  34.10 0.0003585162    1.853    0.460
       122 -11.1564     29.9478     92.9834   9.5349209518e+01   5.5774328189e+01    0.2790293    0.2652726 -29.82 0.0003172995    1.232    0.188
       123 -12.0809     34.7574     89.8292   9.2778017843e+01   5.6077654312e+01    0.3715171    0.2740415  65.44 0.0002678474    1.360    0.265
       124 -10.1269     16.5384     95.7723   1.0133231177e+02   5.6275202346e+01    0.4154086    0.2268629  54.86  0.001425547    1.795    0.443
       125 -10.7763    116.7956     93.7253   6.4704149318e+01   4.0531528902e+01    0.3283798    0.2907055 -87.82 0.0009720517    1.181    0.153
       126  -9.7211    137.2027     93.4112   5.9426461819e+01   3.5941957629e+01    0.3837078     0.204902 -45.10  0.001553869    1.879    0.468
       127 -10.9553    126.0654     91.6365   6.1662697162e+01   3.8863092163e+01    0.4718724    0.3270525  35.31  0.001971532    1.655    0.396
       128 -10.4604     27.4186     85.2454   9.5147860400e+01   5.8059489302e+01    0.3971249    0.2466708  28.24  0.001352564    1.702    0.412
       129 -10.8321     45.1419    101.6454   9.0731529328e+01   5.1740610667e+01     0.389193    0.3266509  68.09 0.0006816955    1.124    0.110
       130  -9.0660      5.0642     93.7616   1.0590873556e+02   5.7603420569e+01    0.1918654    0.1576789  61.85 0.0005032945    1.138    0.121
       131  -9.0919      1.4054     94.4873   1.0748369067e+02   5.7625601677e+01    0.1548403     0.128979  -8.89 6.601913e-05    1.488    0.328
       132  -8.5569     87.4450     93.5437   7.3523296922e+01   4.6797566885e+01    0.1503621    0.1473953  87.50 6.986751e-05    1.079    0.073
       133  -8.9804     63.9304     89.4370   8.0848112600e+01   5.2089902996e+01    0.2307886     0.194569 -68.36 0.0007008827    1.148    0.129
       134  -9.9097     12.3442     88.3090   1.0225504428e+02   5.8545068163e+01    0.3818424    0.2172013  38.01  0.001052388    1.740    0.425
       135  -8.8075      3.7939     90.5602   1.0617936557e+02   5.8507971524e+01    0.1711651    0.1127918  39.54 0.0009304702    1.516    0.340
       136  -9.7118     56.2326     88.7900   8.3695552946e+01   5.3481643911e+01    0.3658595    0.2008244  54.79 0.0009070646    2.040    0.510
       137  -9.7844    139.0541     87.0939   5.7202564536e+01   3.6727405638e+01    0.3039507    0.2139355 -52.51  0.000270985    1.470    0.320
       138 -11.6228    131.2120     85.9005   5.8716307264e+01   3.8811391755e+01    0.2999255    0.2850322  36.57 0.0002816065    1.123    0.109
       139 -11.3169    111.9483     81.7411   6.2532611016e+01   4.4164810052e+01    0.6834118     0.341584  64.57  0.002280372    2.919    0.657
       140 -10.7985    120.0447     87.0191   6.1897899184e+01   4.1196851342e+01    0.5116033    0.3313808  67.23  0.001204678    1.846    0.458
       141 -10.5924    124.5589     86.7804   6.0644723636e+01   4.0197626187e+01    0.6094228    0.2746125 -56.25  0.001992124    3.017    0.669
       142  -9.6966    110.5796     88.0459   6.4814708402e+01   4.3137494056e+01    0.2926379    0.2097219  64.85 0.0008319178    1.523    0.343
       143 -10.5655     86.3042     86.1447   7.1847213914e+01   4.8760857311e+01    0.4693736    0.3569156  68.39  0.002217556    1.442    0.307
       144 -10.8434     78.1926     81.7963   7.3427456214e+01   5.1386743290e+01    0.6958479    0.4638401  25.24  0.001913874    1.967    0.492
       145  -9.3667     70.9987     82.4203   7.6275060409e+01   5.2588675025e+01    0.2748492    0.2048198 -76.76 0.0006538273    1.464    0.317
       146 -10.4870     54.1072     81.0770   8.2643660015e+01   5.5758613412e+01    0.3604144    0.2801841 -20.26 0.0007486602    1.724    0.420
       147  -9.5413     19.8883     82.7111   9.8127110657e+01   5.9420968064e+01    0.2839047    0.2187021  51.60 0.0008266376    1.294    0.227
       148  -9.5628      1.8493     82.9719   1.0639278471e+02   6.0581360161e+01    0.1947134    0.1595671  77.19 0.0003952469    1.088    0.081
       149  -9.5342    143.8004     81.6969   5.4558493139e+01   3.6604965725e+01    0.2595398    0.2331149  25.33 0.0006947858    1.258    0.205
       150  -8.5219     88.4665     82.4790   7.0035461265e+01   4.9167347410e+01     0.154774    0.1467304  86.24 9.541171e-05    1.003    0.003
       151  -9.0802     45.8544     80.0628   8.5915017118e+01   5.7217214144e+01    0.3326767    0.2159095  55.08  0.001556799    1.645    0.392
       152 -10.7454    155.1186     79.2746   5.1484273451e+01   3.4308973043e+01    0.3151585    0.2770985   5.07 0.0009524572    1.340    0.254
       153  -9.6195     91.9516     80.0337   6.8125869273e+01   4.8990470134e+01    0.2356829    0.2204665 -85.28  0.000491808    1.037    0.036
       154 -10.4956    121.3462     78.2793   5.8898665021e+01   4.2665166315e+01    0.3386604    0.2749778  63.78  0.001342489    1.240    0.194
       155  -9.3583    122.3155     74.6332   5.7492343787e+01   4.3152301792e+01    0.3307667    0.1605456 -41.27 0.0008115913    2.063    0.515
       156  -9.9091      5.3246     74.7129   1.0393508806e+02   6.2539875407e+01    0.4111769    0.3636903 -60.82  0.001892218    1.149    0.130
       157  -8.7762     11.4838     75.0243   1.0096616349e+02   6.2077074264e+01    0.1886279    0.1596556 -76.85 0.0004638212    1.060    0.056
       158 -10.8615    102.4102     69.0612   6.1218403227e+01   4.9024004736e+01    0.4806677    0.3466908  54.16  0.002218056    1.375    0.273
       159 -10.6356     75.8705     67.1911   6.9643783383e+01   5.5237781394e+01    0.5279431    0.3517261 -45.41  0.002044903    1.523    0.343
       160 -10.4254     71.3047     64.8275   7.0604950876e+01   5.6681862812e+01    0.5319658    0.4359971 -51.77  0.001331207    1.204    0.169
       161 -11.0742     82.7661     63.8613   6.5907790577e+01   5.4542669474e+01    0.5666181    0.3805559 -21.72 0.0007062915    2.269    0.559
       162  -9.0290     67.1157     63.1562   7.1718937420e+01   5.7871724340e+01    0.2261434    0.1963994  78.10 0.0003687006    1.223    0.182
       163  -9.2116     76.4853     61.7013   6.7462424984e+01   5.6339217402e+01    0.2505629    0.2084939  36.20  0.001258886    1.289    0.224
       164 -10.9150     83.2651     74.5195   6.9359331813e+01   5.2063370745e+01    0.3892379    0.3387039  56.76 0.0006763802    1.138    0.121
       165 -10.4282     77.1309     75.1524   7.1791400184e+01   5.3155605307e+01    0.5408924    0.3568431  33.05  0.002059244    1.728    0.421
       166  -9.6419     60.9769     76.0533   7.8404943179e+01   5.5902330935e+01    0.2149272    0.2016114  83.97            0    1.026    0.025
       167 -11.4816     46.7157     73.1632   8.3760468862e+01   5.8848426806e+01    0.6754934    0.3903224  62.53 0.0007307576    2.245    0.555
       168  -8.3978     50.7161     70.7294   8.1272465849e+01   5.8866776588e+01    0.1392271    0.1123259 -27.33            0    1.498    0.333
       169  -9.4309    136.4330     74.4904   5.4020250848e+01   3.9726397216e+01    0.2646077    0.2405061 -18.12 0.0005883837    1.230    0.187
       170 -11.0091    140.0562     72.5156   5.2591295111e+01   3.9191313837e+01    0.4936712    0.2824074  44.14  0.001264116    1.915    0.478
       171 -11.7711    136.8803     69.4958   5.2340036046e+01   4.0525402776e+01    0.6459205    0.3995207 -48.29  0.001300616    1.630    0.387
       172 -10.7755    152.1675     72.2672   4.9986775393e+01   3.6236838370e+01      0.33769    0.2260906 -35.48  0.001543412    1.482    0.325
       173  -9.7317     89.1730     73.5542   6.6991243843e+01   5.1034449865e+01    0.3902284    0.1504506  43.46  0.001309023    2.656    0.623
       174  -9.6497     56.8160     72.5934   7.9140128378e+01   5.7443149736e+01    0.2944033    0.2181096 -42.47 0.0006157016    1.455    0.313
       175 -10.8069     17.4967     70.9544   9.7339719023e+01   6.2690691300e+01    0.3632149    0.2619213 -46.88  0.001480358    1.430    0.301
       176 -10.7060     35.6338     67.7505   8.7557028456e+01   6.1685842827e+01    0.4056765    0.2743882 -75.59 0.0008201897    1.471    0.320
       177 -10.2703     33.8153     63.1424   8.7244429481e+01   6.3072036790e+01    0.4260628    0.2720867  18.97  0.002042501    1.846    0.458
       178  -9.6150    129.0638     70.9085   5.4609877104e+01   4.2211558753e+01    0.2255205    0.2193691 -70.30 0.0003665339    1.038    0.037
       179 -10.6674     97.0313     69.7223   6.3118762572e+01   5.0125576955e+01    0.4336406    0.2758276 -45.25  0.001278974    1.580    0.367
       180 -10.7871     60.5644     57.7849   7.2589429280e+01   6.0320464206e+01      0.45209    0.4451191 -56.33  0.002583653    1.051    0.048
       181  -9.6555     64.3650     70.5548   7.5333159852e+01   5.6644546318e+01    0.4040971    0.2529959  54.68  0.001055998    1.751    0.429
       182 -10.2871     58.9827     66.1622   7.6197571572e+01   5.8639004213e+01    0.5599262    0.3849355  24.34  0.001920545    1.778    0.437
       183 -10.9652    164.5741     70.8051   4.7226465608e+01   3.3435069170e+01    0.4309199    0.2842019  34.78   0.00191361    1.917    0.478
       184 -10.2150    180.3153     66.2858   4.3341922900e+01   3.0342054135e+01    0.4999758    0.3359019 -62.21  0.002367479    1.681    0.405
       185  -9.8442     10.0064     66.3595   1.0043732350e+02   6.4427654501e+01    0.3838364    0.2118595  62.96  0.001648871    1.977    0.494
       186 -11.7032    156.1141     65.6284   4.7199674727e+01   3.6365549307e+01    0.5017345    0.4696247  32.62  0.001289934    1.185    0.156
       187 -11.9931    145.7777     52.0504   4.4752803930e+01   4.1183743669e+01     1.408959    0.6855196  34.37  0.003114088    3.774    0.735
       188 -10.9306    147.0715     61.6776   4.7680396431e+01   3.9299949243e+01    0.3384374    0.2340718 -55.29  0.000431079    1.504    0.335
       189 -13.1238    150.7673     57.7371   4.5699150547e+01   3.8994445133e+01    0.4306729    0.3849624 -59.79 0.0005328794    1.075    0.070
       190 -10.0505    120.3608     65.4745   5.4966061017e+01   4.5392745642e+01    0.4968521    0.3443047 -83.60  0.002077803    1.951    0.488
       191 -10.5543     90.0883     62.3483   6.2796361685e+01   5.3252907294e+01    0.9782825    0.6713801 -31.81  0.004329263    1.708    0.415
       192 -10.2593     97.0129     58.5238   5.9114796208e+01   5.2431286225e+01    0.3757795    0.2682911  60.26 0.0006736649    1.430    0.301
       193  -9.8340     95.5460     55.4592   5.8413311052e+01   5.3383534411e+01    0.2918857    0.2742348  43.06 0.0006900292    1.120    0.107
       194 -10.3744     48.7013     66.8412   8.1039199876e+01   6.0133924955e+01    0.4013082    0.2562993  44.34   0.00168173    1.608    0.378
       195 -10.5819     43.2082     62.9007   8.2459705961e+01   6.1907634907e+01    0.6942682    0.3501951 -58.30  0.002969769    1.845    0.458
       196 -10.0074    162.5040     65.2503   4.5934071667e+01   3.4834090934e+01    0.5267235    0.2782853 -61.10  0.001941172    2.633    0.620
       197  -8.5599     26.4434     65.5412   9.1655313100e+01   6.3276582634e+01    0.1384064    0.1258551 -79.11 0.0002687508    1.011    0.011
       198  -8.8893     32.6226     71.8310   9.0031409780e+01   6.0995510938e+01    0.1926792    0.1536554  68.59 7.976588e-05    1.295    0.228
       199  -9.8375      2.0304     64.7472   1.0444934184e+02   6.5289343740e+01    0.2883263    0.2039306  44.03  0.001543473    1.477    0.323
       200  -8.9916    211.8838     63.9408   3.8534274914e+01   2.3515147762e+01    0.1907477    0.1686544  -8.26 0.0002594086    1.224    0.183
       201 -10.0964    201.5063     50.0176   3.6034960361e+01   2.7629846240e+01    0.2761064    0.2631871 -47.88 0.0009808522    1.088    0.081
       202 -10.6484    195.2489     61.8029   4.0002604025e+01   2.7494624536e+01    0.5645451    0.3879155   0.40  0.002057217    2.012    0.503
       203 -10.6043    200.7471     54.7320   3.7402541681e+01   2.7190775353e+01    0.3173926    0.2723356  29.11  0.001198212    1.396    0.284
       204  -9.8953    143.0619     63.4035   4.9046490275e+01   4.0031586012e+01    0.3143077    0.2173793 -44.98  0.001135076    1.411    0.291
       205 -10.3418    103.5340     59.3419   5.7425873702e+01   5.0707727728e+01    0.5256031      0.37797   8.29  0.001752711    2.294    0.564
       206  -8.7337     19.5242     64.0302   9.4956926006e+01   6.4314461803e+01    0.2090561    0.1224716 -86.27 0.0009755163    1.766    0.434
       207  -9.3151     22.0317     61.1627   9.2973839657e+01   6.4826189398e+01    0.2083621    0.1639889 -43.87 0.0004778196    1.303    0.233
       208  -9.3107    172.1666     62.9010   4.3623563895e+01   3.2816310193e+01    0.2380808    0.1874409 -61.41  0.001216792    1.294    0.227
       209  -9.9004    219.0198     59.6314   3.6652558971e+01   2.2556181457e+01    0.3453672    0.1734705 -29.80 0.0006334984    1.733    0.423
       210  -8.0919    177.3032     61.3007   4.2362847872e+01   3.1803753898e+01    0.1418309    0.1125949  21.89 0.0002019771    1.589    0.371
       211  -9.2717    167.9935     60.7599   4.3654032709e+01   3.4169428544e+01    0.2961811    0.2024404  -7.79  0.001309646    1.983    0.496
       212  -9.8467    131.7195     60.7575   5.0616409728e+01   4.3381929118e+01    0.3436165    0.2552207  84.71  0.001077774    1.540    0.350
       213  -9.4537      4.2200     59.7770   1.0259504587e+02   6.6460433695e+01     0.261649    0.1633594  -7.97  0.001355197    1.968    0.492
       214  -9.0235      7.3864     57.2619   1.0039781025e+02   6.6931960116e+01    0.2547835    0.1711142 -30.79 0.0005218444    1.678    0.404
       215 -10.2523      9.9938     55.0112   9.8468883408e+01   6.7346525657e+01    0.3073774    0.1708131  84.09  0.001437642    1.968    0.492
       216 -10.1816     33.0721     44.6173   8.1708391300e+01   6.7698735713e+01    0.5767838    0.2376377 -46.84  0.002282529    2.378    0.580
       217 -10.5364     26.9654     56.2723   8.9009674942e+01   6.5574327895e+01     0.342913    0.2636194  87.02  0.001508291    1.388    0.280
       218 -11.0556     30.2170     52.9976   8.6224031184e+01   6.6026553237e+01    0.4793462    0.3298842 -80.75  0.001223643    1.577    0.366
       219 -10.7106    185.0088     54.8388   3.9400741902e+01   3.0865663027e+01    0.5837284    0.2324871 -33.97  0.001170006    2.213    0.548
       220 -11.1293    161.1797     56.3839   4.3431576678e+01   3.6545607178e+01     0.509109    0.3371784 -80.74  0.001265711    1.884    0.469
       221  -9.8378     81.2552     43.5729   5.8369157995e+01   5.9018961724e+01    0.4178232    0.2824462  27.05 0.0009567353    1.998    0.500
       222 -10.6957     84.3525     48.5131   5.9377845258e+01   5.7359511947e+01    0.5465292    0.4245656  67.36  0.001748862    1.379    0.275
       223 -10.7953     78.2668     55.5322   6.4449695412e+01   5.7292229328e+01    0.3519694    0.3237703  46.85 0.0006107895    1.110    0.099
       224 -10.3658     83.3690     53.8361   6.1897725313e+01   5.6522977795e+01    0.5524459    0.3842223 -74.52  0.002378808    1.934    0.483
       225 -11.2372    246.0717     55.7082   3.3167524196e+01   1.7662137526e+01    0.2145546    0.1703882 -37.51  0.000234461    1.021    0.021
       226  -8.9777    239.1744     55.9013   3.3802575732e+01   1.8948904469e+01    0.1973608    0.1387361 -46.08 0.0008184648    1.246    0.197
       227  -9.5737    222.9224     55.6035   3.5244417641e+01   2.2242492157e+01    0.3075157     0.185123 -63.90 0.0007902362    1.930    0.482
       228 -11.1982    175.3988     54.5592   4.0657233386e+01   3.3249026700e+01    0.5184896    0.3531661 -60.33  0.002350561    1.546    0.353
       229 -11.2615    128.2041     52.4168   4.8492206053e+01   4.5717795787e+01    0.5744482    0.4712138 -83.23  0.001460607    1.292    0.226
       230 -11.0878    117.9900     51.2031   5.0457213546e+01   4.8574812211e+01    0.3968441    0.2527675  59.05 0.0003359846    1.544    0.352
       231 -11.1224    121.9383     48.5937   4.8526831728e+01   4.7990983462e+01    0.3912261    0.2872391 -48.02 0.0009977248    1.356    0.262
       232  -9.5452     45.1739     53.4677   7.8339927749e+01   6.3901584248e+01    0.4694548    0.1959641 -69.02  0.001440139    4.003    0.750
       233 -10.5914     24.7273     49.9217   8.8453258261e+01   6.7389796092e+01      0.56004    0.2751206 -33.59  0.001471111    2.767    0.639
       234 -10.9896     17.7159     48.5258   9.2298922425e+01   6.8402818048e+01    0.5330477    0.2622752 -51.57 0.0009089339    1.847    0.458
       235 -10.4499     18.1235     42.5063   9.0287235273e+01   6.9851834667e+01    0.3114023     0.241629  10.82  0.000949305    1.447    0.309
       236 -10.8613    211.5340     49.4837   3.4822785773e+01   2.5440505877e+01    0.3239629    0.2721713  75.25  0.001954697    1.310    0.237
       237 -10.0449     64.0306     50.0028   6.8024919418e+01   6.1396612775e+01    0.4857634     0.290678 -64.25  0.001266079    2.113    0.527
       238 -10.1401     35.2351     51.3948   8.2898664363e+01   6.5800246625e+01     0.233689    0.2138749  84.95  0.000322538    1.132    0.117
       239  -8.8669     39.3047     51.3302   8.0652785488e+01   6.5266772731e+01    0.2172994    0.1802176  -3.00 0.0007808093    1.442    0.307
       240 -10.4123    105.2031     48.8568   5.2930514095e+01   5.2250603660e+01    0.6216074    0.4690739  74.94  0.002919424    1.431    0.301
       241  -9.0533     72.9981     50.6700   6.4547374098e+01   5.9432144990e+01    0.2116148     0.182509  44.57 0.0005151465    1.181    0.153
       242 -10.4851      5.0972     50.0296   1.0048913341e+02   6.8900727737e+01    0.4465259    0.3143356 -31.13  0.002517065    1.545    0.353
       243  -8.9171    191.7662     50.2287   3.7225389612e+01   2.9875518137e+01    0.1847493    0.1638945  11.63  0.001046888    1.342    0.255
       244  -9.7629    162.4738     53.4839   4.2308341961e+01   3.6652441935e+01    0.2985786    0.2704907 -84.38 0.0009636009    1.086    0.079
       245 -12.0160    140.1876     37.8307   4.0799524008e+01   4.4784495821e+01    0.3820191    0.2944988 -69.83 0.0002591228    1.336    0.251
       246 -12.3373    137.7716     47.3561   4.4670133650e+01   4.4018835979e+01    0.4590866    0.3264749 -61.29 0.0007366929    1.497    0.332
       247 -10.5424    140.9986     43.0955   4.2543159618e+01   4.3806991879e+01    0.4237845    0.2691746  56.40 0.0003525164    1.569    0.363
       248  -8.8742     55.1989     49.8258   7.1990277892e+01   6.3084322629e+01    0.1957068    0.1644467 -27.72 0.0005075806    1.323    0.244
       249 -10.2908    246.3716     47.9144   3.1344880679e+01   1.8486955098e+01    0.2613398    0.1860926 -16.38  0.001597458    1.425    0.298
       250  -9.8666    233.0432     48.2247   3.2497966985e+01   2.1052285984e+01    0.2258382    0.1512807 -38.60 0.0002858714    1.220    0.180
       251 -12.2132    108.8296     43.2120   4.9679650657e+01   5.2297941038e+01    0.3464303    0.2927326  68.51 0.0002986879    1.162    0.139
       252  -8.3794    173.3085     48.2685   3.9055967309e+01   3.4656592361e+01    0.1398039    0.1113111  31.62 0.0006947676    1.539    0.350
       253 -12.4974    163.4572     42.6629   3.8707391229e+01   3.7947393670e+01    0.5760618    0.3521018 -69.40  0.002484065    1.924    0.480
       254  -9.9353    161.1628     35.2680   3.6616566679e+01   3.9535124078e+01    0.4022965    0.2435309 -78.55   0.00172723    1.940    0.485
       255  -8.7579     98.5950     47.2616   5.4210362531e+01   5.4187149199e+01    0.2034142    0.1505167 -26.99 0.0009317201    1.525    0.344
       256  -9.6653     38.2062     46.2907   7.9394651529e+01   6.6610894418e+01     0.420398    0.2031619 -44.06  0.001010036    2.136    0.532
       257  -9.2051    129.7838     45.5221   4.5636536278e+01   4.6420843782e+01     0.330415    0.2143882 -22.80  0.001422541    1.787    0.440
       258  -8.7054     67.3714     45.2491   6.4564358936e+01   6.1724039358e+01    0.1988748    0.1364054 -55.27 0.0002152533    1.529    0.346
       259  -9.2102    209.6234     43.8221   3.3518129197e+01   2.6561573753e+01    0.2563495    0.1489026 -37.79  0.001286731    1.458    0.314
       260 -10.7323     90.8686     43.8302   5.5185476842e+01   5.6699717883e+01    0.3301839    0.2347843  63.94 0.0002753588    1.461    0.315
       261 -10.4805     91.0095     40.2389   5.3578120809e+01   5.7303838517e+01    0.3076859    0.2930669 -18.08  0.001669658    1.131    0.116
       262  -8.8754     73.4852     44.5294   6.1737638920e+01   6.0573670372e+01    0.1463135    0.1455635 -85.44 0.0001194115    1.027    0.026
       263 -10.6088     54.5084     36.8033   6.6573463789e+01   6.5988337887e+01    0.2842808    0.2355374  44.75 0.0003066901    1.233    0.189
       264 -11.6749     56.7291     41.8114   6.7833984116e+01   6.4538017907e+01    0.3308759    0.2763568 -31.88  0.000230914    1.259    0.206
       265  -8.7769     83.7043    249.3528   9.6611606303e+01   1.5681831387e+01    0.1134759   0.06113647  53.25 0.0003064951    1.687    0.407
       266  -8.9607    174.4789     42.0081   3.6976110838e+01   3.5209512962e+01    0.2245057    0.1869059  -0.73 0.0005311687    1.454    0.312
       267  -8.8111    177.2698     39.3521   3.5805212186e+01   3.4850870095e+01    0.2116914    0.1415454  64.52 0.0002439985    1.536    0.349
       268 -10.0206     98.4103     41.7393   5.1962282882e+01   5.5205821047e+01    0.3621545    0.2443016  79.28  0.001053227    1.817    0.450
       269  -9.5342     28.1303     41.3184   8.3462403335e+01   6.9090572498e+01    0.2495043    0.1863629 -67.99 0.0005785564    1.326    0.246
       270  -9.7554    230.7026     39.6741   3.0600769321e+01   2.2508362086e+01    0.2716037    0.1661245 -39.53 0.0008063924    1.324    0.245
       271  -8.8784     76.3986     40.2101   5.8662530055e+01   6.0758316580e+01    0.2180924    0.1356522 -51.63 0.0009466286    1.717    0.418
       272 -10.8289    149.4380     38.1078   3.9334333538e+01   4.2266060831e+01    0.6214495     0.447673   4.82   0.00197239    1.928    0.481
       273 -10.2072    127.6374     37.7629   4.3158781829e+01   4.8173325512e+01     0.452223    0.3115384  73.75  0.002073875    1.472    0.320
       274  -9.7520    115.1442     35.2315   4.4855743569e+01   5.1897709039e+01    0.3685123    0.2053386 -27.55   0.00125554    1.944    0.486
       275  -9.0794     68.2179    248.8261   9.9597863749e+01   1.7567335496e+01    0.1325311    0.1098419  28.54 0.0004274519    1.307    0.235
       276 -10.0749     77.5800     30.0844   5.3354690954e+01   6.2270759395e+01    0.4015326    0.2203494 -54.50  0.001489837    2.283    0.562
       277 -10.1737     86.7732     33.8235   5.2021008405e+01   5.9434022726e+01    0.5176771    0.2370664  48.81  0.001366146    2.165    0.538
       278  -9.6331     73.1740     36.6515   5.8242678980e+01   6.2142783949e+01     0.321826    0.2288332  35.46  0.001198864    1.565    0.361
       279  -9.9751     74.9944     33.7392   5.6128264751e+01   6.2251536379e+01    0.3915037    0.2479949 -39.79  0.001790496    1.583    0.368
       280 -10.3792     84.3670     38.3817   5.4941429773e+01   5.9237459113e+01    0.6117526    0.3073992 -59.98  0.001062168    3.277    0.695
       281  -9.7144     82.8193     31.6787   5.2309285916e+01   6.0752212147e+01    0.4418555    0.2586385  23.23  0.001372075    3.069    0.674
       282  -8.7287     44.3191     38.8631   7.2874165659e+01   6.7355478534e+01    0.2094497    0.1177879 -42.46 0.0004253912    1.787    0.440
       283 -10.4835    201.7652     37.2958   3.2515111602e+01   2.9147953234e+01    0.2859353    0.2077265 -54.54 0.0004694611    1.257    0.205
       284  -9.3142    181.5036    247.5081   7.8472915184e+01   3.8732912881e+00    0.1059394   0.07509927  20.95 0.0008105963    1.013    0.013
       285 -10.0540    106.3824    244.6380   9.1836790735e+01   1.3593938906e+01    0.2157225    0.1830771  58.29  0.001102713    1.324    0.245
       286  -9.3367      3.6972    246.0388   1.1204236387e+02   2.4597395215e+01     0.142526   0.09887577  53.53 0.0006054998    1.083    0.077
       287  -9.3576    223.3101    245.2970   7.1543195516e+01  -6.9883166915e-01    0.1009765   0.05605094   9.09 0.0003371734    1.595    0.373
       288 -10.1528     23.0200     25.5911   8.0136860872e+01   7.3280036040e+01    0.2767845    0.2300858 -30.36  0.001049021    1.183    0.155
       289 -10.4477    166.0769    243.6885   8.0672682256e+01   6.1807273756e+00    0.1844597    0.1562757  36.33 0.0005866972    1.369    0.270
       290  -8.8267     30.4323    244.5080   1.0682074128e+02   2.2325925441e+01    0.1097878   0.07361543  48.14 0.0001288456    1.023    0.023
       291 -10.7528    159.7961    242.0178   8.1591182199e+01   7.1637109376e+00    0.2237963    0.1939467 -58.04  0.001790087    1.790    0.441
       292  -8.6715     92.5893    242.7916   9.4379861414e+01   1.5573106005e+01    0.1243223   0.09666677  68.01 0.0002866506    1.463    0.316
       293  -8.7824     41.5190    242.4374   1.0454112033e+02   2.1518074480e+01     0.110303   0.07753775  45.16 0.0001237316    1.031    0.030
       294  -9.7402    247.4115    240.8031   6.7455933670e+01  -2.8468552808e+00    0.1309492   0.06915863 -11.43  0.000956448    1.721    0.419
       295  -9.7930     14.6224    238.2721   1.0975263612e+02   2.4889473712e+01    0.1503315    0.1209378  80.70   0.00053112    1.395    0.283
       296  -9.8500      3.1264     37.9257   9.9346329879e+01   7.2027416553e+01    0.3676253    0.1816742  -3.74  0.001708161    2.514    0.602
       297  -8.5387     79.2577     37.6465   5.6409859369e+01   6.0572502037e+01    0.1516472    0.1138497 -68.74 0.0001793905    1.609    0.379
       298  -8.5331     38.5056     37.5214   7.5576419097e+01   6.8561750758e+01    0.1980351    0.1327514 -64.53 0.0007634287    1.626    0.385
       299 -11.7376     40.2498     33.0354   7.2438168745e+01   6.9261372751e+01    0.3047901    0.2722785  61.71 0.0001845658    1.251    0.200
       300  -9.5649    116.9777    236.9910   8.9070861981e+01   1.3331356010e+01     0.138476    0.1040594  35.09 0.0004059905    1.013    0.013
       301 -10.3072    194.5617     37.0159   3.3158031480e+01   3.0885771889e+01    0.3399633     0.224581 -65.79 0.0005751217    1.552    0.356
       302 -11.2338    246.7070     32.7183   2.7795690004e+01   2.0075255735e+01    0.4626844    0.2096154 -43.94  0.001473764    1.737    0.424
       303  -9.5788     12.8170     36.2238   9.1931714405e+01   7.1824881535e+01    0.1906874    0.1683358 -80.90 0.0006897873    1.134    0.118
       304 -10.4423    169.8680     33.7570   3.4978826440e+01   3.7454689107e+01    0.3226888    0.2250599 -22.26 0.0005717431    1.523    0.343
       305 -10.0293    152.9666     31.9382   3.6651719212e+01   4.2142368119e+01    0.4693249    0.2959573  73.03  0.002149798    1.576    0.366
       306 -10.0833     97.1312     33.2047   4.8585185719e+01   5.6931332228e+01    0.2387413    0.2253175 -74.56 0.0002279587    1.052    0.049
       307 -10.5873    119.4186    231.0199   8.7993304517e+01   1.3871557860e+01    0.2263129    0.1872105  53.09 0.0004273419    1.295    0.228
       308  -9.5948    140.0417    227.6209   8.3592745576e+01   1.1593459498e+01    0.2422937    0.1304428  37.50  0.001283537    1.441    0.306
       309  -9.4498     98.0501    225.2250   9.1759827238e+01   1.7579510149e+01    0.1755384     0.156975  47.42 0.0004583732    1.182    0.154
       310 -10.3264    244.3394     18.9337   2.4716869313e+01   2.1953234062e+01    0.3257659    0.2024521 -57.72 0.0009644573    1.433    0.302
       311 -11.4836    132.0872     29.6690   3.9183355150e+01   4.8095673818e+01    0.4051327    0.3039683 -32.92  0.001985082    1.349    0.259
       312  -9.0691    218.1547     41.7996   3.2190431800e+01   2.4919457100e+01    0.2077128    0.1534706 -50.89  0.000612538    1.201    0.167
       313  -9.3171    106.6644     34.9199   4.6779033528e+01   5.4190184283e+01    0.2454147    0.2013419  38.17 0.0003790119    1.339    0.253
       314 -10.6544    124.1029     30.5270   4.1023273945e+01   5.0155183131e+01    0.3124582    0.2727934 -66.51 0.0003961156    1.122    0.109
       315  -9.8525    120.6642     25.9157   3.9815692288e+01   5.1707168108e+01    0.4261158    0.3357901 -81.30  0.002120054    1.307    0.235
       316  -9.9016    216.0551     29.0793   2.9057917267e+01   2.6832687464e+01    0.2283412    0.2042284  87.25 0.0004806175    1.218    0.179
       317  -9.7857    110.1114     29.4287   4.3567902514e+01   5.4085896457e+01     0.312612    0.2626981  73.50 0.0008037269    1.155    0.134
       318  -9.3817    179.6196     28.4791   3.2199337199e+01   3.5595501401e+01    0.2742566     0.219391  73.82 0.0009866129    1.278    0.217
       319 -10.0591    183.4762     25.1449   3.0788619708e+01   3.5006533550e+01    0.3029381     0.206913 -55.82 0.0007821688    1.349    0.259
       320 -10.2936    179.5222     21.6912   3.0117532213e+01   3.6394347757e+01    0.4101847    0.2452325 -58.07  0.001946993    1.605    0.377
       321  -9.5840    206.8090     25.9677   2.8955737675e+01   2.9274569618e+01    0.2605431    0.1728161 -17.44 0.0008112048    1.622    0.383
       322  -9.5073     73.3908     25.4908   5.2517699941e+01   6.4003639076e+01    0.2593163    0.2383795  62.82 0.0007419051    1.086    0.079
       323 -10.0753     66.0194     25.1791   5.5256135145e+01   6.5746486533e+01    0.3437393    0.1983106 -45.23 0.0009263468    1.802    0.445
       324 -10.0531     98.6555     23.3255   4.3587458184e+01   5.7977117106e+01    0.3488669    0.3249224  54.29  0.001918652    1.075    0.070
       325 -10.9164     76.8101    219.6443   9.5770715120e+01   2.1248072453e+01    0.7136227    0.3542813  29.51  0.003861681    1.786    0.440
       326 -11.2356     73.1186    214.1516   9.6127183414e+01   2.2676152422e+01    0.7473586    0.3156252  33.58  0.003776087    1.884    0.469
       327  -8.3150     28.3592    221.2731   1.0635488405e+02   2.6513688167e+01   0.09718328   0.08382661   3.94 0.0004728802    1.652    0.395
       328  -9.2007    142.5364     21.6649   3.4462575405e+01   4.6230791215e+01     0.282504    0.1862237 -79.81 0.0008890067    1.609    0.378
       329  -9.1230    222.8559     14.9977   2.4953468497e+01   2.6813632221e+01    0.2634927    0.1924284   3.39  0.001496608    1.815    0.449
       330 -10.0521    225.0040     23.0113   2.6854470979e+01   2.5526978486e+01    0.3334838    0.2045925  82.48 0.0003374946    1.783    0.439
       331  -9.5133    222.4953     19.4959   2.6123386077e+01   2.6435758313e+01    0.2646036    0.1097655 -26.72  0.001113556    2.098    0.523
       332  -9.7282    212.0748     22.2616   2.7553879555e+01   2.8467087922e+01    0.2856536    0.1758423 -27.31 0.0007683811    1.495    0.331
       333 -10.2362    164.2836     22.4815   3.1972286969e+01   4.0268125256e+01    0.3797269    0.2488007  50.00  0.001323898    1.706    0.414
       334  -9.7919    158.7787     22.7917   3.2724886054e+01   4.1698010676e+01    0.2300077    0.2157894  74.66 0.0006508922    1.124    0.110
       335  -9.4467    108.7183    220.4455   8.9072604528e+01   1.6914747382e+01    0.2557621   0.08235709  38.97  0.001152766    2.289    0.563
       336  -9.2268    248.6626     22.2451   2.5254624302e+01   2.0777351834e+01    0.1889039    0.1379157 -67.15 0.0005316521    1.342    0.255
       337  -8.8623    187.6403     22.1526   2.9499425281e+01   3.4299472264e+01    0.1851655    0.1286908 -13.33  0.000731234    1.651    0.394
       338  -9.3742    118.7969    216.7745   8.6587857230e+01   1.6106484907e+01    0.2056529     0.171939 -87.60   0.00124576    1.591    0.371
       339  -9.2031    131.2937     19.6713   3.5387870862e+01   4.9554406170e+01    0.3469997    0.1649224  64.07  0.001389331    1.953    0.488
       340  -8.9428     81.0016     19.9870   4.6938418977e+01   6.2976859080e+01    0.2203237     0.165202 -62.80 0.0003336442    1.541    0.351
       341  -9.0478     75.8847     20.1367   4.8720402758e+01   6.4216760755e+01    0.2886551    0.1628543  38.07  0.001208193    2.050    0.512
       342  -9.6463     12.0578    216.9731   1.0970723317e+02   2.8879354932e+01    0.1678755    0.1226361  53.61  0.000362285    1.041    0.039
       343  -8.5417     99.5143    215.5253   9.0509139629e+01   1.8964937020e+01    0.1228607   0.09430774  42.09 0.0001263585    1.032    0.031
       344  -9.1844     91.4304    214.5302   9.2151841538e+01   2.0222828645e+01    0.2480513   0.09440392  34.93 0.0006554833    2.037    0.509
       345  -9.0794     23.7682    213.1559   1.0702678610e+02   2.8469689273e+01    0.1395656     0.124637  36.48 0.0006124419    1.334    0.251
       346 -10.9424    148.9788    210.6739   7.9753254287e+01   1.2743823004e+01    0.1862576    0.1705246  -4.06 0.0004155536    1.227    0.185
       347  -9.3334    104.9360    210.0653   8.8771403637e+01   1.9132182208e+01    0.1817479    0.1482877  33.86 0.0003953598    1.088    0.081
       348  -8.6038     42.2692    208.3137   1.0264130019e+02   2.7437837264e+01   0.09804972   0.09086742 -19.31 0.0001714935    1.550    0.355
       349  -9.4972    118.4888     19.1533   3.7370696787e+01   5.3144188345e+01    0.3100376    0.2004921  62.08  0.001427651    1.465    0.317
       350  -8.7492    226.6240     18.1604   2.5529738823e+01   2.5679748575e+01    0.1699706    0.1114066 -15.77  0.000632472    1.651    0.394
       351  -8.8005     88.4617     17.9567   4.3640477246e+01   6.1352478711e+01     0.218601    0.1047468 -50.46 0.0008090327    2.518    0.603
       352 -10.7802    193.4656     16.8575   2.7454059712e+01   3.3429718180e+01    0.2352921    0.2004029 -71.47 0.0002896673    1.090    0.082
       353 -10.3799     90.2158    205.0983   9.1486837537e+01   2.2037435459e+01     0.368133    0.2392984  88.83  0.001843978    2.048    0.512
       354  -9.3449     80.0551     15.8716   4.4997129159e+01   6.3767985678e+01    0.3097999    0.1916722  60.12 0.0009664239    1.547    0.354
       355  -9.0978     74.0445    204.9917   9.5137384206e+01   2.4220901741e+01    0.1769103    0.1444292  -0.00   0.00096247    1.683    0.406
       356 -11.7734      4.6019    201.2711   1.1093767626e+02   3.2537065131e+01    0.4422489    0.1914565  66.45  0.002467296    1.889    0.471
       357 -10.1136    167.0522    198.1449   7.4489696140e+01   1.1897320713e+01    0.1779465    0.1528853   8.28 0.0002878436    1.105    0.095
       358  -8.3323     41.7031    201.6805   1.0237575689e+02   2.8780922980e+01    0.1033266   0.09262214 -20.98 0.0002184968    1.615    0.381
       359  -8.9043    172.9682    191.7132   7.2384847495e+01   1.1922776292e+01    0.1656277    0.1308064  26.79 0.0002293651    1.073    0.068
       360  -8.5083     89.5460    188.4224   8.9833025131e+01   2.5236348961e+01    0.1297538    0.1071871  44.31 8.069818e-05    1.024    0.023
       361  -9.2934     62.9393    188.3448   9.6271994184e+01   2.8895011108e+01     0.177515    0.1314104  41.51 0.0002881022    1.137    0.120
       362 -10.2676      1.3472    184.5072   1.1128603518e+02   3.6209649242e+01     0.380388   0.09627622 -85.28  0.001535565    3.805    0.737
       363  -9.0914    109.2308    185.8390   8.4891828522e+01   2.2788278759e+01    0.1935855    0.1548758  50.76 0.0004349219    1.146    0.128
       364  -8.2054    141.2956     14.3400   3.1873951475e+01   4.7386071927e+01     0.149345    0.1082223  35.96 0.0002592068    1.657    0.397
       365  -8.5136     85.3376     14.6588   4.2772852481e+01   6.2575982985e+01    0.1564101    0.1069105 -64.84 0.0007050281    1.764    0.433
       366  -8.9417     34.4389    177.7211   1.0263527175e+02   3.4529334874e+01    0.1497812    0.1125135 -73.30 0.0002819106    1.468    0.319
       367  -9.3821     25.0244    173.9989   1.0486136417e+02   3.6324790098e+01    0.1870075    0.1457582  57.35  0.001202651    1.010    0.010
       368  -9.5753    102.1984    173.0607   8.4808917848e+01   2.6339843882e+01    0.2176149    0.1662733  40.63 0.0003605594    1.133    0.118
       369 -10.1514     68.5635    171.3573   9.3134334669e+01   3.1704773165e+01    0.2941675    0.2313773  30.25 0.0001005023    1.300    0.231
       370  -9.3305     36.7822    172.8366   1.0168139371e+02   3.5341409144e+01    0.1740337    0.1605916  69.02 0.0004791974    1.193    0.162
       371  -8.4644     87.5174    171.0131   8.8192248240e+01   2.9031786172e+01    0.1766176    0.1065223  76.23 0.0005791066    2.248    0.555
       372  -8.5095     20.3088    170.3123   1.0590566780e+02   3.7602419522e+01    0.1115113   0.09395178 -43.16   0.00070267    1.625    0.384
       373 -10.7824     10.3205    163.4745   1.0827136488e+02   4.0043371992e+01    0.2351887     0.227484 -86.71 0.0007872547    1.316    0.240
       374  -9.7774      4.9936    159.3031   1.0956909201e+02   4.1431061832e+01    0.1738083    0.1362021  56.45  0.000470014    1.057    0.054
       375 -10.1631     20.1939    158.4129   1.0526884298e+02   4.0316370763e+01    0.1882911   0.09140441  41.41 0.0007695519    1.677    0.404
       376  -9.9936      2.9807    152.9930   1.0990310449e+02   4.3040517236e+01    0.3149133    0.1472841 -44.27  0.001371478    3.447    0.710
       377 -10.9347      6.4798    148.0604   1.0869060428e+02   4.3926897069e+01     0.350483    0.1875251  39.62  0.001393771    1.593    0.372
       378  -8.7601    201.4431     12.4956   2.5631769928e+01   3.1950143264e+01    0.1382777    0.1109021 -53.72 0.0001580726    1.053    0.051
       379 -10.9904     11.7253    145.8532   1.0702283736e+02   4.4028064179e+01    0.2966084    0.2032069 -76.45 0.0006081951    1.442    0.306
       380  -8.3714     80.5086    152.3914   8.7475059412e+01   3.4145078483e+01     0.141253     0.121396  53.77  7.39294e-05    1.025    0.024
       381  -9.8369    125.1807    147.4164   7.4940472659e+01   2.7548421365e+01    0.2302261    0.1998814 -61.71 0.0003621159    1.268    0.212
       382 -10.9283     30.9114    147.1144   1.0132953328e+02   4.1916471864e+01    0.2616583    0.1938169  61.65 0.0002780186    1.146    0.128
       383 -10.0039     36.4337    143.7287   9.9343959272e+01   4.2135442053e+01    0.5458081    0.1719263 -70.42  0.002082335    2.970    0.663
       384 -10.9974      3.3132    142.9252   1.0941577634e+02   4.5386757001e+01     0.342567    0.3107392 -21.11  0.001770786    1.475    0.322
       385 -10.9416     20.9789    141.6415   1.0393526918e+02   4.4227422502e+01    0.4186602    0.1779669  44.31  0.001117496    1.952    0.488
       386  -9.3211     44.8744    141.6248   9.6526125971e+01   4.1661428111e+01    0.2207339    0.1760402 -67.87 0.0005727895    1.322    0.244
       387  -8.5803     55.3268    141.6627   9.3322682047e+01   4.0314830145e+01    0.1543309   0.09070142  62.72 0.0001229933    1.726    0.421
       388 -11.1867     28.5265    138.0937   1.0128543215e+02   4.4358883074e+01    0.4918662    0.2856825 -86.22  0.001276688    1.638    0.389
       389 -11.6546     11.7894    115.1924   1.0502113432e+02   5.1620163614e+01    0.5433592    0.4351192 -89.94  0.003049552    1.110    0.099
       390 -11.1885     13.0205    134.8410   1.0597858870e+02   4.6591906484e+01    0.4890522    0.3274208  18.14 0.0004051558    1.720    0.419
