#   1 NUMBER                 Running object number                                     
#   2 MAG_AUTO               Kron-like elliptical aperture magnitude                    [mag]
#   3 X_IMAGE                Object position along x                                    [pixel]
#   4 Y_IMAGE                Object position along y                                    [pixel]
#   5 X_WORLD                Barycenter position along world x axis                     [deg]
#   6 Y_WORLD                Barycenter position along world y axis                     [deg]
#   7 A_WORLD                Profile RMS along major axis (world units)                 [deg]
#   8 B_WORLD                Profile RMS along minor axis (world units)                 [deg]
#   9 THETA_WORLD            Position angle (CCW/world-x)                               [deg]
#  10 FWHM_WORLD             FWHM assuming a gaussian core                              [deg]
#  11 ELONGATION             A_IMAGE/B_IMAGE                                           
#  12 ELLIPTICITY            1 - B_IMAGE/A_IMAGE                                       
         1 -13.2839    206.1906     34.5057   5.7804852176e+01   2.9226891647e+01     1.170249    0.8956161 -61.96  0.006022624    1.137    0.120
         2 -13.2093      4.8973      9.9253   1.1292038623e+02   7.7575312984e+01     1.584509    0.5605108 -48.65  0.007259814    2.410    0.585
         3 -13.6731    224.1641     16.3495   5.2211421040e+01   2.7422752411e+01    0.8411076    0.8100494  45.64  0.001815431    1.404    0.288
         4 -10.7337    197.8909    245.6445   1.0215745404e+02  -2.8861298541e-01    0.1890025    0.1274404  -8.80  0.001026474    1.337    0.252
         5 -11.2703    185.1124    248.7658   1.0490960996e+02   8.1933213452e-01    0.3395923    0.2060583 -16.05  0.002168685    1.724    0.420
         6 -11.2639    180.8048    243.5158   1.0501022696e+02   2.0064671675e+00    0.3149341    0.1317175  32.30  0.001486887    1.950    0.487
         7 -11.6832    176.1389    249.5369   1.0669178395e+02   1.7919738350e+00    0.4684452    0.1641763  26.15  0.002198959    2.489    0.598
         8 -11.3535    162.1963    250.1405   1.0945313647e+02   3.4132519944e+00    0.3299578    0.1594255  30.11  0.001868914    1.601    0.376
         9 -12.9274    120.9468    238.3049   1.1655138749e+02   1.0485943723e+01    0.8835793    0.4840898  38.55  0.001792068    1.507    0.337
        10  -9.2464    123.2092    229.6389   1.1503663700e+02   1.1615840080e+01     0.164583    0.1415721  33.77 0.0005403238    1.134    0.118
        11 -10.9722    132.4457    249.1749   1.1534193561e+02   7.2965204813e+00     0.542071    0.1690085  36.21  0.002416801    2.429    0.588
        12 -11.9955    123.4441    247.9812   1.1709330355e+02   8.6286368614e+00    0.7025806    0.3721368  42.30    0.0039254    1.706    0.414
        13 -11.1944    117.1133    249.7937   1.1862380116e+02   9.1560013488e+00    0.5600143    0.2575212  31.00   0.00201872    1.647    0.393
        14 -10.8799    110.4112    247.6056   1.1982695712e+02   1.0353739481e+01    0.4009206    0.2904772   5.34  0.002536204    1.532    0.347
        15 -11.0833     99.4747    248.0750   1.2222882726e+02   1.1661353071e+01    0.4073042    0.3111644  55.15  0.002732649    1.407    0.289
        16 -12.5395    102.8180    238.2988   1.2053505439e+02   1.2869226587e+01    0.6583648    0.6059608  53.12  0.002629876    1.244    0.196
        17 -10.6049     97.1592    239.3352   1.2189685083e+02   1.3422978465e+01    0.2241181     0.209564  41.55 0.0008269221    1.205    0.170
        18 -12.2293    102.3681    230.2874   1.1979432401e+02   1.4322514230e+01    0.9594209    0.3114065  27.82  0.003737536    2.837    0.648
        19 -11.4815     90.3363    223.6605   1.2187690478e+02   1.7133985241e+01    0.4908989    0.4183675 -48.40  0.002397528    1.437    0.304
        20 -11.4787     87.5709    248.3981   1.2483997180e+02   1.3086509043e+01    0.5391037    0.3189999  35.93  0.001634645    1.266    0.210
        21 -10.2486     81.6059    248.4004   1.2613831477e+02   1.3813659863e+01    0.3798549    0.1874259 -79.31  0.001920608    3.147    0.682
        22 -10.2614     84.1530    230.1019   1.2395655732e+02   1.6738915961e+01    0.2406408    0.2094109 -65.59  0.001329525    1.418    0.295
        23 -11.9543     89.5512    239.0795   1.2357018244e+02   1.4437367742e+01    0.6979795    0.4101019  61.74  0.003773664    2.113    0.527
        24 -11.1225     82.6670    240.0230   1.2519593067e+02   1.5134369446e+01    0.4870885     0.217624  48.97   0.00106909    2.114    0.527
        25 -11.2639     68.2720    245.3937   1.2882450048e+02   1.5926107064e+01    0.3467038    0.2428589  37.19  0.000947714    1.082    0.076
        26 -11.4050     59.4052    246.0158   1.3081506571e+02   1.6841635136e+01    0.5439938    0.4150129  60.84  0.003759704    1.276    0.216
        27 -12.0220     32.5127    230.5997   1.3590338975e+02   2.2635378045e+01    0.9494082    0.6395409 -16.01  0.002966979    2.484    0.597
        28 -12.5890     37.5133    206.5423   1.3330074991e+02   2.7038800370e+01    0.9586763    0.5681662  32.64  0.005294962    1.441    0.306
        29 -14.4836     23.9531    219.9720   1.3734949350e+02   2.5604282169e+01     1.313892     1.003412   4.23   0.00836848    1.695    0.410
        30 -12.0584    135.0579    235.1254   1.1313181291e+02   9.1143935246e+00    0.4381329    0.3293062 -69.29   0.00271206    2.037    0.509
        31 -10.0683     53.6635    241.1920   1.3176545759e+02   1.8360264813e+01    0.2029917    0.1448905  33.70  0.001151076    1.151    0.131
        32  -9.5204     54.8526    235.5749   1.3112703627e+02   1.9266382272e+01    0.2497326    0.1104768  55.58 0.0009667553    2.210    0.548
        33  -9.0656    183.7205    234.3236   1.0318358529e+02   2.8614498900e+00    0.1010184   0.08689897  38.91 0.0003201916    1.589    0.371
        34 -10.8237    113.5823    230.1128   1.1723929236e+02   1.2845427962e+01    0.2634601    0.2050929 -23.59  0.001387205    1.562    0.360
        35 -10.0569    153.8925    229.8827   1.0848210669e+02   7.3910815838e+00    0.1858262    0.1598544  -1.94 0.0003221428    1.174    0.148
        36 -10.3530     56.6096    228.3245   1.3021208862e+02   2.0446437996e+01    0.2358708    0.1883923  59.19 0.0002010403    1.174    0.148
        37 -10.7355     78.8111    225.7403   1.2479235414e+02   1.8238353408e+01    0.3266015    0.3004322 -55.17  0.002239662    1.345    0.256
        38 -12.1476    134.3546    242.7805   1.1420575806e+02   8.0161581016e+00    0.4868485    0.3187409  -0.13  0.002826766    1.817    0.450
        39 -11.2969    142.6166    248.8172   1.1320690303e+02   6.0537981165e+00    0.4057066    0.2180699  46.53  0.002193964    2.170    0.539
        40 -10.0072     98.8177    224.1454   1.1994414432e+02   1.5909044261e+01    0.1714742    0.1406645   5.20 0.0006472691    1.344    0.256
        41 -10.0542    245.4333    221.2281   9.0626303473e+01  -2.7114750809e+00    0.1382554   0.08691889 -33.41 0.0009560952    1.709    0.415
        42 -10.4363     71.5052    219.6041   1.2596524958e+02   2.0354047163e+01    0.4902193    0.2293654  52.81  0.002287514    2.153    0.536
        43 -10.4419     60.3463    220.2346   1.2870521800e+02   2.1598583889e+01     0.220637    0.1776165  36.58 0.0003074112    1.079    0.073
        44 -11.2902     74.0496    237.0740   1.2688552691e+02   1.6723452766e+01    0.5040551    0.2241816 -55.18  0.002533718    2.769    0.639
        45 -10.5452    107.8261    216.9088   1.1699924671e+02   1.6007430352e+01    0.4354464    0.2051755  49.92  0.001318146    2.391    0.582
        46 -10.0318     50.7575    218.5974   1.3088817107e+02   2.3051048919e+01    0.3264886    0.1732642  59.62 0.0008081117    1.863    0.463
        47 -10.1069     46.1092    214.4527   1.3171795508e+02   2.4428033317e+01    0.3836252    0.1162139  44.13  0.001588981    2.498    0.600
        48  -8.9287    116.1841    216.1210   1.1494711348e+02   1.4968401817e+01    0.2670832    0.1538472   6.95  0.001174234    2.575    0.612
        49  -9.6756     87.9756    213.1904   1.2132607693e+02   1.9470297619e+01    0.2709751    0.1683864  88.90  0.001278129    2.345    0.574
        50 -10.2719     62.8445    208.8853   1.2712019629e+02   2.3618838732e+01    0.3319574    0.2380452  29.33  0.001066269    1.261    0.207
        51  -9.5217     58.5298    212.5291   1.2851302770e+02   2.3385543120e+01    0.2453807    0.1257271  38.74 0.0007204167    1.548    0.354
        52  -9.9815     55.8155    209.0662   1.2889867725e+02   2.4434045893e+01    0.4351368    0.1882739 -71.49   0.00199288    2.615    0.618
        53  -9.6752    111.0064    211.4079   1.1556043530e+02   1.6586235925e+01     0.202425    0.1896391  66.49 0.0003805916    1.243    0.195
        54  -9.6078     99.2605    209.7713   1.1818122284e+02   1.8579573875e+01    0.2870362    0.1657441  57.72  0.000982524    2.123    0.529
        55  -9.4054     65.4716    205.4267   1.2613531443e+02   2.4019430577e+01    0.3309158    0.1062922  31.09  0.001287205    2.533    0.605
        56  -9.2343    106.6764    203.5652   1.1558404172e+02   1.8731244850e+01    0.1956628    0.1294606 -60.30 0.0004639954    1.807    0.447
        57  -8.8267    114.0023    204.4635   1.1392500237e+02   1.7474008413e+01    0.1804101    0.1782077 -52.28  9.81554e-05    1.201    0.168
        58  -8.7265     72.5182    203.4478   1.2414326009e+02   2.3532248104e+01    0.1374153    0.1114407  45.58 9.306765e-05    1.057    0.054
        59  -9.8606    250.4936    200.2807   8.6525885915e+01  -8.3529760256e-01    0.1964304   0.08518678 -27.96 0.0006741757    1.967    0.492
        60  -8.2680     96.7197    199.3209   1.1750662047e+02   2.1042756146e+01    0.1371874   0.09528068  58.39  0.000199533    1.585    0.369
        61 -14.7010     14.3954    242.8128   1.4038286262e+02   2.2076097787e+01     3.189716     1.038403  31.82   0.01612715    2.182    0.542
        62  -9.5729     31.1542    193.8550   1.3408569875e+02   3.0496948450e+01    0.3042772    0.1586056  67.28  0.001004558    1.930    0.482
        63 -13.8433      8.7225    210.8696   1.4055218184e+02   2.8879372303e+01     2.467314     1.107927  87.32   0.01272113    2.235    0.553
        64 -11.9455     51.2882    191.9846   1.2858457987e+02   2.8704668178e+01     0.468538    0.4112365  54.56  0.001460879    1.039    0.037
        65  -9.0624     25.6016    192.8135   1.3547746500e+02   3.1282850019e+01    0.2306661    0.1511607  44.58  0.001316188    1.267    0.211
        66  -8.8729     21.9593    193.2516   1.3645567663e+02   3.1530780856e+01     0.251272    0.1610378  48.61 0.0003323113    1.289    0.224
        67 -10.1863     19.0946    188.4290   1.3693794836e+02   3.2890708302e+01    0.3074406    0.1647443 -89.57 4.332498e-05    1.863    0.463
        68  -9.1228    191.5803    191.6833   9.4955788856e+01   7.9411640546e+00    0.1508241    0.1157625 -37.59 0.0006209341    1.437    0.304
        69  -9.4553     33.9843    191.8148   1.3319668508e+02   3.0668272938e+01    0.3283774    0.1510682  53.81   0.00152069    1.976    0.494
        70 -10.0828     70.5364    187.1523   1.2288080344e+02   2.7360719649e+01    0.3695968    0.2012188  21.62  0.001650182    1.971    0.493
        71 -10.0379      9.8461    187.0023   1.3930703943e+02   3.4016808076e+01     0.286607     0.168788 -87.40   0.00158437    1.639    0.390
        72 -11.7610     57.8694    184.7935   1.2609358713e+02   2.9546452752e+01    0.3522417    0.2480616  35.41 0.0004744945    1.258    0.205
        73  -8.9891     29.3497    183.9284   1.3388903513e+02   3.2956809551e+01    0.2964934    0.1650203 -37.17  0.001338976    2.727    0.633
        74  -9.6479     36.8599    180.4083   1.3153828230e+02   3.3010286096e+01    0.2847908    0.1838975 -65.46 0.0006826015    1.642    0.391
        75  -8.5974     27.0297    179.2206   1.3419912218e+02   3.4291369741e+01     0.193224    0.1430794 -25.60 0.0008438271    1.844    0.458
        76  -8.8005    110.7934    178.0028   1.1080967391e+02   2.3358788561e+01    0.2134349    0.1465442  16.45  0.001016613    1.629    0.386
        77  -8.8433     61.6874    177.7506   1.2425462709e+02   3.0701375852e+01    0.1290454    0.1068612 -10.74   0.00014225    1.516    0.341
        78 -10.8210     68.7876    237.7310   1.2812855071e+02   1.7239391736e+01     0.367668    0.2316765 -15.55  0.001429685    2.857    0.650
        79 -11.0656    248.7288    172.7345   8.2073664921e+01   2.7839270636e+00    0.3622606    0.2204664   8.63  0.002207469    1.831    0.454
        80 -10.6912     69.8440    172.8230   1.2132219981e+02   3.0769853339e+01    0.2535593    0.2474768  61.62 0.0003789962    1.101    0.091
        81 -10.8636     54.0910    171.7865   1.2576713581e+02   3.3088026358e+01    0.3989861    0.2495593  40.28  0.001098585    1.412    0.292
        82 -11.7135     11.2431    155.4863   1.3722690898e+02   4.1448687775e+01    0.5312257    0.2461922 -60.40  0.002434997    2.187    0.543
        83 -11.8123      9.1603    164.8346   1.3839664358e+02   3.9304827193e+01    0.6996731    0.3608049 -33.59  0.003067485    2.989    0.665
        84 -11.1826     11.6403    171.1241   1.3802680011e+02   3.7590459373e+01     0.479834    0.2170537  58.20  0.002065704    2.017    0.504
        85 -11.3546     12.4830    167.0411   1.3755520103e+02   3.8508090253e+01    0.4342121    0.2337523  22.55  0.002179117    1.878    0.468
        86 -10.7508      2.3777    172.2906   1.4068015461e+02   3.8017051588e+01    0.3472762    0.1828661  57.99  0.001138903    1.636    0.389
        87  -9.8184     27.1754    171.6780   1.3360681884e+02   3.6083364091e+01      0.28785    0.2176425 -34.85 0.0004342698    1.698    0.411
        88  -9.0068     18.0358    172.5067   1.3628930077e+02   3.6722266853e+01     0.192938    0.1197847  27.14  0.001023582    1.562    0.360
        89  -9.2349     91.6629    168.4445   1.1447256944e+02   2.8556619158e+01    0.2585294    0.1270128  37.33 0.0006942985    1.806    0.446
        90 -10.4188     39.4298    167.8497   1.2968236646e+02   3.5757742765e+01    0.2919971    0.2102255   7.55  0.001007561    1.683    0.406
        91  -9.1932     19.5303    168.4906   1.3559842850e+02   3.7562351068e+01    0.1309824    0.1159339  65.25 -3.730101e-05    1.037    0.036
        92 -11.8643     78.0873    164.9109   1.1783378129e+02   3.1468428350e+01    0.5795454    0.4671955  26.36  0.001565531    1.230    0.187
        93  -8.2747     64.6779    167.2694   1.2211029740e+02   3.2806700440e+01    0.1500992   0.09631059  55.90 0.0002664659    1.567    0.362
        94  -9.6644     68.0700    166.3193   1.2098198273e+02   3.2571050067e+01    0.2014794     0.168388  42.72 0.0004239253    1.086    0.079
        95 -11.6531    245.3782    162.8498   8.0769553610e+01   4.5066164889e+00    0.3712532    0.1914314 -33.01  0.002140213    1.624    0.384
        96 -10.6927    249.5007    161.4692   7.9937912691e+01   4.1459295087e+00    0.2636192    0.1612409 -37.63  0.001651519    1.531    0.347
        97 -10.9824    248.2417    157.5532   7.9394509397e+01   4.8274142870e+00    0.2490073    0.1804693  43.86  0.001675084    1.763    0.433
        98  -8.7977     37.3537    162.2376   1.2976501477e+02   3.7368603639e+01    0.1832599     0.122151  88.30 0.0006291896    1.527    0.345
        99 -10.1327     23.9367    162.0000   1.3382088509e+02   3.8760904427e+01    0.2007121    0.1772569  61.41 0.0004234391    1.019    0.019
       100  -8.5470     42.9501    161.0053   1.2792564190e+02   3.7059301534e+01    0.1661541     0.147818  54.99 0.0003404924    1.021    0.020
       101  -9.5055     81.3041    156.6515   1.1560356018e+02   3.2965798431e+01    0.1572808    0.1074201  64.89 0.0004069707    1.697    0.411
       102 -10.8941     21.9040    155.6957   1.3394697457e+02   4.0518718416e+01     0.270555    0.2437728  42.18   0.00166768    1.120    0.107
       103  -8.1966    228.2930    155.3119   8.1882547926e+01   7.9373397180e+00    0.1232674   0.08315597  -4.48 0.0002937714    1.591    0.372
       104  -9.8830     32.0885    153.7701   1.3057492418e+02   4.0042965968e+01     0.226565    0.1885252 -86.67 0.0005132526    1.161    0.139
       105 -10.9713    249.6111    150.8968   7.7972229098e+01   5.5258007044e+00    0.3991367    0.1860038 -35.41  0.002186388    1.779    0.438
       106 -12.1119    242.2912    120.8170   7.3100066970e+01   1.0696238810e+01    0.7729582    0.4173883  60.07  0.004064556    2.697    0.629
       107 -11.8291    247.8330    142.6209   7.6649495557e+01   6.8806069329e+00    0.4922443    0.3957834   9.76  0.003472617    1.294    0.227
       108 -12.5529    248.4185    134.1993   7.4954917812e+01   7.9360751554e+00     1.053456    0.3767208 -28.85  0.004607651    2.719    0.632
       109 -10.0766    249.8056    117.7959   7.1567788439e+01   9.9523366629e+00    0.2338555    0.1843563 -48.21 0.0008204171    1.331    0.249
       110 -11.9669    247.6345    112.8095   7.0832462864e+01   1.0962688324e+01     0.475385    0.3866273  32.49  0.003296676    1.465    0.318
       111  -9.4996      4.6212    150.7220   1.3898813088e+02   4.3112673110e+01    0.1292687   0.09193972 -39.50 0.0007005926    1.708    0.415
       112 -10.2612     80.7801    148.4534   1.1439305947e+02   3.5047145877e+01      0.25884    0.2503358  52.79 0.0003321815    1.038    0.036
       113  -8.9032     38.9442    148.3490   1.2779362847e+02   4.0708088427e+01     0.258853    0.1148327 -40.42  0.000916389    3.305    0.697
       114 -11.6798     68.2155    143.6339   1.1755852665e+02   3.8168172218e+01    0.7622049    0.4222158  62.83  0.002433417    2.362    0.577
       115 -12.4412      9.0978    143.0645   1.3709511471e+02   4.4736863174e+01    0.7317694    0.4038334 -40.86  0.003453117    2.238    0.553
       116 -11.6653      2.4631    142.5085   1.3921447796e+02   4.5316089215e+01    0.6134862    0.2215789 -83.55  0.002493686    2.557    0.609
       117 -11.3564      5.7829    141.4124   1.3807048474e+02   4.5382278734e+01    0.2985216     0.245579 -79.04  0.001151461    1.158    0.136
       118  -8.9649    235.9860    146.0004   7.8940107850e+01   8.1250321546e+00    0.1856996    0.1273273  -3.29  0.000481453    1.594    0.373
       119  -8.9175     59.3834    146.2929   1.2084479058e+02   3.8738304741e+01    0.1502773    0.1119259 -21.42 0.0007016891    1.757    0.431
       120  -8.8726    133.3955    141.2155   9.7948378755e+01   2.7235227341e+01    0.2092274    0.1454619 -58.26  0.000953429    1.662    0.398
       121  -9.3937     44.8547    139.8498   1.2476510800e+02   4.2233461307e+01    0.2038413    0.1965758 -44.98 0.0003549416    1.142    0.124
       122  -9.0315     96.3144    145.9578   1.0921973664e+02   3.3068212801e+01    0.2054547    0.1924192 -65.60 0.0004276372    1.128    0.114
       123  -9.6523    106.8383    135.4089   1.0396125537e+02   3.3650673391e+01    0.3324682    0.2345278 -14.51  0.001400727    2.072    0.517
       124 -12.2661     11.5743    127.3577   1.3504992930e+02   4.8614986297e+01    0.8768369     0.317394   8.34   0.00315344    3.671    0.728
       125 -11.0807      3.0451    133.2126   1.3846748059e+02   4.7647398007e+01     0.487202    0.2334114  68.45  0.002200718    2.077    0.519
       126 -12.3691      3.7909    121.8226   1.3742563079e+02   5.0543226874e+01    0.7827423    0.4079211 -62.22  0.003779387    1.782    0.439
       127  -8.4655     93.0115    133.2388   1.0768099592e+02   3.6708857377e+01    0.1948634    0.1256051  36.10 0.0003069339    1.489    0.328
       128 -10.4256     17.6592    133.2288   1.3341896560e+02   4.6634643917e+01    0.1935361    0.1677694  54.62  0.001140759    1.104    0.094
       129 -11.3981      8.6715    132.4514   1.3648205257e+02   4.7489498735e+01    0.2588084    0.2265269  78.55 0.0008183632    1.021    0.021
       130  -9.1585     44.1752    130.0897   1.2362266318e+02   4.4860806896e+01    0.2051865    0.1584171  64.18 0.0004909321    1.312    0.238
       131  -9.0436     58.9334    127.6941   1.1797604645e+02   4.3586583083e+01    0.2061872    0.1865758  45.35 0.0003705765    1.072    0.067
       132 -11.5407     15.8018    120.9771   1.3290142289e+02   4.9984038320e+01    0.3631831    0.1976358  80.34  0.001058655    1.949    0.487
       133  -9.9854    232.0551    116.5249   7.3556369352e+01   1.2953904344e+01    0.1629677    0.1244279  50.40  0.001018663    1.555    0.357
       134 -13.0536      4.4312     75.3080   1.3235792524e+02   6.2581498895e+01    0.8078969    0.5777507 -84.56  0.004498279    1.360    0.265
       135 -13.0963      8.8838    113.4079   1.3479871023e+02   5.2439682022e+01    0.9579349    0.3111301 -75.72  0.003592978    2.725    0.633
       136 -13.2548     13.3095    101.6979   1.3173603842e+02   5.5234998587e+01    0.8289268    0.7674115  -1.29  0.005086465    1.188    0.158
       137 -12.1165      2.4524     88.8101   1.3500541920e+02   5.9201071033e+01    0.8009971    0.2941344 -88.45  0.003001883    2.950    0.661
       138 -11.8007      2.9013    110.2801   1.3685995201e+02   5.3594299219e+01    0.5937113    0.2741743 -75.32  0.002690248    1.907    0.476
       139 -11.9472      3.0140    102.4055   1.3612661374e+02   5.5641636384e+01    0.5535868    0.3259341 -60.91  0.002824037    1.540    0.351
       140 -12.7845    248.0841    101.7914   6.8553944314e+01   1.2382725727e+01    0.9297417    0.4382652 -29.14  0.004783201    1.904    0.475
       141 -10.8115     92.7175    149.8844   1.1102453315e+02   3.2747020010e+01    0.3151519    0.3030374 -13.23 0.0008201094    1.126    0.112
       142 -10.8296     23.2171    149.9955   1.3305802848e+02   4.1844333128e+01    0.3197877    0.2085772  17.88  0.001360099    1.665    0.399
       143 -11.5727    150.1903    247.0069   1.1145137734e+02   5.3515391995e+00    0.3285477    0.2241035  12.41  0.002114309    1.304    0.233
       144 -10.9373     73.9091    244.0999   1.2748251811e+02   1.5484650383e+01    0.3034955    0.2894966 -83.44  0.002280429    1.325    0.245
