#   1 NUMBER                 Running object number                                     
#   2 MAG_AUTO               Kron-like elliptical aperture magnitude                    [mag]
#   3 X_IMAGE                Object position along x                                    [pixel]
#   4 Y_IMAGE                Object position along y                                    [pixel]
#   5 X_WORLD                Barycenter position along world x axis                     [deg]
#   6 Y_WORLD                Barycenter position along world y axis                     [deg]
#   7 A_WORLD                Profile RMS along major axis (world units)                 [deg]
#   8 B_WORLD                Profile RMS along minor axis (world units)                 [deg]
#   9 THETA_WORLD            Position angle (CCW/world-x)                               [deg]
#  10 FWHM_WORLD             FWHM assuming a gaussian core                              [deg]
#  11 ELONGATION             A_IMAGE/B_IMAGE                                           
#  12 ELLIPTICITY            1 - B_IMAGE/A_IMAGE                                       
         1 -13.0586    140.0306     61.2613   5.9812313303e+01   4.1926254782e+01    0.6472756    0.3803139 -35.84  0.001772213    1.659    0.397
         2  -9.4869    148.5007      6.5047   3.8988999337e+01   4.7106198472e+01    0.1377464    0.1289177 -86.14 -0.0001384096    1.023    0.022
         3  99.0000    138.5187    236.1365   9.6736284452e+01   9.2538808642e+00    0.2144392    0.1426794  31.25  0.001405653    1.192    0.161
         4 -16.4127    242.0334    224.7197   7.7056973237e+01  -2.2783211390e+00     3.501301     1.161099 -32.60   0.01856824    2.907    0.656
         5  99.0000    170.4948    249.9713   9.2439056941e+01   3.3512550353e+00     0.112007   0.06337258  18.56 -0.0001927609    1.625    0.385
         6  99.0000    152.4823    249.8817   9.5669588719e+01   5.5852585704e+00    0.1207339   0.07810539   1.66 0.0004178472    1.889    0.471
         7 -21.0903    102.7814    187.7104   9.8376664071e+01   2.2582553313e+01     9.494159     7.271968  30.11   0.05451276    1.252    0.201
         8  -9.5124    213.4416    174.8604   7.3373419291e+01   7.5537646653e+00    0.2519749    0.1581061   3.13  0.001029351    1.812    0.448
         9 -11.7328      5.4098    171.8474   1.2086676510e+02   3.7293372607e+01    0.2996433    0.1734698 -86.77 0.0009501002    1.528    0.345
        10 -10.5828    227.4869    172.8161   7.0665180493e+01   5.7854782106e+00    0.1991597    0.1526062  20.83 0.0003992774    1.243    0.195
        11 -10.8279    232.6628    167.1278   6.8781472290e+01   5.8067713035e+00    0.2129872    0.1706944   2.25 0.0002186259    1.080    0.074
        12 -10.4581      1.9962    166.4701   1.2149135846e+02   3.8764323877e+01    0.1750175      0.13952 -81.90 0.0003210914    1.246    0.197
        13  -9.7013      4.6034    163.3808   1.2070103770e+02   3.9278955499e+01    0.1294213    0.1081079  38.95 0.0002639125    1.284    0.221
        14 -10.5342    216.1397    165.3388   7.1126291615e+01   8.5068608754e+00    0.2273733     0.194233  18.23 0.0007534187    1.175    0.149
        15  -9.4969    229.0224    159.8783   6.7969388480e+01   7.3271048445e+00    0.1852225    0.1490812  -8.57 0.0004431642    1.021    0.021
        16  -9.1674    218.1536    159.8007   6.9717313512e+01   8.9957372393e+00    0.1740168    0.1552885 -15.35 0.0004475129    1.172    0.147
        17 -13.0050     36.8100    246.7774   1.1740959905e+02   1.9650565409e+01     0.336799    0.2587527  -1.40  0.002407269    2.069    0.517
        18  -9.8474     12.1125    150.7797   1.1804234272e+02   4.1670543101e+01    0.1483286    0.1372573  66.10 0.0002993633    1.174    0.148
        19  -9.3653      6.6320    151.5177   1.1958773409e+02   4.1907698547e+01    0.1244597   0.09908286  79.99  0.000296676    1.039    0.038
        20  -8.7445      3.6145    149.1287   1.2028926786e+02   4.2692080888e+01    0.2041174    0.1476413 -12.44 0.0009826223    1.990    0.498
        21  -9.8000      9.6188    146.3472   1.1846749804e+02   4.2929066491e+01    0.1513798     0.120791 -66.28 0.0006494877    1.321    0.243
        22  -9.9911     13.5164    142.0389   1.1707436087e+02   4.3683294941e+01    0.2983494    0.1563995  32.94  0.001419393    1.875    0.467
        23 -10.9999     19.0818    139.7059   1.1526892601e+02   4.3813084528e+01    0.2018247    0.1569207 -84.89 0.0004008951    1.135    0.119
        24 -11.6403     27.8391    135.9312   1.1230000332e+02   4.3989484801e+01    0.2293199    0.1802272 -83.90 0.0003115749    1.131    0.116
        25  99.0000    143.5154    235.6408   9.5719366481e+01   8.6716589890e+00    0.2746816    0.1923823  21.08  0.001834528    1.268    0.212
        26  -9.4407     11.2849    129.5683   1.1684096244e+02   4.6945767837e+01    0.1711099   0.09600351 -72.68 0.0006373646    1.560    0.359
        27  -9.1797     15.3023    128.4035   1.1549440812e+02   4.6941975030e+01    0.1279307    0.1028563 -83.82 0.0002410053    1.091    0.083
        28  -9.0634     42.5008    127.1510   1.0668731804e+02   4.4739505661e+01    0.1890278    0.1251109 -71.87 0.0002946827    1.385    0.278
        29 -11.8899     24.0998    123.9093   1.1225578205e+02   4.7371850732e+01    0.2383371    0.2023532  67.05 0.0003410872    1.109    0.098
        30 -10.2305    150.2124    241.8842   9.5179662256e+01   6.9330539222e+00    0.1900779    0.1141072  41.03 0.0006158915    1.491    0.329
        31  -9.0335     23.1186    114.8096   1.1158319200e+02   4.9795358196e+01    0.1951208     0.151733  81.13 0.0005392558    1.170    0.145
        32 -11.9475     29.9709    112.7053   1.0894898686e+02   4.9736799215e+01    0.2377724    0.2295711 -71.94 0.0003634288    1.146    0.127
        33 -10.8631     15.9420    112.1358   1.1377038124e+02   5.1048234018e+01    0.2020855    0.1684209 -89.70 0.0002947484    1.024    0.023
        34  99.0000    138.2374    240.6260   9.7295104574e+01   8.6453369759e+00    0.1867689   0.09502935  29.29 0.0004435762    1.627    0.385
        35 -10.4909     33.0209    107.2655   1.0710287446e+02   5.0861874680e+01    0.2522591    0.2103898  86.34 0.0003157159    1.111    0.100
        36  -9.4034     29.5322    105.5726   1.0812074357e+02   5.1632451029e+01    0.2101284    0.1489236 -70.58 0.0001198353    1.245    0.197
        37 -10.5233    146.3419    243.2734   9.6061860673e+01   7.2379357416e+00    0.1433489    0.1137401   4.55 0.0004973311    1.298    0.230
        38 -11.7979    146.9415    239.9662   9.5571259168e+01   7.6164962886e+00    0.2463363    0.1406259 -22.73  0.001359034    2.647    0.622
        39 -12.9454     48.4407     78.7738   9.5430209607e+01   5.6495704824e+01    0.7369293     0.297516 -49.51  0.002075835    2.295    0.564
        40 -12.1131     43.4835     80.0326   9.7815601059e+01   5.6790367532e+01    0.3154337    0.2975753  85.39 0.0009278596    1.095    0.087
        41 -11.8239     39.9289     93.2307   1.0211422950e+02   5.3804266299e+01     0.354123    0.3006315 -50.06  0.001102721    1.175    0.149
        42 -11.3818     43.8065    102.1681   1.0232424913e+02   5.1051495355e+01    0.3321715    0.2583474 -76.55 0.0002274023    1.188    0.158
        43 -11.5289     43.1529     96.6118   1.0152637308e+02   5.2567923876e+01    0.4132561    0.2769942 -29.71  0.001973336    1.892    0.472
        44 -12.8204    134.8540    247.0530   9.8628860241e+01   8.1726873330e+00    0.3884335     0.140695  32.56  0.001950585    2.175    0.540
        45  -9.4214     31.6769    101.8758   1.0677661963e+02   5.2395646902e+01    0.1926282    0.1569016 -85.01  0.000394078    1.115    0.103
        46 -10.8882     57.5145    100.5407   9.6988203547e+01   4.9759074002e+01    0.3143219    0.2283402 -65.26 0.0006301075    1.283    0.220
        47 -10.5269     51.3345    100.2646   9.9186204169e+01   5.0640016370e+01    0.2425442    0.2294549 -33.82 0.0004079611    1.169    0.145
        48 -11.9360     54.8032     96.5880   9.7132418403e+01   5.1136130127e+01    0.5593728    0.2841057 -57.19 0.0004235592    1.780    0.438
        49 -11.4515     65.1577     97.5728   9.3568970785e+01   4.9427058701e+01    0.4083691    0.2620365  38.96  0.001304256    1.618    0.382
        50 -10.9535    139.6605    244.1048   9.7408557330e+01   7.9742262220e+00     0.462259    0.2108765  32.39   0.00259981    1.720    0.418
        51 -10.9306    154.5138     95.5197   6.6992286003e+01   3.2199304171e+01    0.3056198     0.259733 -72.78 0.0007654545    1.349    0.259
        52 -10.6948    131.6120    244.8054   9.9005441928e+01   8.8978394233e+00    0.2890241    0.1580316  17.52  0.001601322    2.133    0.531
        53 -11.4816     20.6701     91.1339   1.0939172068e+02   5.6144794296e+01    0.3434397     0.233173 -78.61  0.001637816    1.304    0.233
        54 -11.7418     22.7558     86.4842   1.0781120637e+02   5.7188066671e+01    0.3876627    0.2240165  84.55  0.001804764    1.920    0.479
        55 -12.6037     55.3276     90.1073   9.5465251963e+01   5.2719725513e+01    0.5224008     0.389694  22.18  0.001569576    1.540    0.351
        56 -11.2201    157.3499    243.5437   9.4051299647e+01   5.8022917628e+00     0.107573   0.08566979  21.65 0.0001897927    1.044    0.043
        57 -11.7295    128.3768     88.6046   7.1266124115e+01   3.9429144000e+01    0.2985726    0.2934672 -52.66 0.0004675519    1.011    0.011
        58 -10.2268    168.6843    236.7481   9.1140456526e+01   5.2483605678e+00    0.1734123    0.1337901 -51.62  0.001222775    1.833    0.455
        59 -11.5322     73.3831     88.3144   8.8272598674e+01   5.0438862724e+01    0.3462959    0.2850609  76.36 0.0008968284    1.384    0.278
        60 -11.8874    163.6178    233.2556   9.1630319652e+01   6.3702051483e+00    0.1732978    0.1271622  33.37  0.001196874    1.191    0.161
        61 -10.1684     46.0698    249.9276   1.1581057507e+02   1.8183475723e+01    0.1632045    0.1195424  36.09 0.0005618446    1.232    0.188
        62 -10.7569    170.8979    231.9319   9.0112823205e+01   5.5972749886e+00     0.104936   0.06607381 -38.04 0.0006562982    1.842    0.457
        63 -11.2130     64.8586     82.4409   8.9839037730e+01   5.3249579555e+01    0.2884943    0.2323142 -44.27 7.820538e-05    1.222    0.182
        64 -11.4116    182.7316    227.0436   8.7296052692e+01   4.6966440083e+00     0.200948    0.1290597 -40.63  0.001296909    1.855    0.461
        65 -10.1249    197.2530    226.8635   8.4695568733e+01   2.8497324128e+00    0.2021285    0.1265713  51.73  0.001128924    2.739    0.635
        66 -12.0336     47.8774    245.3784   1.1523685066e+02   1.8743677839e+01    0.3059773    0.1596429  69.94  0.001801215    1.961    0.490
        67  -9.9023    210.9665    210.9663   7.9948639648e+01   3.0654105347e+00    0.1528938     0.124669   8.85  0.001110264    1.108    0.098
        68 -11.7757    111.9721     80.0326   7.3162480478e+01   4.4849038639e+01     0.445305    0.2253073 -43.97  0.001005678    1.925    0.481
        69 -10.0965    197.9987    211.2254   8.2241013904e+01   4.7482412449e+00    0.1319831    0.1055192   2.48 0.0002352221    1.063    0.059
        70 -10.8867    204.6315    206.7139   8.0368072666e+01   4.4489063384e+00    0.2844601    0.1652548 -21.05  0.001217923    1.774    0.436
        71 -12.7869     87.0274     73.6647   7.9038174070e+01   5.1420273246e+01    0.8001449    0.3246858  47.52  0.002115183    2.674    0.626
        72 -12.2644     79.3795     70.5808   8.0750935487e+01   5.3574025869e+01    0.4558986    0.3133915 -44.94  0.001937107    1.399    0.285
        73 -11.6763    194.4219    207.1261   8.2241496537e+01   5.7837886648e+00    0.2135415    0.1424667  33.22 4.182937e-05    1.381    0.276
        74 -11.9722     43.2047    245.9764   1.1615983332e+02   1.9131906248e+01    0.1939737    0.1398336  40.93 0.0004480745    1.147    0.128
        75 -10.6791    208.8221    202.0626   7.8892092587e+01   4.4925558387e+00    0.1771549    0.1362446  16.02 0.0003409677    1.101    0.092
        76 -11.9435    212.6895    195.1343   7.7078582578e+01   4.8783182842e+00    0.2084846    0.1624242   5.84 0.0002505261    1.050    0.047
        77 -12.6157     44.9363     67.9999   9.4020691875e+01   5.9618095854e+01    0.7142927    0.2500137  39.28  0.002611238    3.029    0.670
        78 -11.2959    165.4716    248.1454   9.3118733954e+01   4.1945569848e+00    0.1091363   0.05944798  30.66 0.0006719382    1.417    0.294
        79 -11.8973     37.9412    250.7933   1.1737351809e+02   1.8874118055e+01    0.2902576   0.07907416  31.90  0.001086345    2.780    0.640
