#   1 NUMBER                 Running object number                                     
#   2 MAG_AUTO               Kron-like elliptical aperture magnitude                    [mag]
#   3 X_IMAGE                Object position along x                                    [pixel]
#   4 Y_IMAGE                Object position along y                                    [pixel]
#   5 X_WORLD                Barycenter position along world x axis                     [deg]
#   6 Y_WORLD                Barycenter position along world y axis                     [deg]
#   7 A_WORLD                Profile RMS along major axis (world units)                 [deg]
#   8 B_WORLD                Profile RMS along minor axis (world units)                 [deg]
#   9 THETA_WORLD            Position angle (CCW/world-x)                               [deg]
#  10 FWHM_WORLD             FWHM assuming a gaussian core                              [deg]
#  11 ELONGATION             A_IMAGE/B_IMAGE                                           
#  12 ELLIPTICITY            1 - B_IMAGE/A_IMAGE                                       
         1 -12.5741    112.7727     24.8739   4.9374469304e+00   5.3957703453e+01     0.869337    0.3791506  57.59  0.003603445    2.072    0.517
         2 -11.3904     20.4419     20.8773   4.2040926214e+01   7.4180883531e+01    0.4763128    0.2726683 -24.19   0.00136822    2.090    0.522
         3 -11.7063     34.9755     18.2690   3.0175897333e+01   7.2470114365e+01    0.6685118    0.4046992 -11.40  0.003023498    2.454    0.592
         4 -12.2797     15.7303     12.5023   4.0915472569e+01   7.6322137325e+01    0.6797078    0.4313804 -53.83  0.003107108    1.813    0.448
         5 -11.9229     23.0194     10.6415   3.3642239480e+01   7.5638797564e+01    0.4679006    0.3618789   1.82  0.001867107    1.278    0.218
         6 -12.0686    164.6389     18.0700   3.5516415493e+02   4.1838190556e+01    0.4437653    0.2929903  41.44  0.002309984    2.043    0.511
         7 -12.7822    127.5830     15.9375   3.5899765207e+02   5.1218958881e+01    0.6303641    0.5445557  58.79  0.002243437    1.204    0.169
         8 -11.6126    137.0303     14.4684   3.5717274263e+02   4.8989388643e+01    0.5149706    0.2250205  69.85  0.002241546    2.071    0.517
         9 -10.9273     88.6118      7.7201   2.7352296037e+00   6.1933255875e+01    0.3579655    0.2801661 -87.78  0.001851583    1.317    0.241
        10 -11.2695     85.8966     13.8730   6.3301341974e+00   6.1979242172e+01     0.448131    0.2575203 -12.81  0.002045558    2.262    0.558
        11 -10.6242    225.5701     13.4928   3.4951774447e+02   2.9195144672e+01    0.2034135    0.1369657 -45.11 0.0005168325    1.173    0.147
        12 -10.2244     84.7695     10.0220   4.7594949285e+00   6.2662866149e+01    0.2322604    0.1618391 -29.72 0.0006204621    1.562    0.360
        13 -11.2323    242.4614     14.7962   3.4894016939e+02   2.5935984237e+01    0.1809001    0.1743605 -45.94 -1.521698e-05    1.422    0.297
        14 -11.8997    104.5648     12.1862   1.4106804037e+00   5.7467218897e+01    0.4537194    0.3252223 -27.75  0.001524123    1.529    0.346
        15 -12.4662     48.5090     12.7711   1.9148865570e+01   7.0712229264e+01    0.7390383    0.2680275  50.88  0.002948261    2.520    0.603
        16 -11.0555    190.5235     11.5083   3.5118966673e+02   3.6612914667e+01    0.2518353    0.1088577 -30.28  0.001211443    2.171    0.539
        17 -11.1424    120.7306     11.4022   3.5834998115e+02   5.3427415905e+01    0.3316182    0.1922826  85.65  0.001093543    1.719    0.418
        18 -11.3657    205.8670      1.8137   3.4788920366e+02   3.4312117169e+01    0.4474875    0.1348616 -84.77   0.00168396    4.194    0.762
        19 -12.0035    212.1477      9.1367   3.4926658715e+02   3.2295029011e+01    0.5340758    0.2249068 -32.39  0.002191409    2.054    0.513
        20 -11.3519     63.4621      9.2077   1.0717232939e+01   6.7860408832e+01    0.4262862     0.331431 -48.56 0.0009759347    1.488    0.328
        21 -11.8009    169.0971      9.3745   3.5224749833e+02   4.1697927542e+01    0.4241428     0.219076  61.49  0.001573028    2.003    0.501
        22  -9.9898    145.1048      9.8012   3.5465966878e+02   4.7448328497e+01    0.1762447    0.1477344  53.67 0.0005273884    1.346    0.257
        23 -10.1339      5.7884      8.8584   4.8012991444e+01   7.8077097657e+01    0.1918874     0.145071 -20.51 0.0007063822    1.186    0.157
        24 -11.4820    185.4408      6.6728   3.5028872754e+02   3.8228357790e+01    0.2303365    0.1418435  79.05 0.0008642788    1.565    0.361
        25  -9.6966     78.1519      7.3778   5.1508868814e+00   6.4553461131e+01    0.1879581    0.1203414  77.31 0.0004326206    1.620    0.383
        26  -9.6195      1.0000      7.0623   5.2007161983e+01   7.8827252750e+01    0.1859663   0.06426552 -58.18 0.0005984532    2.844    0.648
        27 -10.4820    128.9384      4.7585   3.5479284970e+02   5.1971268409e+01    0.1979957    0.1740685 -81.47 0.0001898231    1.026    0.025
        28 -12.0972    133.5953      2.5510   3.5347954086e+02   5.0993252763e+01    0.6470613    0.2570982  84.38  0.002619434    2.539    0.606
        29 -10.8002     41.1098      4.1453   1.7211571631e+01   7.3302431551e+01    0.3413604    0.2059105  26.04  0.001430105    1.871    0.466
        30  -9.6794     30.5987      4.8127   2.3943060158e+01   7.5243303491e+01    0.1663852    0.1168593 -42.36 0.0005862272    1.665    0.399
        31 -11.1108    218.7999      3.1650   3.4757172481e+02   3.1567638030e+01    0.2680551    0.1745866  86.36  0.001231189    1.527    0.345
        32 -10.0608    223.5179      2.4834   3.4720724443e+02   3.0714338686e+01    0.2188037    0.1143943 -39.37 0.0006997471    1.505    0.336
        33 -11.3075    142.4023      3.3495   3.5283175345e+02   4.8724696931e+01    0.2722338    0.2026514 -65.17  0.001591882    1.213    0.176
        34 -11.6292    113.8721      2.1793   3.5578378087e+02   5.6021278641e+01    0.4649867    0.2260123  84.63  0.002063974    2.047    0.511
        35 -10.8121    105.3726      1.8143   3.5690006146e+02   5.8217134451e+01    0.2601556    0.1668133 -82.64  0.000917667    1.597    0.374
        36 -10.0266      1.9324      1.8650   4.7537062366e+01   7.9725767460e+01    0.1988908     0.135267 -19.60  0.001205873    1.369    0.269
        37 -10.1864    152.7599      1.4314   3.5126710137e+02   4.6353201572e+01    0.2308606    0.1127857  85.20 0.0007873491    1.903    0.474
        38  -9.8095     28.8823      1.4611   2.2528701049e+01   7.5989945414e+01    0.1817298    0.1119298  43.34 0.0003515521    1.480    0.324
        39 -12.1498      2.6351    111.5451   7.4203602059e+01   5.2778759816e+01    0.5195648    0.3423137 -78.66  0.001546484    1.351    0.260
        40 -11.3411    248.0042    248.8523   3.1402391317e+01  -5.2379531872e+00     0.248746     0.217028  48.71  0.001876903    3.155    0.683
        41  -9.9867     78.8753    114.8862   4.5031178898e+01   4.3271758791e+01    0.2386304    0.2110782 -20.96 0.0006025026    1.275    0.216
        42  -9.7148     58.5264    115.0784   5.2449771998e+01   4.6406523115e+01    0.2237096    0.1486333 -66.22 0.0003201703    1.487    0.328
        43 -12.1281     26.3922    105.2354   6.3600024284e+01   5.2867348401e+01      0.67834    0.5432401 -45.26  0.003584488    1.271    0.213
        44 -11.4369     27.6054    112.3507   6.4152566192e+01   5.0790382043e+01    0.4357864    0.2724868  47.97  0.001441007    1.645    0.392
        45 -10.0301     48.9630    111.6706   5.5461705375e+01   4.8623824886e+01    0.2151941    0.1907417  39.07 0.0005048668    1.147    0.128
        46 -11.7473     79.8288    107.8340   4.3022969345e+01   4.4914586466e+01    0.4008708    0.3457315   2.71 0.0007437145    1.354    0.261
        47 -11.6392     15.5855    108.5935   6.8606790160e+01   5.2808959856e+01    0.4469045    0.3227348  18.41  0.002193624    1.503    0.334
        48 -10.6262     47.5071    102.5327   5.4213085202e+01   5.1289869588e+01    0.4423166    0.2183068 -39.79  0.001437339    2.452    0.592
        49 -11.1016     50.6776    100.6542   5.2496607783e+01   5.1374930832e+01    0.4798318    0.2776867 -44.63  0.002014406    1.811    0.448
        50  -9.4553     86.2724    103.3302   3.9639996371e+01   4.4879057088e+01    0.1567645    0.1221438 -22.57 0.0002612799    1.589    0.371
        51 -11.1528     35.3546    102.8736   5.9388603870e+01   5.2633735714e+01     0.329591    0.2301245 -12.28 0.0001355981    1.787    0.441
        52 -10.9727     17.2002    100.4574   6.6878062783e+01   5.4936198381e+01    0.2635944    0.1845504 -73.91 0.0007095489    1.311    0.237
        53 -11.8597    210.4160     98.1374   1.0117418272e+01   2.0741780467e+01    0.2123685    0.1926977 -45.49  0.000266769    1.087    0.080
        54 -12.3116    248.0699     95.0408   4.9727534721e+00   1.4960426846e+01    0.4150128    0.2800516 -11.34   0.00248297    1.972    0.493
        55  -9.9401     77.4888     96.5346   4.0953767012e+01   4.8180200989e+01    0.2340515    0.1919418 -13.50 0.0007235363    1.495    0.331
        56 -11.1905     79.0313     92.1299   3.9169582694e+01   4.8985600093e+01    0.6359524    0.4951164 -62.34    0.0030421    1.320    0.243
        57 -11.7728     67.8187     94.7839   4.4150881885e+01   5.0306527933e+01    0.4153778    0.3148277  36.79  0.001224088    1.333    0.250
        58 -11.6751     22.2566    114.0416   6.6546438193e+01   5.0788962720e+01    0.5559026    0.3129625  -1.37  0.002194896    2.311    0.567
        59 -11.4032     22.7759     94.4174   6.3464531930e+01   5.6154153905e+01    0.4436469    0.2600946 -32.16  0.001872487    1.976    0.494
        60 -10.6743      8.1355     96.0173   7.0352005685e+01   5.6741107884e+01    0.2964307    0.2163458 -12.64  0.001554159    1.564    0.361
        61 -10.1820     42.6902     94.7373   5.4587911652e+01   5.3996771783e+01     0.257003    0.2216459  33.74 0.0008665207    1.196    0.164
        62 -10.2847     35.8728     92.6383   5.7170024502e+01   5.5360173750e+01    0.2842518    0.2019329 -89.24  0.000631145    1.564    0.360
        63  -9.6421     38.9515     90.3068   5.5273633212e+01   5.5633703774e+01    0.2010681    0.1911081   5.68 0.0004282702    1.110    0.099
        64 -11.2261    240.7001     91.6794   5.0663339451e+00   1.6577976780e+01    0.2599568    0.1002239 -48.83  0.001179307    2.496    0.599
        65 -10.5122     98.3963     90.7816   3.2122426190e+01   4.5481159043e+01     0.259232    0.2107953  47.94 0.0003752021    1.235    0.190
        66 -10.0834     43.8908     90.4644   5.3087905548e+01   5.4985370179e+01     0.216825    0.1888741 -62.26 0.0003203343    1.103    0.093
        67 -10.4162     19.4102     90.2025   6.4327616975e+01   5.7575719713e+01    0.3450979     0.129826 -72.55  0.001263361    2.486    0.598
        68 -11.5751     27.8422     84.5781   5.9247783065e+01   5.8358508655e+01    0.5128232    0.4171962 -31.07  0.001430302    1.283    0.220
        69 -10.6218     18.3613     86.1256   6.4142980809e+01   5.8761193979e+01    0.4436227    0.2194591   5.30  0.001813127    2.462    0.594
        70 -11.4946      5.7082     88.1990   7.0545600953e+01   5.8997962507e+01    0.6138167    0.3543308   2.15  0.002904934    1.990    0.498
        71  -9.8551     66.8461     88.2055   4.2739941465e+01   5.2130455293e+01    0.2187103     0.177792 -30.22 0.0006069662    1.363    0.266
        72  -9.8050     52.3721     86.7988   4.8425840851e+01   5.4783929266e+01    0.2138636     0.131493 -49.67 0.0003391599    1.581    0.367
        73  -9.6579     90.3902     85.7683   3.3271577615e+01   4.8279957494e+01    0.3628578    0.1474305 -56.64  0.001151377    3.000    0.667
        74 -11.3391     45.0709     84.1273   5.0999580409e+01   5.6495120903e+01    0.4756741    0.3511542 -86.91  0.002259779    1.588    0.370
        75 -13.2889    247.6125     77.6777   1.5155348080e+00   1.7407521277e+01     0.784201    0.2772498 -38.73  0.003831018    2.054    0.513
        76 -10.1645    113.3505     82.9424   2.5266456485e+01   4.3970254259e+01    0.3363593    0.2363468 -83.71  0.001404645    2.045    0.511
        77 -12.5606     60.8708     83.4050   4.3830902935e+01   5.4328225489e+01    0.3046282    0.2986059  43.89 0.0003812585    1.036    0.035
        78 -10.2803     58.4363     77.9743   4.3272216271e+01   5.6070039576e+01    0.2203995    0.1982178 -56.78 0.0006544607    1.099    0.090
        79 -10.8195      2.5571     81.1227   7.1219864404e+01   6.1051275604e+01     0.445401    0.2145104  72.74  0.001829036    2.470    0.595
        80 -10.3691     67.6236     81.0452   4.0329203859e+01   5.3757262116e+01    0.3032128     0.230149 -25.16  0.001132222    1.578    0.366
        81  -9.9506    162.2827     81.2439   1.3576523144e+01   3.3248550865e+01    0.1853582    0.1513068 -66.99 0.0003102765    1.250    0.200
        82 -11.7238     75.6292     78.1772   3.6260395675e+01   5.2962533290e+01    0.5773727    0.5620314  31.88  0.002255911    1.042    0.040
        83  -9.5259    118.9835     78.0317   2.2214636779e+01   4.3702861249e+01     0.188026    0.1608717 -47.84 0.0003645221    1.153    0.133
        84 -10.6537     89.1089     77.0884   3.0983566115e+01   5.0502823548e+01    0.4852733    0.2403749  45.95   0.00144452    2.018    0.504
        85 -10.5432     94.6709     75.4105   2.8561526581e+01   4.9684704278e+01    0.3256006    0.2850939  51.85 0.0009465918    1.137    0.120
        86 -11.0585     53.2499     76.3950   4.5107482644e+01   5.7282802076e+01    0.3679964    0.2745593 -89.26  0.001711787    1.719    0.418
        87 -11.6882     27.3428     73.4416   5.7002087847e+01   6.1342518399e+01    0.3946483    0.2724923 -13.44  0.001114763    1.692    0.409
        88 -11.0927     14.1646     74.4003   6.4171164716e+01   6.2197738732e+01    0.3100692    0.2424139 -73.43  0.001693479    1.211    0.174
        89 -10.2747     80.5755     71.4677   3.2171729397e+01   5.3505730921e+01    0.3503374    0.1933597 -40.14  0.001410426    1.938    0.484
        90 -10.8802     35.0448     71.3614   5.2468837797e+01   6.1037369439e+01    0.4976902    0.2381132  42.50  0.001999893    2.283    0.562
        91 -10.4562     40.7105     72.5872   4.9950190090e+01   6.0022350136e+01    0.3638461    0.2380918  20.60  0.001166157    1.647    0.393
        92 -10.9060     40.6353     68.8687   4.8894684848e+01   6.0960166776e+01    0.3047658    0.2689038  89.25 0.0008370699    1.269    0.212
        93 -11.3358      1.9920     70.9733   7.0171633136e+01   6.3768600215e+01    0.8216027    0.1754923 -72.43  0.002617175    3.662    0.727
        94 -11.5605     14.8024     56.7174   5.9919706618e+01   6.6701190617e+01     1.168247    0.5044287 -16.11  0.004113609    3.582    0.721
        95 -10.0894      9.2391     55.4308   6.3059301607e+01   6.7403301228e+01    0.2553058    0.2000224  56.72  0.001428243    1.484    0.326
        96 -12.0389      7.5138     63.4867   6.5805763353e+01   6.5455131807e+01    0.3036162    0.2258833 -24.26 0.0005324602    1.372    0.271
        97 -12.5461      4.1913     61.1094   6.7324158885e+01   6.6234630385e+01    0.3427422    0.2822649 -27.78  0.000371491    1.202    0.168
        98 -11.0885    122.9423     68.3896   1.8151212773e+01   4.4645017652e+01    0.3522473     0.252338  47.65 0.0005128916    1.440    0.306
        99 -10.6925    221.1989     67.3586   1.9034168072e+00   2.3369363695e+01    0.3096158    0.1199818  65.02  0.001278902    3.119    0.679
       100 -10.3325    102.0252     66.8198   2.3350627770e+01   4.9819978524e+01    0.2458355    0.2136071 -48.27 0.0003298879    1.157    0.136
       101 -10.0281    202.1705     63.1440   3.0169362326e+00   2.7648058482e+01    0.1915829     0.164866 -32.73 0.0005777793    1.213    0.175
       102  -9.8289    105.5045     63.4992   2.1175770491e+01   4.9661812487e+01    0.1509366    0.1453476  86.50 0.0008106727    1.006    0.006
       103 -10.7926     92.5694     62.5304   2.4820492872e+01   5.2807295232e+01    0.3487094      0.26056  71.43 0.0009167431    1.572    0.364
       104 -11.6552     43.1888     60.7533   4.4971021521e+01   6.2567624475e+01    0.4640309    0.2751643 -55.65  0.001007333    1.663    0.399
       105 -11.8031     46.4725     59.4749   4.2837485617e+01   6.2377210930e+01    0.7880564    0.2710388  43.51  0.002620922    3.256    0.693
       106  -9.8019    159.1414     62.6229   8.9403555236e+00   3.7101981144e+01     0.197512    0.1259462  49.85   0.00043802    1.732    0.423
       107  -9.7572    113.4844     60.5076   1.7941029959e+01   4.8336437231e+01    0.1496094    0.1435831  88.92 3.515228e-05    1.007    0.007
       108 -10.8250     23.9769     58.6834   5.4949585784e+01   6.5413578545e+01    0.6772965    0.2286819  30.49  0.002529107    2.828    0.646
       109 -10.3982     25.5028     55.4644   5.3075717688e+01   6.6044846060e+01    0.3003899    0.2009042 -36.00 0.0007978823    1.494    0.331
       110  -9.6217    106.5029     58.4807   1.9127922534e+01   5.0362561986e+01    0.1509653    0.1424969 -89.94 4.189572e-05    1.040    0.038
       111 -11.8186     75.7287     55.6209   2.8237118654e+01   5.7840331934e+01    0.6555508    0.4233155 -43.90  0.003013597    1.580    0.367
       112 -11.5285     72.6219     46.3020   2.5661845665e+01   6.0290739123e+01    0.6110243    0.2839612 -50.58  0.002328628    2.522    0.603
       113 -10.6004    124.6336     56.6594   1.3891533308e+01   4.6325575577e+01    0.2473605    0.2235786  34.60 0.0006342468    1.256    0.204
       114 -10.8703     88.3490     54.4023   2.3199555689e+01   5.5323868158e+01    0.5524281    0.1836977 -32.52   0.00145221    5.076    0.803
       115 -11.6942     39.4737     56.5554   4.5476358518e+01   6.4077250339e+01    0.3048753     0.243343  29.06 0.0005162224    1.266    0.210
       116 -10.7045     31.2994     53.0332   4.8844778021e+01   6.5967570115e+01     0.413157    0.2403231   5.83  0.001579414    2.227    0.551
       117  -9.7372    157.0061     53.7652   6.7179839154e+00   3.8987892450e+01     0.185134    0.1157126  65.93 0.0008810124    1.630    0.386
       118 -10.7408     60.1884     50.8894   3.2879606496e+01   6.1900736805e+01    0.5003193    0.2762712 -61.71  0.001953671    2.586    0.613
       119 -10.0329     61.6262     46.2402   3.0272862109e+01   6.2552870681e+01    0.2983732    0.1378497 -39.31  0.001167819    2.307    0.567
       120 -11.1809    243.7873     51.0472   3.5636081547e+02   2.1506194017e+01    0.1785987    0.1440228 -63.53 0.0003723752    1.176    0.150
       121 -12.0543    119.8423     37.4646   8.2287222066e+00   5.0505525050e+01    0.5584867    0.3304191 -46.01  0.001869597    1.705    0.413
       122 -10.3622    112.5778     50.1903   1.4535819669e+01   5.0344828024e+01    0.3350193    0.2729225 -34.56  0.001484594    1.297    0.229
       123 -11.4142    116.8182     47.7707   1.2631348923e+01   4.9700226594e+01    0.4775588    0.3770021  32.48   0.00120148    1.518    0.341
       124 -10.9043    116.5957     43.2337   1.1044887342e+01   5.0464226392e+01    0.3035866    0.2646614  21.64  0.001186018    1.386    0.278
       125  -9.7610    155.2031     48.6999   5.5008260120e+00   4.0173630653e+01    0.2050194    0.1136284 -22.74 0.0004681437    2.315    0.568
       126 -10.2467     82.8536     47.0217   2.2154627986e+01   5.7915046054e+01     0.269242    0.2103902 -10.85  0.001023462    1.613    0.380
       127  -9.4151     52.2921     48.3057   3.5571494981e+01   6.3873244215e+01    0.1438904     0.110369  -8.86 0.0003219813    1.577    0.366
       128  -9.5069      2.0005     48.7476   6.6262690334e+01   6.9445944762e+01    0.1617603    0.1110747   5.28 0.0007867967    1.540    0.351
       129 -12.3015     42.0618     43.9925   3.9130835037e+01   6.6478526543e+01    0.8574366    0.3350087  34.30  0.002132998    2.562    0.610
       130 -10.4519     20.5152     45.7870   5.3007348402e+01   6.8850600148e+01    0.2313332    0.1884474  13.60 0.0006487917    1.244    0.196
       131 -10.4793     13.8131     45.9977   5.7544153463e+01   6.9394150182e+01    0.3375193    0.1348188 -34.29 0.0009630206    2.910    0.656
       132 -10.7715     18.0809     40.6501   5.2817248156e+01   7.0271542324e+01    0.3093678    0.1704471 -42.39   0.00104555    1.701    0.412
       133  -9.6018    198.9802     44.6521   3.5883308223e+02   3.0864563851e+01    0.2095321   0.09062877 -81.15 0.0004919305    4.469    0.776
       134  -9.7432    139.1957     43.7497   6.6438539246e+00   4.4784688054e+01    0.2270067    0.1595482  26.00  0.001045109    2.101    0.524
       135 -11.4949     25.8872     42.5889   4.8317841378e+01   6.9005452774e+01    0.4064533    0.2734714  42.56  0.001920102    1.666    0.400
       136 -10.4443     23.3795     37.2652   4.7829367156e+01   7.0470701233e+01    0.4023117    0.2241068  46.94  0.001827367    2.287    0.563
       137 -10.5306    110.5084     40.5077   1.1464590790e+01   5.2386389263e+01    0.4376461     0.262563  18.68  0.001573372    3.426    0.708
       138 -10.1772     56.7876     41.8344   3.0564654195e+01   6.4337483849e+01    0.1927466    0.1701959  72.40 0.0005951414    1.341    0.254
       139 -10.4445      3.9962     39.3308   6.2529776340e+01   7.1629455906e+01    0.4074064    0.1812217  46.18  0.001681168    3.043    0.671
       140 -10.4633      3.1257     35.3402   6.2034272934e+01   7.2613383482e+01    0.3454624    0.3244995  54.23  0.001290683    1.256    0.204
       141 -10.3201    249.7245     38.9295   3.5346024225e+02   2.1968145671e+01    0.1953868    0.1370875 -68.96 0.0006030443    1.351    0.260
       142 -10.7435     78.6974     37.3424   1.9481873252e+01   6.0508663171e+01    0.4757209    0.3066081 -74.97  0.001802387    2.675    0.626
       143 -11.1392     79.0686     33.3868   1.7571209607e+01   6.1050174001e+01    0.5658682     0.346669  24.45  0.002359244    2.419    0.587
       144 -10.1503     62.1116     33.2938   2.4118138966e+01   6.4804350966e+01    0.2743481    0.2226448  31.84 0.0006329236    1.222    0.181
       145 -10.4781    153.2202     35.9154   1.9126293227e+00   4.2435606277e+01    0.2297855    0.1867505  87.13 0.0005972611    1.166    0.143
       146 -10.6069    175.4680     34.4639   3.5867218903e+02   3.7359912133e+01    0.3024113    0.1730084 -61.64  0.001044612    1.724    0.420
       147 -11.7925    107.4720     30.7736   8.4072709558e+00   5.4533633805e+01    0.7108114    0.3738952  34.97  0.002745509    2.795    0.642
       148 -10.3345    219.2033    248.3932   3.5808884423e+01  -2.6601234900e+00    0.1329246     0.080686  25.22 0.0009428617    1.581    0.367
       149 -12.6210    105.6082     19.9617   4.4408194118e+00   5.6357931200e+01    0.3646832    0.2844354 -78.15 0.0005407163    1.338    0.253
       150 -10.4198    240.3065     32.5469   3.5274166488e+02   2.4348305120e+01    0.1883009    0.1357904 -15.51  0.001208669    1.846    0.458
       151  -9.9302     60.6070     36.7817   2.6459315454e+01   6.4513377069e+01    0.2515815    0.1412529 -46.03 0.0006536383    1.911    0.477
       152  -9.9027    217.1307     31.8669   3.5418668393e+02   2.8771233830e+01    0.1472322    0.1354867 -36.43 0.0003706953    1.298    0.229
       153 -11.7782     58.2887     29.3511   2.3855288407e+01   6.6247809287e+01    0.3845413    0.2803233  20.03  0.001957132    1.597    0.374
       154 -11.5411     49.1416     29.9508   2.8614029774e+01   6.7953422075e+01    0.7017421    0.2586525  37.95  0.002212156    2.854    0.650
       155 -10.6610     10.1093     30.4881   5.4853263704e+01   7.3253605036e+01    0.2647602    0.2112609  70.51  0.001532664    1.682    0.405
       156 -11.4106    157.1907     29.1178   3.5930032493e+02   4.2340213680e+01    0.3357884    0.2195321 -78.20 0.0008349961    1.558    0.358
       157 -12.8634    164.7979     27.2117   3.5781891790e+02   4.0749490269e+01    0.3966476    0.3087308 -78.73 0.0005768257    1.174    0.148
       158 -12.3061    127.3842     28.5420   3.5550735312e+00   4.9803648526e+01    0.6585343     0.359782  75.94   0.00159899    1.871    0.466
       159 -11.7517     26.5239     27.5762   4.1128120882e+01   7.2088822537e+01    0.4633569    0.3259982 -57.70  0.001846549    1.639    0.390
       160 -10.8353    189.1844     26.9868   3.5528798615e+02   3.5188279642e+01    0.3176776     0.223812  39.95  0.001475223    2.032    0.508
       161 -11.4694    230.2741     26.6350   3.5211293945e+02   2.6858279865e+01    0.2050866    0.1904612  81.34 0.0008656193    1.375    0.273
       162 -10.8986    183.2212     25.8945   3.5554703919e+02   3.6644371446e+01    0.3052728    0.1350831 -43.99  0.001441255    1.885    0.470
       163 -10.6712    150.6423     27.4266   3.5962668144e+02   4.4141224693e+01    0.4065488     0.172403  64.89  0.001725779    2.209    0.547
       164 -11.4380    143.8665     25.3514   3.5988401266e+02   4.6063146032e+01     0.350543    0.1799719  74.40   0.00158307    1.897    0.473
       165 -10.8309     46.3965     24.0701   2.6901695929e+01   6.9461550926e+01    0.3385276    0.2430291  21.04 0.0008057009    1.521    0.343
       166 -10.4351     46.8230     19.9840   2.4347891330e+01   7.0024163051e+01    0.2521148    0.2369297 -36.35 0.0009096242    1.185    0.156
       167  -9.5318     20.3127     25.3195   4.4514860611e+01   7.3327906654e+01    0.1860175    0.1184082 -34.46 0.0004428319    1.541    0.351
       168 -10.2391    239.4806    250.4464   3.2896360932e+01  -4.6962492999e+00    0.1017249   0.06832667  -4.73 0.0002571669    1.011    0.010
       169 -10.0091     86.0631     23.6169   1.0863999366e+01   6.0775647897e+01    0.1962282    0.1586204  57.41 0.0003476579    1.142    0.124
       170 -11.2120    244.4928     21.4972   3.5021148097e+02   2.4854942712e+01    0.3522206    0.1864516  38.72  0.001596417    4.864    0.794
       171 -10.6623    169.4165     22.9857   3.5609806164e+02   4.0156470703e+01    0.2464037     0.179106  80.83 0.0006008948    1.318    0.241
       172 -11.0467    134.1833     22.1565   2.0926614446e-01   4.8860226743e+01    0.3290553    0.2465283 -49.64  0.001807511    1.294    0.227
       173 -10.2430     13.7448     22.9919   4.8560043900e+01   7.4523274410e+01    0.2148737    0.1705981  13.50 0.0004712114    1.221    0.181
       174 -11.5190    179.0592     20.6193   3.5450898758e+02   3.8194192672e+01    0.5604153    0.2381274  47.97  0.002261468    3.472    0.712
       175 -11.8817    149.4755     22.3511   3.5817563728e+02   4.5028335943e+01    0.4851533    0.1809962  73.27    0.0018985    2.634    0.620
       176 -10.8685     68.5799     20.4223   1.4994191564e+01   6.5323958191e+01     0.371581    0.2538769 -49.83  0.001884929    1.712    0.416
       177 -10.2419     39.1914     21.4105   2.9454901228e+01   7.1219392634e+01    0.2479819     0.203374  29.39  0.001276839    1.139    0.122
       178 -10.7562    131.9026    240.4972   5.1153090734e+01   7.8183167169e+00    0.1868762   0.09856751  26.64 0.0007128628    1.556    0.358
       179 -11.5214      8.6549     19.8715   5.1387009801e+01   7.5642407964e+01     0.461814    0.2418052 -14.59 0.0003819142    2.357    0.576
       180 -11.2592     72.8695    238.1333   6.3962872463e+01   1.5138684254e+01    0.2890113    0.1343596  35.66  0.001486814    1.666    0.400
       181 -10.1238    239.3150    235.3137   3.0800007345e+01  -2.9786807687e+00    0.1080908   0.05887349  -7.57 0.0004223381    1.641    0.391
       182 -11.0948    247.6851    222.6611   2.7691172398e+01  -2.2613710108e+00    0.2899644    0.1995435 -45.97  0.002004648    2.370    0.578
       183  -9.7704     74.9484     19.0244   1.2065974802e+01   6.4024783698e+01    0.2258648    0.1552601  28.10 0.0009079163    1.702    0.413
       184  -9.3829     60.6547     19.6847   1.7699964731e+01   6.7196600303e+01    0.1450653   0.09902908  24.42 0.0007047848    1.716    0.417
       185  -9.5932    171.4995    208.4935   3.8582961803e+01   8.1302286396e+00    0.1249348    0.1031527   0.55 -4.01812e-05    1.009    0.009
       186  -9.9880     40.0000    205.9957   6.9471442113e+01   2.5352545161e+01    0.2009465    0.0724073 -75.58  0.000808973    2.988    0.665
       187 -12.4733      4.5959    184.0350   7.7621062793e+01   3.3663201795e+01    0.6268965    0.3404929  68.42  0.003223355    1.651    0.394
       188 -11.0127     16.0065    173.5268   7.3904703097e+01   3.5362443297e+01    0.2745231    0.1629864  71.54  0.001377258    1.588    0.370
       189 -10.9072    228.5565     15.5299   3.4980171682e+02   2.8409708135e+01    0.2242066    0.1368839 -54.05 9.448826e-05    1.245    0.197
       190 -12.0028      8.9854    166.8167   7.5588854028e+01   3.7610528900e+01    0.2934863    0.2411447  35.87  0.001064243    1.204    0.170
       191 -12.9511     13.2815    160.3567   7.3917577333e+01   3.8948131638e+01    0.5880443    0.3739535 -57.72  0.001637343    1.665    0.399
       192 -10.1578    205.0424    163.1666   2.4451116844e+01   1.0992205072e+01    0.2231385    0.1584651 -33.60 0.0008669306    1.225    0.184
       193 -10.5862    186.5169     15.0065   3.5238889171e+02   3.7129373463e+01     0.189262    0.1511658 -77.40 0.0005112801    1.108    0.098
       194 -10.0109    148.2402     15.4094   3.5611521850e+02   4.6100014449e+01    0.1959378    0.1148424 -88.69  0.000953889    1.693    0.409
       195 -10.1040     28.6735    160.3270   6.9128803503e+01   3.7637647069e+01    0.1562648   0.08928503  57.47 0.0004809681    1.699    0.411
       196  -9.4306     93.6921     15.7074   5.2547941681e+00   5.9839733726e+01    0.1406832   0.09763894  38.00 0.0002351005    1.582    0.368
       197  -9.5960    156.7272    165.4003   3.4260843831e+01   1.7991727377e+01    0.1332062     0.110594 -84.11 0.0006982746    1.749    0.428
       198 -10.1705    104.2987    153.9840   4.5153157849e+01   2.9182210636e+01    0.2155087    0.2001776 -58.35  0.001173477    1.107    0.097
       199 -11.6683     21.3004    150.3425   7.0639939272e+01   4.0939099119e+01    0.5309426     0.237192 -52.92 0.0005342829    2.377    0.579
       200  -9.6761      5.6404     12.7130   5.0446882903e+01   7.7345579316e+01    0.1336621   0.08067273 -21.34 0.0002670126    1.683    0.406
       201 -11.4067     24.0065    148.0000   6.9544165412e+01   4.1332698309e+01    0.3390996    0.2584626 -59.41 0.0007301446    1.346    0.257
       202 -10.5288      4.5422    153.4658   7.6243205605e+01   4.1371377873e+01    0.1368645    0.1169541  70.54 6.970541e-05    1.017    0.017
       203 -11.3285     47.3069    146.0729   6.1542409109e+01   3.9464016457e+01    0.5018312    0.2704743 -62.29  0.002171781    1.789    0.441
       204 -12.1299     16.5986    147.7145   7.1976732750e+01   4.2025610645e+01    0.8053221    0.2353417  89.51  0.002352734    4.433    0.774
       205 -12.2672      3.9936    142.3100   7.5803605430e+01   4.4356230911e+01      0.69413    0.3476194  42.51  0.003053102    1.851    0.460
       206 -10.8406     32.9661    143.8329   6.6112368000e+01   4.1619803089e+01    0.2833912    0.2378407  80.28 0.0007483454    1.124    0.110
       207 -11.0471     40.7762    138.4839   6.2777051989e+01   4.2257086326e+01    0.4483801    0.3093644 -76.76  0.001359221    1.412    0.292
       208 -12.0953     23.3777    137.0145   6.8717481245e+01   4.4362684111e+01    0.5575781    0.3157136 -46.50  0.002493979    1.949    0.487
       209 -10.7415     20.4795    134.0023   6.9449412710e+01   4.5429030433e+01      0.26074    0.2520654  61.86  0.001009636    1.090    0.083
       210 -12.0853     12.4084    135.5819   7.2454550789e+01   4.5612760207e+01    0.6102065    0.2842478 -48.19  0.002534431    2.358    0.576
       211 -11.0371     30.2098    132.6756   6.5804855584e+01   4.4931820463e+01    0.3021935     0.238648 -19.46 0.0008586473    1.521    0.342
       212 -11.1846     11.2953    125.1244   7.1987022240e+01   4.8546310188e+01    0.4775043    0.2379659 -53.13  0.001429875    1.999    0.500
       213  -9.6499     33.3369    125.6926   6.3770486437e+01   4.6548788855e+01    0.1596588    0.1004122  58.88 0.0004100355    1.677    0.404
       214  -9.7443      1.6197    124.8008   7.5555049203e+01   4.9213834866e+01    0.2077979    0.1139091  82.42 0.0009527535    1.717    0.418
       215 -10.6750    104.6210    122.4976   3.8501859065e+01   3.6730165348e+01    0.2959677     0.283301  48.56 0.0009391246    1.047    0.045
       216 -10.0956     48.9763    123.0000   5.7503350642e+01   4.5529092511e+01    0.2479244   0.08589388  26.03 0.0008062089    2.969    0.663
       217 -11.6328    246.2494    119.3763   9.9813718152e+00   1.1792404532e+01    0.1769595    0.1616104  83.25  0.001323618    1.504    0.335
       218 -10.3536     43.5320    116.7456   5.8508304246e+01   4.7904056698e+01    0.3625763     0.149638 -80.44  0.001147438    3.279    0.695
       219  -9.6361     53.5052     21.5108   2.1887948304e+01   6.8454049163e+01    0.1371364    0.1240236  26.52 0.0008103779    1.031    0.030
       220 -11.1298      3.6975    104.8338   7.3195447363e+01   5.4562779680e+01    0.4532784    0.3208442  37.44  0.001611201    1.473    0.321
       221 -12.3715      7.8980    114.8729   7.2385775980e+01   5.1577577307e+01    0.3194309    0.2747636 -75.03 0.0003774753    1.072    0.067
