#   1 NUMBER                 Running object number                                     
#   2 MAG_AUTO               Kron-like elliptical aperture magnitude                    [mag]
#   3 X_IMAGE                Object position along x                                    [pixel]
#   4 Y_IMAGE                Object position along y                                    [pixel]
#   5 X_WORLD                Barycenter position along world x axis                     [deg]
#   6 Y_WORLD                Barycenter position along world y axis                     [deg]
#   7 A_WORLD                Profile RMS along major axis (world units)                 [deg]
#   8 B_WORLD                Profile RMS along minor axis (world units)                 [deg]
#   9 THETA_WORLD            Position angle (CCW/world-x)                               [deg]
#  10 FWHM_WORLD             FWHM assuming a gaussian core                              [deg]
#  11 ELONGATION             A_IMAGE/B_IMAGE                                           
#  12 ELLIPTICITY            1 - B_IMAGE/A_IMAGE                                       
         1 -15.6701    247.9015    189.0931   8.5166126459e+01   4.8848444275e-01     7.075583    0.8118185 -37.86   0.01998685    8.041    0.876
         2 -11.4762     92.1371     47.8913   8.3171291428e+01   5.5753799343e+01    0.6294135    0.2266167 -38.50  0.002148266    2.931    0.659
         3 -10.9278     57.7169     40.8934   9.4049900032e+01   6.4434306477e+01    0.3301746    0.1268514 -46.76  0.001208727    2.785    0.641
         4 -12.7588     12.6245     26.3815   1.1593318487e+02   7.3632199855e+01    0.5965107    0.1223921 -56.45  0.002079721    3.706    0.730
         5 -12.7694      3.4385     24.9516   1.2287400207e+02   7.4556451306e+01    0.4814252    0.1284302 -52.57  0.001965454    2.700    0.630
         6 -10.2445     40.6818     14.6386   8.9438876142e+01   7.2060274028e+01     0.140419   0.09572189   7.06 0.0007042378    1.767    0.434
         7 -10.9363     73.4732    228.4663   1.2632018918e+02   1.7968432446e+01    0.2936933    0.1346442  55.33  0.001364712    2.328    0.571
         8 -11.3279    163.4566    225.4850   1.0598320876e+02   6.3471675670e+00    0.3105556    0.1845381  32.06  0.001144331    1.414    0.293
         9 -11.7479    226.5079    222.0078   9.3836917405e+01  -1.0969512602e+00    0.1571059   0.09376296 -29.84 0.0009284414    1.591    0.371
        10 -14.4566    231.3705    212.3178   9.1533680928e+01  -4.6901502084e-01    0.5584721    0.3719889 -43.95  0.003610396    2.114    0.527
        11 -10.6425    126.4711    220.5549   1.1324594340e+02   1.2294351262e+01    0.1305967    0.1060285  28.18 0.0001061956    1.011    0.010
        12 -10.7605     84.4894    227.5172   1.2367298301e+02   1.6749744390e+01    0.1295659    0.1026148  38.64  2.27479e-05    1.007    0.007
        13 -10.5071     49.4916    218.5234   1.3122643214e+02   2.2805352711e+01    0.1286563     0.101826  46.66 0.0002637297    1.001    0.001
        14 -10.6791    144.2879    216.9869   1.0882399931e+02   1.0368501871e+01    0.1775221    0.1565236   9.44  0.001165609    1.104    0.094
        15 -10.5870    204.5501    217.4762   9.6912669763e+01   2.1056782622e+00    0.1175944   0.09131984   4.23 0.0001121194    1.009    0.009
        16 -10.7127    185.8500    213.9342   9.9836007269e+01   5.0354554040e+00    0.1967544    0.1604788 -30.54  0.001005369    1.372    0.271
        17 -10.7953      2.4648    213.4898   1.4211202165e+02   2.8486930911e+01    0.1207391   0.09066367  54.65 -2.224347e-05    1.007    0.007
        18 -12.4229    217.7626    209.4737   9.3338391301e+01   1.5207179096e+00    0.3127053     0.179988 -30.11  0.001919726    1.625    0.385
        19 -10.9329    116.3671    210.5842   1.1428504877e+02   1.5552180714e+01    0.2801294   0.07898425  42.70 0.0009585863    3.318    0.699
        20 -11.0663     32.5048    209.4987   1.3478036097e+02   2.6543523405e+01    0.1281063    0.1018048  51.16 0.0008106781    1.001    0.001
        21 -10.9171    205.6816    207.4974   9.5132139402e+01   3.3199423618e+00    0.1972205   0.09912764 -36.00  0.001074824    1.977    0.494
        22 -10.8161     99.3832    206.1762   1.1781468915e+02   1.8864711868e+01    0.1747451     0.128774 -85.78 0.0009344286    1.759    0.432
        23 -10.8634    198.3529    203.4695   9.5809891453e+01   4.8636413888e+00    0.2226442    0.1398436 -36.95  0.001178212    1.654    0.395
        24 -11.3387    185.8682    203.3293   9.8149738343e+01   6.6109907188e+00    0.2693487     0.169356 -35.56  0.001553069    1.638    0.389
        25 -10.7520    154.5119    240.4920   1.0980429735e+02   5.3039502350e+00    0.1212501   0.09353846  21.26 0.0008103919    1.025    0.024
        26 -11.1456    149.8141    199.2254   1.0497668962e+02   1.2609398578e+01    0.2134331    0.1410358  65.86 0.0009571241    2.834    0.647
        27 -11.1190     88.4941    198.5070   1.1961671427e+02   2.1997453808e+01    0.2298275     0.133688 -83.86   0.00103528    2.459    0.593
        28 -11.5498    125.0767    198.0396   1.1048774730e+02   1.6638116023e+01    0.2660795    0.1913662  26.68   0.00145111    1.242    0.195
        29 -11.1810    112.9822    197.9925   1.1340740810e+02   1.8496451150e+01    0.2273402     0.152781  58.08  0.001141297    1.753    0.429
        30 -10.2211    202.9918    197.0054   9.3886906963e+01   5.1667860367e+00    0.1593527    0.1545039 -65.98 0.0009060917    1.626    0.385
        31 -11.7643    172.8345    196.0653   9.9553621209e+01   9.6521659777e+00    0.1865107    0.1709716  32.39  0.001002487    1.275    0.216
        32 -11.2391    209.4803    194.5617   9.2312348549e+01   4.6334812821e+00    0.2297972    0.1074531 -36.63  0.001041886    2.067    0.516
        33 -10.6179    131.3207    203.6564   1.0983838972e+02   1.4625018671e+01    0.1343089   0.09770472  58.54 0.0005285488    1.726    0.421
        34 -10.4058    172.3227    190.6541   9.8747753247e+01   1.0625610672e+01    0.1219386    0.1046022  67.74  0.000546776    1.737    0.424
        35 -11.2819    139.1550    189.8984   1.0591226315e+02   1.5985853349e+01    0.2115812    0.1818561  51.64  0.001234789    1.298    0.229
        36 -11.0822    129.9650    188.9713   1.0793824614e+02   1.7635412325e+01    0.2237327    0.1626929  60.44  0.001141397    1.732    0.423
        37 -11.0333     86.7550    188.7395   1.1886679068e+02   2.4354714475e+01    0.2044586    0.1181182 -82.65 0.0008881718    2.412    0.585
        38 -12.1816    164.1414    201.0813   1.0217800937e+02   1.0124098868e+01    0.4082471    0.2098656 -45.91  0.001929439    2.194    0.544
        39 -10.8782    215.4898    193.4773   9.1081485567e+01   3.9796474675e+00    0.2291566    0.1049452 -36.17  0.001057341    2.075    0.518
        40 -10.3617    205.6323    190.2413   9.2255638822e+01   5.7880015977e+00    0.1720502     0.100668 -26.10 0.0009193002    1.647    0.393
        41 -10.3891    217.4912    186.9172   8.9608282670e+01   4.6328407073e+00    0.1781801     0.104187 -31.98 0.0008957882    1.571    0.363
        42 -12.0316    120.7180    185.7706   1.0969508531e+02   1.9760064682e+01    0.4332914    0.2161219 -62.86  0.001788236    2.712    0.631
        43 -11.4268     94.9933    184.9968   1.1619023236e+02   2.3955506681e+01    0.5012188    0.2233951 -64.51  0.002021216    2.702    0.630
        44 -10.7877    109.0275    185.5333   1.1261052838e+02   2.1670017483e+01    0.2839993    0.1621205  71.61  0.001032548    3.494    0.714
        45 -10.7265    203.8461    183.1086   9.1324926995e+01   7.1037836407e+00    0.2475599    0.1476953 -37.74  0.001374479    1.657    0.397
        46 -10.3452     12.0000    183.9863   1.3869070717e+02   3.4182211231e+01    0.1984233   0.06654011 -82.21 0.0007990033    2.919    0.657
        47 -10.7552    173.8695    182.2670   9.6966970344e+01   1.1801261687e+01    0.2921977    0.1687808 -49.22  0.001433764    2.052    0.513
        48 -10.1402    211.4438    182.4822   8.9866539241e+01   6.1089544053e+00    0.1239364    0.1005611  -4.82 0.0001500054    1.024    0.024
        49 -11.1521    211.5848    201.3101   9.3074974070e+01   3.4058431722e+00    0.2032435    0.1049937 -39.30 0.0009405584    2.007    0.502
        50 -11.1248    148.1813    181.3924   1.0240314859e+02   1.6129380794e+01    0.2030295    0.1175074  43.45 0.0009508252    1.707    0.414
        51 -10.5133     83.3024    181.6616   1.1888343900e+02   2.6440156520e+01    0.1500846   0.09788348  60.63 0.0005318871    1.669    0.401
        52 -10.2544    218.4554    175.8868   8.7484066049e+01   6.0795232675e+00     0.182108    0.1057425 -33.63 0.0009922249    1.571    0.364
        53 -10.1263    192.0000    175.9639   9.2227639376e+01   9.9978244113e+00    0.2061243    0.0692492 -40.63 0.0008028087    2.945    0.660
        54 -11.3866     77.3681    175.8236   1.1976334594e+02   2.8645893295e+01    0.4662161     0.151935  47.08  0.001549796    3.129    0.680
        55 -10.4643    182.6927    174.5284   9.3773599044e+01   1.1704428046e+01    0.2304314    0.1146966 -40.08  0.001074749    2.016    0.504
        56 -10.4358    105.4994    174.9924   1.1192218106e+02   2.4512435479e+01    0.1987231     0.126599  85.64  0.000810614    2.585    0.613
        57 -10.7443    135.1037    171.8418   1.0381607955e+02   2.0209176573e+01    0.2243526    0.1919583  55.35  0.001234886    1.286    0.222
        58 -10.1259    177.3081    171.6285   9.4317757139e+01   1.3074843796e+01     0.126518    0.1094722  88.74 0.0005601664    1.766    0.434
        59 -11.6243    121.8146    169.4400   1.0672284661e+02   2.2995976961e+01    0.3542748    0.2561691  82.36  0.001636599    2.069    0.517
        60 -10.0970    212.6748    169.2987   8.7252723828e+01   7.8918296523e+00    0.1090716    0.1010746 -72.48 0.0007026242    1.631    0.387
        61 -10.5387    205.7077    168.5470   8.8326427280e+01   9.0575444424e+00    0.2462849    0.1408509 -47.17   0.00124594    2.054    0.513
        62 -10.8351    229.4913    165.5642   8.3805136607e+01   6.0050903318e+00    0.2405343    0.1025127 -34.83  0.001022583    2.065    0.516
        63 -11.7591    139.6346    165.3362   1.0152541292e+02   2.0741858071e+01    0.3514053    0.2723368  70.56  0.001751261    1.755    0.430
        64 -10.5261    192.2610    164.2208   8.9966123050e+01   1.1877101229e+01    0.2668234    0.1030945 -34.34  0.001060435    2.703    0.630
        65 -10.8012     79.4845    163.4888   1.1744475903e+02   3.1266083360e+01    0.3430438    0.1891905  75.23  0.001264335    2.919    0.657
        66 -11.3887    212.9842    162.7974   8.5975045793e+01   8.8315121402e+00    0.2260903    0.1640927 -29.17 0.0007598482    1.240    0.193
        67 -11.0582    205.0695    160.8673   8.6975034950e+01   1.0360864846e+01    0.2994436    0.1493346 -28.00  0.001395175    2.093    0.522
        68 -10.7677     92.6684    159.7049   1.1301481562e+02   3.0105328864e+01    0.2949633    0.1823395  88.86  0.001179043    2.477    0.596
        69 -10.3767    128.6654    159.3350   1.0312313230e+02   2.3955254642e+01      0.15144    0.1143121  69.72 0.0007052129    1.740    0.425
        70 -11.0443    105.0928    157.0869   1.0902776845e+02   2.8632728191e+01    0.4172035     0.258709 -73.30  0.001763352    2.154    0.536
        71 -11.1787    119.4826    155.1830   1.0473311316e+02   2.6519429260e+01    0.3464288    0.2505299 -88.64  0.001554115    2.013    0.503
        72 -10.4605    145.1470    155.1631   9.8227340809e+01   2.1815385913e+01    0.1994723    0.1764954  69.88  0.000806752    1.346    0.257
        73 -11.3516     48.8233    154.1480   1.2555365997e+02   3.7780310316e+01    0.3673114    0.1895138 -88.06  0.001500295    2.304    0.566
        74 -11.2629    133.3098    152.8597   1.0067947390e+02   2.4488907705e+01    0.3496209    0.2546811  88.31  0.001549873    2.154    0.536
        75 -11.1449     81.0213    153.3269   1.1541767527e+02   3.3508089107e+01    0.3337506    0.2143307 -77.51  0.001484616    1.839    0.456
        76 -11.2462     67.1929    152.6964   1.1958101550e+02   3.5730829643e+01    0.3539664    0.1987469 -89.86  0.001404681    2.408    0.585
        77 -10.4320    152.3211    161.6404   9.7822742991e+01   1.9219457885e+01    0.1415981     0.114535  78.81 0.0007043649    1.769    0.435
        78 -10.3623    218.0000    156.0162   8.3836681878e+01   9.0950379731e+00    0.2036414   0.06346798 -37.53  0.000795582    2.895    0.655
        79 -10.6753    199.7746    146.6958   8.5096364004e+01   1.3523554535e+01    0.3261144    0.1425272 -33.04  0.001385314    2.289    0.563
        80 -12.0704     38.9282    146.3829   1.2784455093e+02   4.0915170188e+01    0.5357901    0.2588952  88.15  0.002114653    2.477    0.596
        81 -12.2839     55.6074    144.9952   1.2218535882e+02   3.9278187358e+01    0.6298518    0.3412291  83.30  0.002461057    2.484    0.597
        82 -11.7530    149.2138    144.9145   9.5146004622e+01   2.3132327970e+01    0.4467356    0.3263495  86.59  0.001969123    2.268    0.559
        83 -11.5800    106.8611    144.6755   1.0618996109e+02   3.1213462011e+01    0.5179778    0.3290408  79.03  0.001957023    2.699    0.629
        84 -11.5725    124.5883    142.1415   1.0075030992e+02   2.8473206180e+01    0.5347552    0.3065006 -71.87  0.001894471    3.080    0.675
        85 -11.4165     87.7188    142.3963   1.1146877561e+02   3.5120875969e+01    0.4884205    0.1809701 -59.94  0.001648151    2.889    0.654
        86 -12.3133    225.0081    181.9400   8.7483252410e+01   4.3165438828e+00    0.4200792    0.1688726 -29.78  0.001981838    2.422    0.587
        87 -11.8390     68.1889    137.4705   1.1686176022e+02   3.9465753320e+01    0.4160411    0.2098189 -78.83  0.001518431    2.650    0.623
        88 -11.6386     22.8356    137.4301   1.3231937618e+02   4.4826449417e+01    0.5623077    0.2399409  77.07  0.002095944    2.855    0.650
        89 -15.1755    244.1949    181.2379   8.4370971926e+01   1.9358523847e+00     2.346864    0.9558455 -47.59   0.00941291    4.661    0.785
        90 -14.4130    228.2286    199.7198   9.0000708997e+01   1.5049040771e+00    0.4989306    0.4286311 -39.51  0.003616316    1.652    0.395
        91 -11.1446    190.1313    146.2746   8.6778105660e+01   1.5270182063e+01    0.2645197    0.1450607 -26.68 0.0009204072    2.046    0.511
        92 -10.8360    112.5776    132.8010   1.0207217325e+02   3.2918665665e+01    0.2194123    0.1511321 -66.75 0.0009545651    1.724    0.420
        93 -10.6616    143.1175    131.6327   9.3686085515e+01   2.7076016345e+01    0.2675236    0.2103137 -57.92  0.001044456    1.402    0.287
        94 -11.4028    131.8571    130.9065   9.6363749072e+01   2.9516481647e+01    0.4306107    0.2234774 -58.64  0.001603779    2.451    0.592
        95 -12.1540     82.9532    129.1736   1.1043233788e+02   3.9229160178e+01    0.8486964    0.2659061 -61.44  0.002501467    3.680    0.728
        96 -10.7821    153.1049    129.2534   9.0768244472e+01   2.5530090330e+01    0.2894606    0.1995751 -70.98  0.001241027    2.149    0.535
        97 -12.5606     98.3122    125.5577   1.0474130376e+02   3.7369047487e+01    0.8909089    0.3871723 -62.17   0.00296339    2.920    0.658
        98 -11.7060     72.5938    127.5421   1.1358181808e+02   4.1346602282e+01    0.4427946    0.1485081 -61.33  0.001419395    3.062    0.673
        99 -13.3127    224.9593    190.6469   8.9005974881e+01   3.1256998816e+00    0.5164597    0.2387115 -26.79  0.002382536    2.103    0.524
       100 -12.3596     58.4894    122.4369   1.1759243123e+02   4.4782747132e+01    0.6763582    0.3138208 -84.17   0.00212234    3.652    0.726
       101 -12.3595     42.5737    120.1157   1.2308408104e+02   4.7435137798e+01     0.949399    0.3815662 -87.48  0.002753031    4.402    0.773
       102 -11.4476    117.3518    124.3838   9.8799940034e+01   3.3916677822e+01    0.5267741    0.3225507 -71.66  0.001992163    2.471    0.595
       103 -11.9831     27.8838    121.6516   1.2882339238e+02   4.8548907855e+01    0.5983146    0.2159096  68.08  0.001575864    5.618    0.822
       104 -10.4702    158.6638    121.3472   8.7659534197e+01   2.5952590634e+01    0.1527001    0.1186125 -84.18 0.0007048137    1.777    0.437
       105 -11.3910    141.6709    118.5402   9.0945484498e+01   3.0115733186e+01    0.5107844     0.239252 -55.69  0.001778076    2.756    0.637
       106 -10.9315    130.6016    118.1474   9.3669194400e+01   3.2557506956e+01    0.3821857    0.2392772 -67.80  0.001491301    2.295    0.564
       107 -11.2953     70.4992    118.0849   1.1242266343e+02   4.4116508057e+01    0.4048453    0.1512925 -60.65  0.001361473    2.722    0.633
       108 -11.9101    108.5579    111.7206   9.8294542678e+01   3.8639308128e+01    0.7891596    0.3060818 -51.98  0.002616773    2.726    0.633
       109 -12.0819     92.2071    109.5068   1.0293465068e+02   4.2437515762e+01     0.971805    0.2927017 -54.42  0.002839504    3.517    0.716
       110 -12.0764     78.2935    110.6662   1.0800827568e+02   4.4708711442e+01    0.8489187    0.3839084 -71.08  0.002575308    3.654    0.726
       111 -11.2940    121.6481    111.0517   9.4315447725e+01   3.6030402229e+01    0.3735316     0.148646 -47.22   0.00126307    2.576    0.612
       112 -11.7187     65.9613    109.2039   1.1218520552e+02   4.7127864007e+01     0.574809     0.225008 -64.42  0.001916787    2.846    0.649
       113 -11.2303     13.8154    109.5954   1.3289280404e+02   5.2882356580e+01    0.4138175    0.2090545  88.39  0.001802724    2.031    0.508
       114 -10.4437    133.2421    109.2542   9.0733599409e+01   3.3899015487e+01    0.2504537    0.1246079 -55.37 0.0008921128    2.427    0.588
       115 -14.4534    229.8930    186.4139   8.7475998112e+01   3.0603008710e+00    0.8513288    0.3619875 -36.50  0.004415703    2.156    0.536
       116 -10.6131    139.3502    103.9054   8.7789104289e+01   3.3658161294e+01    0.3133187    0.1373855 -50.51  0.001089646    2.520    0.603
       117 -12.5375     44.5647    101.3274   1.1899306208e+02   5.2188506908e+01    0.7407935    0.3778448  75.12  0.002459253    3.506    0.715
       118 -10.8940    149.9137    101.6007   8.4676888407e+01   3.1739757743e+01    0.4863131    0.1885772 -49.33  0.001612518    2.886    0.653
       119 -11.9977     21.2450     99.1991   1.2852965065e+02   5.5102640749e+01    0.9397324     0.368321 -88.18  0.003202156    3.328    0.700
       120 -11.0916    128.2389    100.9545   8.9843978149e+01   3.6774045256e+01    0.3923069    0.2170762 -47.55   0.00157166    1.851    0.460
       121 -11.6707     81.8281     98.6662   1.0375605097e+02   4.7054817309e+01     0.594271    0.2290143 -60.10   0.00185206    3.194    0.687
       122 -12.3875    107.9903     96.7272   9.4466654148e+01   4.2190702149e+01    0.8109947    0.4378183 -60.46  0.002974006    2.368    0.578
       123 -11.4125     94.9416     94.9494   9.8159749088e+01   4.5363156238e+01    0.6084236    0.2663394 -47.15  0.002162079    2.345    0.574
       124 -12.4742     63.0437     93.1831   1.0952561961e+02   5.1686146727e+01    0.9427731    0.3453376 -60.37  0.003119599    2.891    0.654
       125 -10.5824    138.4208     91.1550   8.4529646392e+01   3.6444434339e+01    0.3735612    0.1326953 -49.31  0.001145643    3.232    0.691
       126 -11.5611    124.1347     88.9154   8.7549900541e+01   4.0234742877e+01    0.6026476    0.2405719 -42.03   0.00205071    2.587    0.613
       127 -11.4572     34.4695     86.5676   1.2039878717e+02   5.7213541771e+01    0.7164403    0.1939369 -60.51  0.002372951    3.059    0.673
       128 -11.9340     86.1278     85.0134   9.8333911806e+01   4.9467818360e+01    0.6806712    0.2890237 -54.30  0.002344294    2.591    0.614
       129 -11.8120    104.3465     81.6315   9.1126412219e+01   4.6312089481e+01    0.6368163    0.2850879 -51.56  0.002232584    2.485    0.598
       130 -11.7828     47.7502     82.0446   1.1322573802e+02   5.6766025077e+01    0.6478032     0.234824 -61.73   0.00223807    2.780    0.640
       131 -10.9967     23.9012     79.8100   1.2406145213e+02   5.9978540783e+01    0.4082752    0.1865829 -82.61  0.001550919    2.703    0.630
       132 -11.5495     25.6434     73.3388   1.2183395197e+02   6.1485337522e+01    0.7042336    0.2597598 -31.53  0.002025785    4.980    0.799
       133 -12.2548     62.5800     70.7012   1.0322362680e+02   5.7228054633e+01     1.205221    0.1797043 -48.55  0.002770866    6.131    0.837
       134 -10.9140    127.7054     73.2382   8.1850977782e+01   4.2481622376e+01     0.511409    0.1933497 -34.99  0.001638869    3.090    0.676
       135 -11.5467     81.9690     70.0520   9.5066348120e+01   5.3670386275e+01    0.7840714    0.2336493 -46.93  0.002366082    3.453    0.710
       136 -10.7926     74.2247     79.2791   1.0108760114e+02   5.3125180547e+01    0.3857382     0.185973 -60.69  0.001372892    2.573    0.611
       137 -11.2739    105.5915     70.5319   8.7144557788e+01   4.8323482174e+01    0.4398811    0.1523353 -42.47  0.001403523    2.990    0.666
       138 -11.4616     94.7961     69.1345   9.0153251510e+01   5.1087974057e+01    0.7170429    0.2067247 -48.24  0.002032015    3.899    0.744
       139 -10.2859    140.7406     82.0144   8.1351473740e+01   3.7662538560e+01    0.2068854    0.1320686 -41.12 0.0008975031    1.579    0.367
       140 -11.5142     50.7904     66.9220   1.0742838274e+02   6.0027160761e+01    0.7441418    0.2110766 -59.71  0.002099777    4.394    0.772
       141 -11.7805     17.0801     65.3701   1.2464710184e+02   6.4194715994e+01    0.7258506          nan -57.48  0.001765214    6.224    0.839
       142 -10.3833    121.0000     64.5177   8.0750765031e+01   4.5747214883e+01    0.3345026   0.08858959 -38.30 0.0009332927    3.923    0.745
       143 -10.9707    109.6454     62.4282   8.3161528297e+01   4.8919544368e+01    0.3751806    0.1516963 -35.05  0.001255729    2.865    0.651
       144 -10.8457    119.1328     79.7059   8.6147924762e+01   4.3286956800e+01    0.3191239    0.1768005 -55.22  0.001220586    2.124    0.529
       145 -10.8509    100.1607     59.3347   8.4928996816e+01   5.1776622009e+01    0.3976043    0.1979845 -56.41  0.001385995    2.815    0.645
       146 -10.2884    100.4427     54.7202   8.3141291190e+01   5.2558426317e+01    0.3073963    0.1546414 -34.18  0.001181143    2.239    0.553
       147 -11.5248     73.1388     57.0098   9.3836406520e+01   5.8231889773e+01    0.7312782    0.2236233 -44.10  0.002296768    3.399    0.706
       148 -10.6522     24.7433     57.4899   1.1835742377e+02   6.5500427618e+01    0.3185404      0.12909 -50.45  0.001303765    2.189    0.543
       149 -12.5040      7.5855     53.0270   1.2753836991e+02   6.7835728656e+01    0.7191985    0.0828049 -59.33  0.002278252    3.961    0.748
       150 -10.4430    119.3031     55.6601   7.8166510312e+01   4.7732640712e+01    0.1589717    0.1163753 -74.82 0.0004412552    1.674    0.403
       151 -11.4104     43.8396     53.0447   1.0618908995e+02   6.4242905128e+01    0.4957272    0.1527862 -48.18  0.001691213    3.077    0.675
       152 -11.1052     62.6610     51.2496   9.6122002001e+01   6.1464250817e+01    0.6051295    0.1636955 -44.80   0.00183578    3.799    0.737
       153 -11.1861     53.6591     51.0899   1.0035847994e+02   6.3115350240e+01    0.6522431     0.171196 -52.45   0.00188169    4.387    0.772
       154 -11.2532    159.9668    238.7259   1.0847874954e+02   4.8555029774e+00    0.1751166    0.1624007 -63.91  0.001059531    1.636    0.389
       155 -10.7977     20.4247     49.6499   1.1866829412e+02   6.7760613909e+01    0.3853932    0.1659995 -39.36  0.001586578    2.389    0.581
       156 -11.0121    213.8135     50.3790   6.1139470655e+01   2.5680416460e+01    0.1676844    0.1142634  58.50 0.0005820966    1.658    0.397
       157 -10.9705     82.1639     43.9316   8.5027061353e+01   5.8762258840e+01    0.5674127    0.2354182 -27.55  0.001757844    3.955    0.747
       158 -10.2071    112.0000     45.9561   7.6551881594e+01   5.1182430635e+01    0.2423616   0.08715592 -34.64 0.0008052855    2.962    0.662
       159 -11.7937     16.9064     41.4749   1.1838126092e+02   6.9954463439e+01    0.4399192    0.1168488 -53.19  0.001629862    2.917    0.657
       160 -10.3226     49.4632    236.4934   1.3240266386e+02   1.9280858229e+01    0.1221316   0.09465814  43.53 3.979629e-05    1.028    0.027
       161 -10.7486     68.7315     39.8513   8.8564116616e+01   6.2425488850e+01    0.3400461    0.1256807 -42.50  0.001213457    2.857    0.650
       162 -10.7030    105.6817     39.5112   7.5759591982e+01   5.3787107467e+01    0.2695357    0.1395564 -33.53  0.001103342    2.081    0.519
       163 -11.2690     30.5636     48.5415   1.1209498203e+02   6.6991792583e+01     0.546921    0.1286581 -58.76  0.001673284    4.150    0.759
       164 -10.0726     80.3233     35.3331   8.1954107575e+01   6.0617552259e+01    0.1521847    0.1100448  20.59 0.0006656803    1.706    0.414
       165 -10.8229     36.6295     38.9990   1.0469112806e+02   6.8296255641e+01    0.3208896     0.126607 -51.70  0.001267464    2.536    0.606
       166 -12.0839     27.4781     29.8961   1.0649116156e+02   7.1368202712e+01     0.583959    0.1701624 -41.00  0.001952088    3.831    0.739
       167 -13.1102      5.1844     38.1329   1.2556281515e+02   7.1498935984e+01    0.7170486     0.174188 -64.70  0.002644148    3.217    0.689
       168 -10.7462     49.7152     30.1491   9.3002649465e+01   6.7882276425e+01    0.3371541    0.1619382 -25.22  0.001209387    3.373    0.704
       169 -12.4486    229.1042    228.5680   9.4403969739e+01  -2.1679914132e+00    0.2211433    0.1977975 -74.69  0.001519168    2.855    0.650
       170 -10.4390      5.3252    230.3388   1.4192389367e+02   2.4857811606e+01    0.1002365   0.08575564 -34.91 0.0007051355    1.725    0.420
