#   1 NUMBER                 Running object number                                     
#   2 MAG_AUTO               Kron-like elliptical aperture magnitude                    [mag]
#   3 X_IMAGE                Object position along x                                    [pixel]
#   4 Y_IMAGE                Object position along y                                    [pixel]
#   5 X_WORLD                Barycenter position along world x axis                     [deg]
#   6 Y_WORLD                Barycenter position along world y axis                     [deg]
#   7 A_WORLD                Profile RMS along major axis (world units)                 [deg]
#   8 B_WORLD                Profile RMS along minor axis (world units)                 [deg]
#   9 THETA_WORLD            Position angle (CCW/world-x)                               [deg]
#  10 FWHM_WORLD             FWHM assuming a gaussian core                              [deg]
#  11 ELONGATION             A_IMAGE/B_IMAGE                                           
#  12 ELLIPTICITY            1 - B_IMAGE/A_IMAGE                                       
         1 -14.1729    204.0023     18.2080   6.2675049234e+01   3.2105434034e+01     2.506877     1.579952  35.05   0.01200031    2.407    0.584
         2 -13.5383    209.0678     11.5590   6.0584827129e+01   3.1626805890e+01     1.254847    0.7296612  51.66  0.001322463    1.894    0.472
         3 -12.1595      2.5638     15.1604   1.1813522071e+02   7.0637566344e+01    0.6058692     0.208459 -51.36  0.003063508    3.033    0.670
         4 -11.4924      2.3126      4.7984   1.1408661586e+02   7.2123481283e+01    0.4971569    0.1836049 -39.81  0.002915094    2.131    0.531
         5  -9.1435    185.6843    238.3266   1.1578732722e+02  -2.8927944708e+00    0.1272591   0.09987398  65.17 0.0005702688    1.672    0.402
         6 -10.5849    249.2317    248.9146   1.0537694515e+02  -1.4505434078e+01    0.2919016    0.1706985  -8.93   0.00165763    1.852    0.460
         7 -10.7095    163.3358    249.9236   1.2203522975e+02  -8.6978923977e-01    0.3343684    0.1415834  47.16  0.001480491    2.096    0.523
         8 -12.1304    140.0941    248.4955   1.2647197703e+02   3.3874740677e+00    0.4815435    0.3435194  60.89   0.00279121    1.397    0.284
         9 -11.8665    125.5791    244.2174   1.2882085922e+02   6.6342553162e+00    0.2938543    0.2546404  -8.62  0.001653318    1.662    0.398
        10 -12.2835    100.6773    249.1625   1.3429789493e+02   9.8355107417e+00    0.6908903    0.3001912  46.20  0.003179696    1.851    0.460
        11 -13.4699    106.5324    245.9455   1.3280494622e+02   9.4901527989e+00     1.707897    0.3603565  48.62  0.005417773    4.283    0.767
        12 -11.9582     90.8315    247.0420   1.3596481135e+02   1.1776534270e+01    0.4385714    0.2960738  52.98 0.0007245684    1.195    0.163
        13 -13.0632     88.0215    243.2451   1.3611389121e+02   1.2932459082e+01    0.7550504    0.5793079  27.89 0.0004097984    1.730    0.422
        14 -14.6566     34.9207    245.9174   1.4605437315e+02   1.9712945560e+01     11.97464     3.367847  30.93   0.03066137   11.763    0.915
        15 -12.7789     16.5023    241.4414   1.4888564144e+02   2.2676122653e+01     1.560336     0.405914  58.35  0.006744861    3.502    0.714
        16 -13.3473     56.6868    226.8902   1.4057847773e+02   2.0734487172e+01     0.944502    0.7987008 -81.36  0.006499883    1.266    0.210
        17 -15.7454      8.0645    198.8145   1.4765937157e+02   3.2195969033e+01     8.614798     1.427505 -72.73   0.01783017    4.377    0.772
        18 -12.7439      4.0437    245.5263   1.5112652733e+02   2.3203345510e+01     1.492614    0.6267514 -89.11  0.008842196    2.000    0.500
        19 -10.7791    249.6782    231.5302   1.0226798995e+02  -1.2313578077e+01    0.2761703    0.1043238 -35.86  0.001257897    2.672    0.626
        20 -10.6987    249.3006    243.5667   1.0445028242e+02  -1.3841964267e+01    0.2136663    0.1281571  -8.22  0.001207643    1.776    0.437
        21 -11.9748     74.8397    228.9954   1.3722363677e+02   1.7748612879e+01    0.5206404    0.2156123  45.43 0.0009135113    2.048    0.512
        22 -12.1303     63.3207    218.4656   1.3845309881e+02   2.1595667986e+01    0.5483878    0.2281068  55.53  0.001609314    2.302    0.566
        23 -14.8125     54.1924    209.1607   1.3937261282e+02   2.4832199548e+01     5.325542     1.042651  51.32   0.01518384    6.036    0.834
        24 -10.4928    174.0019    220.2967   1.1521140262e+02   2.2890690747e+00    0.2562093    0.1980359  -5.16  0.001354324    1.630    0.386
        25 -10.3123    143.0343    241.4783   1.2493162874e+02   4.1053051473e+00    0.2090355    0.1111477  43.23 0.0005234514    1.560    0.359
        26 -10.0671    228.7263    205.7640   1.0140710569e+02  -5.1494382523e+00    0.2737789    0.2161276 -53.92 0.0006571616    1.694    0.410
        27 -11.3123     27.6142    204.3980   1.4429387788e+02   2.9043964634e+01    0.4450098    0.1354039  49.29  0.001972956    2.910    0.656
        28  -9.8684    192.1947    193.3697   1.0639114917e+02   3.7979795356e+00    0.3655861    0.2206557 -69.03  0.001323318    3.464    0.711
        29 -11.6139     65.5154    193.6489   1.3522149602e+02   2.6771649240e+01    0.4256803     0.250776 -48.56  0.001851749    2.077    0.519
        30 -11.7943     70.7780    186.4100   1.3310418477e+02   2.7696290041e+01    0.2930847    0.2526287 -52.40 0.0007449705    1.356    0.263
        31  -8.2185    181.5202    192.4536   1.0850844269e+02   6.0921110507e+00     0.147586     0.136538  30.97 6.178887e-05    1.004    0.004
        32 -11.0812     80.0611    174.5453   1.2920289564e+02   2.9115045102e+01      0.24945    0.2377385 -87.06 0.0003846358    1.132    0.117
        33 -13.3387     67.4057    171.9236   1.3190142826e+02   3.1584998465e+01    0.5281137    0.2962391 -44.23  0.001820732    2.221    0.550
        34 -10.6335    104.8296    172.9845   1.2283877895e+02   2.5402242753e+01    0.6081774    0.1638436  45.44  0.001830953    3.662    0.727
        35 -12.1277     87.0683    166.1075   1.2610491085e+02   3.0039030057e+01    0.8825511    0.5758426  58.39    0.0033742    1.623    0.384
        36 -13.0357     67.6453    144.5311   1.2747826669e+02   3.8149202393e+01     1.253702    0.7135473 -89.98  0.002961123    2.658    0.624
        37 -14.0138     46.9851    217.0498   1.4157547674e+02   2.4058217013e+01    0.9461767    0.7307048  75.75  0.003964057    1.019    0.019
        38  -9.8619     99.6766    150.1496   1.1989918299e+02   3.1777877648e+01    0.2631929    0.2485139  37.53 0.0007132989    1.140    0.123
        39 -12.1589     88.3489    149.1173   1.2272717280e+02   3.3938257178e+01    0.3027081    0.2576117 -39.05 0.0006644083    1.299    0.230
        40  -9.1996    102.6286    145.9446   1.1825771049e+02   3.2268081400e+01     0.241881    0.1785953 -37.65 0.0007954842    1.529    0.346
        41  -9.6514    110.4817    135.5795   1.1388717581e+02   3.3297468414e+01    0.3330632    0.2296866 -14.72  0.001304633    2.345    0.574
        42 -10.5449     98.0135    132.7934   1.1671930701e+02   3.6238492930e+01     0.265322    0.2267252 -28.93 0.0004296546    1.304    0.233
        43 -12.3803     58.0401    132.2063   1.2793619966e+02   4.2368203977e+01     2.032737    0.6961855 -73.05   0.00457657    8.155    0.877
        44  -9.3371    107.4794    122.9652   1.1178216651e+02   3.6829319885e+01    0.2053808    0.1995294  44.62 0.0001679465    1.053    0.051
        45 -10.6514    167.9065    112.9920   9.3561438573e+01   2.5801515610e+01     0.390182    0.3087679 -87.00 0.0009972882    1.570    0.363
        46  -9.8379    230.8010    167.8090   9.3316231581e+01   1.0013328219e+00    0.3365919    0.1697529 -59.16  0.001080798    4.218    0.763
        47  -9.5053    204.7144    110.9025   8.5300197936e+01   1.7424076860e+01    0.4046375    0.1865458  37.80  0.001352178    3.040    0.671
        48 -10.4846     42.8788    105.1246   1.2723304772e+02   5.0397685335e+01    0.1963319    0.1735573 -87.48  0.001143451    1.262    0.208
        49  -9.1685     11.0035     93.4399   1.3513427679e+02   5.5544328823e+01    0.1475369    0.1162364   6.11  0.000579559    1.545    0.353
        50 -10.8415      1.9975     80.2920   1.3574141369e+02   5.8819693970e+01    0.3201679   0.09544516 -61.38  0.001492999    2.344    0.573
        51  -9.5814    110.0507     43.2029   8.7465175875e+01   5.1653842901e+01    0.2355587    0.1820755  65.43 0.0007543924    1.549    0.354
        52  -9.4959    230.6645    249.6715   1.0891063649e+02  -1.1902525273e+01    0.1292746   0.08009514   8.40 0.0007051941    1.725    0.420
        53  -9.8380    237.6686    247.3242   1.0721740090e+02  -1.2640369168e+01    0.1066382   0.09525345  52.56 0.0007050475    1.704    0.413
        54 -12.6717     39.7945    226.6260   1.4376514768e+02   2.2948835222e+01    0.3275922    0.2645409 -77.78 0.0007557705    1.316    0.240
