#   1 NUMBER                 Running object number                                     
#   2 MAG_AUTO               Kron-like elliptical aperture magnitude                    [mag]
#   3 X_IMAGE                Object position along x                                    [pixel]
#   4 Y_IMAGE                Object position along y                                    [pixel]
#   5 X_WORLD                Barycenter position along world x axis                     [deg]
#   6 Y_WORLD                Barycenter position along world y axis                     [deg]
#   7 A_WORLD                Profile RMS along major axis (world units)                 [deg]
#   8 B_WORLD                Profile RMS along minor axis (world units)                 [deg]
#   9 THETA_WORLD            Position angle (CCW/world-x)                               [deg]
#  10 FWHM_WORLD             FWHM assuming a gaussian core                              [deg]
#  11 ELONGATION             A_IMAGE/B_IMAGE                                           
#  12 ELLIPTICITY            1 - B_IMAGE/A_IMAGE                                       
         1 -15.1980      8.3570    148.4379   1.4303636324e+02   4.3369400605e+01      6.16014     1.908992 -80.39   0.02350513    3.532    0.717
         2 -13.4009    196.0368     30.2098   6.8085517513e+01   3.2857517297e+01     1.310189     1.093595  65.53  0.006415234    1.156    0.135
         3 -13.6739    210.7560     11.2092   6.1763336979e+01   3.1532401435e+01     1.303201    0.9139473  46.64  0.007438245    1.737    0.424
         4 -11.1021      2.9765      4.1131   1.1257289918e+02   7.1943655622e+01     0.313578    0.1513698 -36.75  0.002090531    1.648    0.393
         5 -10.3812    139.8086    230.5960   1.2502505151e+02   6.9233963277e+00     0.203109    0.1065393  51.30 0.0009575895    1.736    0.424
         6 -12.2967    247.0685    249.0475   1.0762963657e+02  -1.3813623539e+01    0.7136216     0.344368  40.64  0.003896943    1.987    0.497
         7 -11.7244     35.3790    243.7365   1.4588831526e+02   2.0253963358e+01    0.4129311    0.3392919 -84.63  0.003153336    1.360    0.265
         8 -11.3367     28.9977    249.7153   1.4733044261e+02   1.9888250649e+01    0.4635338     0.178774  40.81  0.002533221    2.487    0.598
         9 -10.2664     30.4510    246.4877   1.4688724148e+02   2.0321446226e+01    0.2270089    0.1457304  73.01  0.000923948    1.147    0.128
        10 -11.7880      3.1205    246.7443   1.5121679807e+02   2.3277042803e+01    0.7495666    0.2823015 -89.26   0.00420273    2.295    0.564
        11 -11.2812     14.6567    250.1333   1.4962185492e+02   2.1435166827e+01    0.4230431    0.1883947  40.47  0.002570343    2.286    0.562
        12 -12.4856     12.1582    240.5642   1.4947746892e+02   2.3494487466e+01    0.6284825    0.2408803  84.81  0.002986641    2.540    0.606
        13 -11.1430    125.4428    249.6841   1.3031205842e+02   5.9617270162e+00    0.4322957     0.102045  41.38  0.001497268    3.661    0.727
        14 -10.8174     98.7790    248.4226   1.3512882590e+02   1.0505280450e+01    0.2253291    0.2140364  54.30  0.001445798    1.369    0.270
        15 -10.5012    105.9429    246.4973   1.3359396067e+02   9.7209455930e+00    0.1913618    0.1033168  45.98  0.000855067    1.554    0.356
        16 -10.9490     19.6303    242.6272   1.4840069002e+02   2.2291488121e+01    0.2171849    0.1345512  72.13 0.0006822066    1.181    0.153
        17 -11.3164    234.4720    238.6213   1.0810405090e+02  -1.0609141081e+01     0.324432    0.2019631 -55.89  0.001620133    3.024    0.669
        18  -9.5954    186.3119    239.3152   1.1720714295e+02  -2.7863118208e+00    0.1282323   0.09324314  11.69 0.0007032808    1.637    0.389
        19 -10.8586     50.6365    235.2798   1.4261654654e+02   1.9980394844e+01    0.2292351    0.1888684 -77.02  0.001272449    1.370    0.270
        20 -14.5784      9.2603    207.0229   1.4786270718e+02   3.0472408028e+01     9.747635          nan  41.03  0.005756235    8.555    0.883
        21  -9.5969     66.6832    250.0836   1.4103769732e+02   1.4966948909e+01      0.19717    0.1229667  60.01 0.0003633584    1.260    0.207
        22  -9.5517    126.5846    224.8051   1.2686795391e+02   1.0352236684e+01    0.1780977    0.1237503 -77.26 0.0008783315    1.674    0.403
        23 -10.1179      6.9918    215.0303   1.4879338175e+02   2.9046315497e+01    0.1686826    0.1254107  87.32  0.000484362    1.109    0.098
        24  -8.8196    152.5552    212.9950   1.1973636196e+02   7.9338853053e+00    0.1843141     0.138054 -54.31 0.0003251545    1.474    0.321
        25 -11.5025     61.0940    197.5011   1.3690480593e+02   2.6540856325e+01    0.2847172    0.2304394 -57.01 0.0005625298    1.454    0.312
        26  -9.4338    192.0350    193.0789   1.0795593402e+02   4.1388134647e+00    0.3624679    0.1858243 -63.89  0.001140878    4.495    0.778
        27 -10.3164     55.2462    229.9583   1.4132866848e+02   2.0434457281e+01    0.2622586    0.1501897  63.53  0.001431416    1.491    0.330
        28 -11.7957     67.2422    189.3486   1.3461156038e+02   2.7526623661e+01    0.2898823    0.2309405 -66.37 0.0005138264    1.259    0.206
        29 -10.8748     77.4080    176.7921   1.3061824928e+02   2.8949171561e+01    0.2474429    0.2152304 -70.62 0.0004184095    1.146    0.127
        30 -13.1934     64.1951    174.6692   1.3335737572e+02   3.1336250771e+01     0.510223    0.2776582 -46.53  0.001714789    2.259    0.557
        31  -9.2494     97.1378    173.3720   1.2547153351e+02   2.6613272679e+01    0.2459055    0.1791773 -53.92 0.0006378674    1.400    0.286
        32 -11.7628     84.8844    167.6274   1.2743925513e+02   2.9959239912e+01    0.6047563    0.5600706 -85.94  0.003625363    1.088    0.081
        33  -9.9861     97.6405    151.6858   1.2146050029e+02   3.1661077246e+01    0.3145318    0.2796178 -34.36 0.0007604708    1.314    0.239
        34  -9.1217    100.5469    147.5527   1.1991030159e+02   3.2143036633e+01    0.1947158    0.1833626 -68.73 0.0002049241    1.063    0.059
        35 -12.0629     86.2566    150.9003   1.2420094197e+02   3.3728425830e+01    0.3017635    0.2479347 -47.06 0.0005892216    1.292    0.226
        36 -12.6830     34.2636    231.1143   1.4517166863e+02   2.2847431979e+01    0.2929807    0.2327735 -77.98 0.0007524927    1.360    0.265
        37 -12.3460     67.5765    143.7471   1.2771773389e+02   3.8211923594e+01    0.7068967    0.4681265  69.29  0.003037742    1.807    0.447
        38  -8.4748    192.2854    143.7314   9.7395147636e+01   1.3872042446e+01    0.1475672    0.1207073 -85.31 0.0002371794    1.498    0.332
        39  -9.7068    109.6455    136.8916   1.1531931860e+02   3.3026403171e+01    0.3858449    0.2437234 -28.55  0.001555416    2.334    0.572
        40 -11.2959     58.1417    133.2685   1.2835132662e+02   4.1945971334e+01    0.6623998    0.2468488 -72.96  0.001989019    4.598    0.783
        41 -14.4958     40.2490    223.2824   1.4349328940e+02   2.3706975657e+01     3.376851     1.523152  35.95  0.008707331    2.541    0.606
        42  -9.0679    106.7239    123.7516   1.1309632903e+02   3.6636398539e+01    0.1908005    0.1659747  87.94 0.0003828593    1.250    0.200
        43 -10.4425     96.6877    134.1703   1.1814366641e+02   3.5991881125e+01    0.2666738     0.229256 -32.70 0.0005464497    1.307    0.235
        44 -10.3143    167.9000    112.9105   9.5117134358e+01   2.5875894836e+01    0.3687871    0.2899769 -84.06  0.001494895    1.551    0.355
        45  -9.0408    203.4756    111.5008   8.7462394913e+01   1.7759012406e+01    0.1516592    0.1462866 -57.38 8.993784e-05    1.030    0.029
        46  -9.9512    228.8821    228.7475   1.0741028831e+02  -8.3544292091e+00     0.211175    0.1679953 -65.96  0.001053018    2.112    0.526
        47  -9.8333    158.0323     77.0053   8.7563568642e+01   3.5208598393e+01    0.1848378    0.1787662  71.88 0.0005068768    1.002    0.002
        48  -9.7834     43.8479     67.8952   1.1793875182e+02   5.7951672312e+01    0.2654177    0.1827747  45.10 0.0009762958    1.911    0.477
        49  -8.9595     32.4865     62.4670   1.2046559376e+02   6.0129991110e+01    0.1200173   0.09901421 -36.44 0.0003564023    1.044    0.042
        50  -9.6639    152.6535    229.3112   1.2227024152e+02   4.8654670044e+00    0.1380602   0.09612536  68.59 0.0004536083    1.709    0.415
        51 -10.4429     15.1765     55.3839   1.2493891024e+02   6.2865033446e+01    0.1771111    0.1634076  63.67 0.0006471382    1.557    0.358
        52 -11.3799    140.6632    249.5710   1.2742708694e+02   3.4219502354e+00    0.5989606    0.1154285  39.09  0.001634537    5.868    0.830
        53  -9.7151     47.0421    249.4866   1.4434832935e+02   1.7712998005e+01     0.158923   0.09230068  48.76 0.0004084046    1.507    0.336
        54 -10.8613    199.1142    246.8756   1.1596669306e+02  -6.0921061848e+00    0.1915189    0.1621961  48.74  0.001253444    1.279    0.218
