#   1 NUMBER                 Running object number                                     
#   2 MAG_AUTO               Kron-like elliptical aperture magnitude                    [mag]
#   3 X_IMAGE                Object position along x                                    [pixel]
#   4 Y_IMAGE                Object position along y                                    [pixel]
#   5 X_WORLD                Barycenter position along world x axis                     [deg]
#   6 Y_WORLD                Barycenter position along world y axis                     [deg]
#   7 A_WORLD                Profile RMS along major axis (world units)                 [deg]
#   8 B_WORLD                Profile RMS along minor axis (world units)                 [deg]
#   9 THETA_WORLD            Position angle (CCW/world-x)                               [deg]
#  10 FWHM_WORLD             FWHM assuming a gaussian core                              [deg]
#  11 ELONGATION             A_IMAGE/B_IMAGE                                           
#  12 ELLIPTICITY            1 - B_IMAGE/A_IMAGE                                       
         1 -13.8421    197.5269     26.1141   5.9266538447e+01   3.1899367081e+01     2.325331     1.178318  15.80  0.008194862    3.058    0.673
         2 -13.8850    204.4505     20.8874   5.6746145098e+01   3.0615021529e+01      2.04136     1.334373  -2.96  0.007977275    1.713    0.416
         3 -13.2960    210.1707     14.6363   5.4177125040e+01   2.9723893715e+01     1.048935    0.6223297  25.46  0.001507216    2.041    0.510
         4 -11.7182      2.0000      7.0095   1.1049797496e+02   7.2550352892e+01    0.7199066    0.1412356 -59.21  0.002446479    5.208    0.808
         5 -11.1807    225.9450      1.7292   4.8870270006e+01   2.6811341896e+01    0.5973254    0.1836948  72.15  0.001693369    3.175    0.685
         6 -15.6737      4.3412    183.1844   1.3431455671e+02   3.7578009093e+01     5.598494     1.100223 -73.66   0.02715256    3.944    0.746
         7 -12.3658    174.7362    249.2488   1.1152507033e+02   6.5777763146e+00    0.5430385    0.2061515  38.29  0.003038543    2.061    0.515
         8 -12.7637    140.8955    248.1542   1.1662985910e+02   1.1607738406e+01    0.5406263    0.3392495  56.62    0.0039926    1.411    0.291
         9 -12.5006    126.2342    246.7440   1.1876756726e+02   1.3834171250e+01    0.4066978     0.309972 -78.26  0.003365974    1.705    0.413
        10 -12.3421     83.9126    248.6342   1.2538398038e+02   1.9140508144e+01    0.4317309      0.20342  38.79  0.002884005    1.950    0.487
        11 -12.0223     95.9502    246.2111   1.2338669569e+02   1.7946957721e+01     0.387715    0.2420647 -81.86  0.002986276    1.957    0.489
        12 -11.6342     90.9048    246.8573   1.2420310505e+02   1.8503591433e+01    0.2536311    0.1549118  60.26 0.0009569929    1.290    0.225
        13 -10.4287     63.0387    250.2855   1.2857965673e+02   2.1388309963e+01    0.2066321   0.08180363  48.24 0.0007806255    1.736    0.424
        14 -14.9803     34.9700    246.0285   1.3241866860e+02   2.4982961961e+01     8.810278     2.549525  32.46   0.03018803   10.136    0.901
        15 -12.5439     55.5360    239.1265   1.2905131585e+02   2.3758545928e+01    0.4283728    0.2045273  56.27  0.001594433    1.525    0.344
        16 -11.2861     52.1631    233.8080   1.2925584212e+02   2.4888197564e+01    0.1802274     0.158396  51.73  0.001161557    1.480    0.324
        17 -10.8446    224.7768    199.0146   9.6649809896e+01   3.8553515146e+00    0.2424016    0.2076245 -44.02 0.0007924645    1.744    0.427
        18 -10.1483    192.0253    193.0572   1.0116336019e+02   1.0144660567e+01    0.3953273    0.2158086 -61.62  0.001445189    6.066    0.835
        19 -10.7005     53.0378    228.5242   1.2880921504e+02   2.5560038666e+01      0.24389    0.1294673  76.71 0.0003428201    1.791    0.442
        20 -11.7107     64.8343    191.1886   1.2410236587e+02   3.0102312487e+01    0.2798332    0.2263343 -38.64   0.00180746    1.986    0.496
        21 -11.7428     70.1068    184.2384   1.2249052501e+02   3.0647728961e+01    0.2107077    0.1942621 -75.14 0.0005602845    1.349    0.259
        22 -11.1220     79.5215    172.8418   1.1948697026e+02   3.1447640083e+01    0.1991119    0.1780924  81.53 0.0004696004    1.135    0.119
        23 -12.4393     86.5484    164.9418   1.1713103214e+02   3.1923854935e+01     1.363621    0.4659061  53.48  0.002762997    3.317    0.699
        24 -13.3755     67.1242    144.0358   1.1859790038e+02   3.8491497414e+01     2.287206     1.028814  88.68  0.003192702    5.541    0.820
        25 -13.2942     66.7486    169.9952   1.2171129922e+02   3.3602110478e+01     0.386099    0.2429244 -46.63  0.001597414    2.199    0.545
        26 -14.3984      8.6807    244.2492   1.3603636461e+02   2.7736479920e+01     1.472979    0.9207167 -86.10   0.01381862    1.542    0.352
        27 -14.2930     10.1330    206.9066   1.3442585159e+02   3.3165165891e+01     1.322785    0.8966317 -51.00   0.01043455    2.479    0.597
        28  -9.9479     99.4906    148.9848   1.1216632717e+02   3.3004325008e+01    0.2578887    0.2240033 -57.76 0.0007641291    1.246    0.197
        29  -9.4193    102.2080    144.9770   1.1093768740e+02   3.3343352030e+01    0.1877815    0.1552533 -15.37 0.0007666691    1.744    0.427
        30 -12.1080     87.9637    147.9808   1.1453521058e+02   3.4910865259e+01    0.2296785    0.2142363 -56.73 0.0004525766    1.248    0.199
        31 -11.3595     38.6640    146.7114   1.2513808208e+02   4.1182207670e+01    0.2754773    0.1479492  56.65  0.001162666    1.763    0.433
        32 -12.9198     38.8702    223.2435   1.3071293654e+02   2.7868981911e+01    0.2906204    0.2263249 -66.13 0.0009312747    1.727    0.421
        33 -10.6736     97.8223    131.9898   1.0974305614e+02   3.6550924930e+01    0.2384075    0.2105107 -24.05 0.0006489734    1.431    0.301
        34  -9.6295     44.3272    130.3241   1.2207055701e+02   4.3872262314e+01    0.1095866   0.08187356 -43.48  0.000475585    1.694    0.410
        35  -9.3996    107.1727    122.6302   1.0579142512e+02   3.6878869433e+01    0.1727193    0.1565105  44.00 0.0004760467    1.129    0.114
        36  -9.7292    110.3411    135.2509   1.0744839389e+02   3.3887422897e+01    0.2527493    0.2070128  -8.09 0.0009623268    1.725    0.420
        37 -11.1627    167.9123    113.0099   8.9916943127e+01   2.6735542152e+01    0.3368983     0.290305 -77.65 0.0009322394    1.473    0.321
        38  -9.5904    204.7635    110.9076   8.2226121252e+01   1.8878345161e+01    0.3872572    0.1503107  37.64  0.001333604    2.957    0.662
        39 -15.2039     48.7891    211.7580   1.2843983265e+02   2.8581702135e+01     2.441661     1.236091  62.46   0.01346501    1.627    0.385
        40  -9.7883    243.6520     94.3236   7.1723804669e+01   1.2466134716e+01     0.137599    0.1068852 -57.77 0.0005964452    1.745    0.427
        41 -10.5605      1.5751     89.7983   1.2818524382e+02   5.5761663468e+01    0.2719576   0.08521335 -76.12  0.001292811    2.577    0.612
        42 -11.2694      2.0000     79.9901   1.2690935984e+02   5.7784451522e+01    0.4537498   0.08825382 -71.82  0.001764042    3.764    0.734
        43  -9.7372    157.6003     78.2124   8.2790927614e+01   3.4924189371e+01    0.2086713    0.1430463 -18.99  0.000373426    1.626    0.385
        44  -9.7527    107.1485     41.4243   8.3036563889e+01   5.2307344357e+01    0.4569016    0.2708865  78.52  0.001468983    4.771    0.790
        45 -11.1059    242.3429    249.2383   1.0139683495e+02  -3.2861360545e+00    0.1927366    0.1130944  36.95  0.001416987    1.222    0.182
        46 -12.7765    105.5156    243.3103   1.2168549787e+02   1.7076286099e+01    0.4595691    0.4145967   3.70  0.003755277    1.796    0.443
        47 -11.6205    162.5118    249.5302   1.1343332442e+02   8.3392945694e+00    0.2768056    0.1567081  42.98  0.001951654    1.248    0.199
        48 -11.8417     23.3002    213.6509   1.3265765127e+02   3.0894885159e+01    0.2043393     0.170846 -75.23  0.001576446    1.561    0.360
        49 -11.0088    189.9453     15.7352   5.6991109355e+01   3.4965252755e+01    0.2587295    0.2130771 -19.58 0.0007971443    1.234    0.190
        50 -11.3726     26.0000    214.9988   1.3229883898e+02   3.0425144866e+01    0.2150726    0.1106181 -89.55  0.001267293    1.745    0.427
