#   1 NUMBER                 Running object number                                     
#   2 MAG_AUTO               Kron-like elliptical aperture magnitude                    [mag]
#   3 X_IMAGE                Object position along x                                    [pixel]
#   4 Y_IMAGE                Object position along y                                    [pixel]
#   5 X_WORLD                Barycenter position along world x axis                     [deg]
#   6 Y_WORLD                Barycenter position along world y axis                     [deg]
#   7 A_WORLD                Profile RMS along major axis (world units)                 [deg]
#   8 B_WORLD                Profile RMS along minor axis (world units)                 [deg]
#   9 THETA_WORLD            Position angle (CCW/world-x)                               [deg]
#  10 FWHM_WORLD             FWHM assuming a gaussian core                              [deg]
#  11 ELONGATION             A_IMAGE/B_IMAGE                                           
#  12 ELLIPTICITY            1 - B_IMAGE/A_IMAGE                                       
         1 -14.7728     20.8048    133.7524   1.1951902413e+02   4.4979695574e+01     4.198302     3.571737  32.66   0.02874643    1.445    0.308
         2 -12.0115    194.8050     37.1439   4.9247892390e+01   3.1858462602e+01     1.020768    0.9602247 -60.61  0.004219012    1.061    0.057
         3 -11.8856    204.0637     26.0752   4.5024734878e+01   3.0941090803e+01    0.7477353    0.7108606  -5.41  0.001835449    1.250    0.200
         4  -9.5707    212.4563      7.8534   3.9427746639e+01   3.0940198793e+01    0.2350565    0.1718824  79.92 0.0006849219    1.247    0.198
         5 -10.0090    227.2122      2.1732   3.6790128736e+01   2.8039233801e+01    0.6578083     0.231115  76.21  0.002747757    2.711    0.631
         6  -8.4441    239.0384      1.4309   3.5731736805e+01   2.5424811498e+01    0.1739389    0.1080682  81.35 0.0003210952    1.491    0.329
         7 -13.2083     25.0161    212.3188   1.2527169978e+02   2.7199449387e+01    0.5219834    0.2187416  67.32  0.002720154    2.245    0.555
         8 -12.1992    246.0069    239.7021   8.6375293623e+01  -1.0143278438e+01     1.677154    0.8535179 -23.02  0.009737436    2.024    0.506
         9 -11.0465    248.6060    213.8371   8.1508406182e+01  -7.4186138223e+00    0.7052903    0.2728881 -33.19  0.003358315    2.554    0.609
        10 -13.9834    119.6345    239.7407   1.0973708527e+02   9.3947649307e+00       3.9418     3.353329 -54.34   0.02738251    1.463    0.316
        11 -13.8718     50.9917    236.7639   1.2219100495e+02   1.9543922994e+01    0.6728604    0.3376455  35.15  0.003856343    2.118    0.528
        12 -14.4269      3.6641    207.4125   1.2888308001e+02   3.0247122724e+01    0.8425035    0.3193303  66.70  0.004490794    2.311    0.567
        13 -13.8553      6.5979    198.7143   1.2788994604e+02   3.1738616754e+01    0.4763975    0.3433422  55.77  0.003517993    1.286    0.222
        14 -15.8576     37.9026    245.0975   1.2498804901e+02   1.9593836452e+01     1.025628    0.4819897  66.19  0.006207109    1.801    0.445
        15 -18.2464     14.6111    238.4043   1.2850374792e+02   2.3313435081e+01      2.63773     1.703303  51.75   0.01989795    1.316    0.240
        16 -11.3088     68.7416    230.9208   1.1850203308e+02   1.8358642159e+01    0.1855921     0.132034  62.30 0.0003520582    1.115    0.103
        17 -11.0933    112.2585    224.4278   1.0940577588e+02   1.3231630149e+01    0.6097906    0.4431438  33.54  0.001839541    1.421    0.296
        18  -9.9725     81.1255    235.2481   1.1656502875e+02   1.5872892081e+01     0.155929    0.1346112  66.94 0.0003194254    1.146    0.127
        19 -13.2313     55.1452    226.0004   1.2063946285e+02   2.1046961311e+01    0.2685731    0.1963017  50.49 0.0009249516    1.235    0.190
        20  -8.2384    224.9645    225.4678   8.7694984275e+01  -5.3704299263e+00    0.1820223    0.1612692 -30.56 0.0002321049    1.456    0.313
        21 -10.4125     52.1072    220.9787   1.2081608503e+02   2.2395985368e+01    0.1610178    0.1235284  71.47 0.0002635165    1.017    0.017
        22 -11.6326     47.7897    219.2857   1.2149999900e+02   2.3254054874e+01    0.1749171    0.1377399  75.45 0.0003172582    1.057    0.054
        23 -10.3061     51.3735    215.3081   1.2050307338e+02   2.3606435352e+01    0.2385211    0.1175023  64.08  0.001146167    1.904    0.475
        24  -9.0315     71.1302    250.8360   1.1966841860e+02   1.4483306577e+01    0.1293283   0.06607486  42.85            0    1.612    0.380
        25 -12.2125     17.9965    201.3651   1.2589755730e+02   3.0129482247e+01    0.3188828    0.1426564  63.98  0.001752688    1.973    0.493
        26 -10.6557    242.9157    200.6134   8.0070430394e+01  -4.8177267436e+00    0.2816696    0.2220805  -1.88 0.0003770906    1.071    0.067
        27  -7.3008    210.9986    202.7744   8.6298610464e+01   8.7322323723e-02    0.1661467   0.09747233  37.38 0.0004320747    1.550    0.355
        28  -7.8632    194.0075    197.8250   8.8696776614e+01   3.8411338578e+00    0.3348516    0.1909841 -65.68  0.001112553    5.159    0.806
        29  -9.9627     28.7931    198.7904   1.2363232691e+02   2.9569247207e+01    0.1482034    0.1084474  66.95 0.0004416392    1.117    0.105
        30 -10.2610     25.3606    193.1002   1.2389914405e+02   3.1122645709e+01    0.3621014    0.1810677 -87.35  0.001776438    1.762    0.432
        31  -8.0978     20.9603    197.0271   1.2504430264e+02   3.0736841596e+01    0.1104288   0.07748025  87.45            0    1.130    0.115
        32  -8.9307     66.1474    250.8231   1.2053493541e+02   1.5136968343e+01   0.08697285   0.05764298  67.60 0.0003067577    1.232    0.188
        33  -7.9662     97.1308    193.2221   1.0864498141e+02   2.1794725734e+01    0.1835734     0.176893  44.58 0.0005110626    1.222    0.181
        34 -10.6679     59.9034    250.7460   1.2160706522e+02   1.5949197771e+01    0.1420954   0.07497744  44.78            0    1.535    0.349
        35  -9.8228      2.1655    190.2609   1.2826000188e+02   3.3867119569e+01    0.2037406    0.1035089  66.71 0.0009355163    1.638    0.390
        36  -7.6619    180.8718    189.4903   8.9821215180e+01   7.6686920840e+00    0.2025309    0.1274742  40.84 0.0005516905    1.466    0.318
        37 -12.4257     33.7559    207.8315   1.2332131106e+02   2.7167966777e+01    0.6781657    0.5171379 -35.27   0.00434715    2.272    0.560
        38  -7.3548     84.8107    180.7423   1.0973713001e+02   2.6407486316e+01    0.1750896    0.1497613 -69.62  0.000374875    1.189    0.159
        39  -9.6646    146.6977    179.7902   9.5395420868e+01   1.5969337101e+01    0.3239956    0.2797744 -13.71  0.001402207    1.370    0.270
        40  -6.4152     73.1323    178.8438   1.1217223671e+02   2.8526548453e+01    0.3479636    0.2344944 -30.86  0.001494199    2.506    0.601
        41  -9.1404     77.3540    173.3159   1.1046197944e+02   2.9181363181e+01    0.2395675    0.2186787 -44.63 0.0007538379    1.345    0.256
        42  -9.0511     17.0119    179.3148   1.2459322111e+02   3.4898458199e+01    0.1099262   0.08471289  83.98 0.0002396154    1.019    0.019
        43  -9.6393    175.4693    172.3346   8.7638944739e+01   1.1873205270e+01    0.3275637    0.3008995 -38.96 0.0008384468    1.152    0.132
        44  -8.6014    124.5366    173.0408   9.9265640170e+01   2.1504892668e+01     0.265642    0.1873472  58.04 0.0003850477    1.462    0.316
        45 -11.4562      7.0381    170.1392   1.2603051034e+02   3.7772251981e+01    0.1854084    0.1440159  86.93  0.000271978    1.049    0.047
        46  -8.3699     11.4788    168.0064   1.2492661430e+02   3.7876235915e+01    0.1540858    0.1178596 -89.58 0.0003110871    1.040    0.038
        47 -10.1407     95.4009    167.3444   1.0525986110e+02   2.7795154583e+01    0.2668675    0.2361335 -84.26 0.0003370022    1.071    0.066
        48  -8.5820     77.1252    248.4412   1.1842412220e+02   1.4092336228e+01    0.1455063   0.09119528  44.60 4.282255e-05    1.345    0.256
        49  -7.9152     90.8177    144.1755   1.0243438898e+02   3.3974262458e+01    0.1886324    0.1716903 -24.29 0.0004044395    1.314    0.239
        50  -8.4104    104.5728    141.7948   9.8346537590e+01   3.2221697493e+01    0.4225609    0.2615927 -22.65  0.001440071    3.048    0.672
        51  -7.9848     98.2873    143.1069   1.0026070047e+02   3.2995645764e+01    0.2022454    0.1796127 -69.50 0.0004433678    1.074    0.069
        52  -7.7973    105.0082    133.4797   9.6505624254e+01   3.4112946933e+01    0.2185166    0.1865261 -60.33 0.0002939835    1.130    0.115
        53  -7.8606    117.1916    133.4193   9.3242317104e+01   3.1871626078e+01    0.2017673    0.1420466  53.37 0.0006152349    1.498    0.332
        54  -8.0036    113.0860    131.9346   9.4000990844e+01   3.2996208122e+01    0.2414583    0.1867023 -20.54  0.001127239    1.682    0.405
        55  -8.8000    120.1372    128.0283   9.1234605245e+01   3.2553032856e+01    0.2259031    0.2183315  75.74 0.0005400069    1.038    0.037
        56  -8.1811    124.9082    126.9572   8.9723391350e+01   3.1853150025e+01    0.2313994    0.2221748  65.87 0.0005309558    1.051    0.049
        57  -7.1814    100.6562    127.7391   9.6449483200e+01   3.6247955925e+01    0.1445656    0.1181198 -10.13 0.0006969926    1.595    0.373
        58  -8.1584     89.3244    124.6711   9.8955784872e+01   3.8901642446e+01    0.2571765    0.2123831  86.98 0.0006549961    1.328    0.247
        59  -8.6773    147.9916    121.1222   8.2408799438e+01   2.8285855855e+01    0.2220015    0.2215736  82.29 0.0002843079    1.010    0.010
        60  -7.7572     84.7772    164.1641   1.0735106899e+02   3.0194136082e+01    0.1837135     0.160084 -42.14 0.0004504345    1.362    0.266
        61  -8.0538    108.4963    160.1064   1.0082562591e+02   2.7260235984e+01     0.204801    0.1397658 -58.94 0.0003124932    1.465    0.317
        62  -7.8532    203.6965    118.9467   6.9663782089e+01   1.6140975840e+01    0.2129873    0.1936438 -29.74 0.0006332103    1.050    0.047
        63  -9.9308     77.6622    116.7014   1.0061868784e+02   4.2641803812e+01    0.3840655    0.2027527 -73.07  0.001434063    2.551    0.608
        64 -10.5834     92.0370    156.7337   1.0434594812e+02   3.0799983748e+01     0.615522    0.4795235  -0.51  0.003087142    1.927    0.481
        65  -7.7547    168.5179    114.0572   7.5746407917e+01   2.5134363842e+01    0.2380051    0.1528509 -43.58 0.0004470277    1.541    0.351
        66  -8.7343    110.1251    112.1474   9.0122012821e+01   3.8172791341e+01    0.2642024     0.227264  86.83 0.0005430614    1.333    0.250
        67  -7.6149    162.3002    112.3595   7.6722396818e+01   2.6917332659e+01    0.2057947    0.1496535  57.20 0.0003849919    1.477    0.323
        68  -8.3350    113.0340    107.6545   8.8146247187e+01   3.8638241403e+01     0.211798    0.1921917  39.18 0.0003263438    1.143    0.125
        69  -7.6460    196.4461    107.4775   6.8167657623e+01   1.9928143682e+01    0.1532884    0.1459359 -46.33   5.9469e-05    1.045    0.043
        70  -7.4186    135.3341    106.2919   8.1727804663e+01   3.4295373334e+01    0.1590037    0.1256257   3.94 0.0006230955    1.636    0.389
        71  -9.7620     98.1662    152.7584   1.0209642562e+02   3.0732755966e+01    0.2860355    0.2490501  88.69 0.0007147932    1.125    0.111
        72  -8.9007    119.1807    102.3257   8.4996690177e+01   3.8600426821e+01     0.274023    0.1931751 -67.09 0.0007712232    1.765    0.434
        73  -7.6090     88.8001     97.1968   9.2551397660e+01   4.5474351919e+01    0.1964968    0.1619268 -26.19 0.0002330459    1.299    0.230
        74  -7.7313    164.1189    157.9137   8.7149738536e+01   1.7013641228e+01    0.2050027    0.1747729   5.42  0.001045703    1.319    0.242
        75  -8.2604     75.8733     88.3566   9.4298698959e+01   4.9566954716e+01    0.2183643    0.1842147 -58.73 0.0003724786    1.172    0.147
        76  -8.1314     42.0632     87.5192   1.0552163642e+02   5.4041494884e+01    0.1914962    0.1558151 -54.84 0.0004018703    1.037    0.036
        77  -9.1236    109.0118     83.4953   8.2486773170e+01   4.4747858873e+01    0.2675585    0.2112619 -43.57 -2.769611e-05    1.227    0.185
        78  -8.7396    133.4797    145.0812   9.1636724022e+01   2.6011826080e+01    0.5993063    0.1484606 -48.99  0.001663014    4.048    0.753
        79  -8.1794    156.8599     82.1746   6.9527286632e+01   3.4219214852e+01    0.2391278    0.2139181 -76.83 0.0006147854    1.236    0.191
        80 -12.3305     67.9939    144.1990   1.0848144314e+02   3.7354551577e+01     1.448231    0.8363028  67.60  0.006448234    2.218    0.549
        81  -7.7723     95.2685     77.4116   8.4815002247e+01   4.8679730623e+01    0.1888511    0.1418711  50.93 0.0004274558    1.502    0.334
        82  -8.8902    243.2916    144.8579   6.8617819244e+01   3.5220862084e+00    0.2508185    0.1666253  60.89  0.001220902    2.131    0.531
        83  -7.4938    120.3997     74.1475   7.6286678964e+01   4.4247647725e+01    0.2049651    0.1406098 -50.82 0.0002908444    1.573    0.364
        84  -7.9966    205.4206     71.6713   5.7090731405e+01   2.4089268085e+01    0.2381398    0.1730761  37.26 0.0002466579    1.618    0.382
        85  -7.9877     52.6566     68.9922   9.6943225972e+01   5.7018994213e+01    0.1855132    0.1490196 -45.20 0.0003575423    1.087    0.080
        86  -7.3297    125.6901     66.6484   7.2401151556e+01   4.4484198962e+01    0.1593128    0.1183685   7.51 0.0004935238    1.719    0.418
        87  -7.6924    119.0166     65.8049   7.3947661122e+01   4.6132848574e+01    0.1993499    0.1900035  19.77            0    1.032    0.031
        88  -7.9714    130.9333     65.3547   7.0594004827e+01   4.3513280677e+01    0.2093359    0.1871862  46.38 0.0003491318    1.116    0.104
        89  -7.2479     73.2737     63.3020   8.7635089320e+01   5.5339048413e+01    0.1395084    0.1004712 -16.62 0.0003025311    1.536    0.349
        90  -7.4130     50.3504     61.6738   9.5609374064e+01   5.8842399185e+01    0.1256169     0.104437  82.18 0.0007048519    1.758    0.431
        91 -11.8719    183.4394     46.7072   5.3708358152e+01   3.3427213727e+01    0.9400374    0.8236397  19.30  0.003033013    1.331    0.249
        92  -8.5786     77.0975    244.8134   1.1813253122e+02   1.4723906535e+01     0.112864   0.08476108  72.45 0.0002802849    1.155    0.134
        93  -9.7936     74.4218    242.3383   1.1841115648e+02   1.5520831413e+01    0.1318064    0.1001438  70.22  0.000279436    1.103    0.094
        94  -8.6960     13.9225     28.9217   1.0046512701e+02   6.8711328959e+01    0.1726258    0.1374706 -32.93 0.0004557161    1.070    0.065
        95  -7.4216    133.2491     16.3605   5.2955159061e+01   4.9942941772e+01    0.1415035   0.09744129  25.95 0.0005991546    1.608    0.378
        96 -11.1451     63.3058    236.8369   1.1998437485e+02   1.7979625551e+01    0.2140789    0.1674765 -49.14 0.0001535836    1.896    0.473
        97  -7.6212    113.0927    145.1534   9.6808753169e+01   2.9902481626e+01     0.201181    0.1673966  78.45  0.001023773    1.304    0.233
        98 -12.3572     61.7303    231.1611   1.1982505659e+02   1.9232554651e+01    0.2041402    0.1574743  72.58  0.000448967    1.064    0.060
