#   1 NUMBER                 Running object number                                     
#   2 MAG_AUTO               Kron-like elliptical aperture magnitude                    [mag]
#   3 X_IMAGE                Object position along x                                    [pixel]
#   4 Y_IMAGE                Object position along y                                    [pixel]
#   5 X_WORLD                Barycenter position along world x axis                     [deg]
#   6 Y_WORLD                Barycenter position along world y axis                     [deg]
#   7 A_WORLD                Profile RMS along major axis (world units)                 [deg]
#   8 B_WORLD                Profile RMS along minor axis (world units)                 [deg]
#   9 THETA_WORLD            Position angle (CCW/world-x)                               [deg]
#  10 FWHM_WORLD             FWHM assuming a gaussian core                              [deg]
#  11 ELONGATION             A_IMAGE/B_IMAGE                                           
#  12 ELLIPTICITY            1 - B_IMAGE/A_IMAGE                                       
         1 -13.0658     37.3559     50.3798   9.4324639751e+01   6.2618718961e+01    0.7880429    0.5384767 -31.95  0.003594856    1.259    0.206
         2 -10.8432    106.4022     18.8990   5.7526837694e+01   5.5702012232e+01    0.7732118    0.2603579  43.61  0.002884567    2.813    0.645
         3 -10.1977     15.0523     14.0939   9.0397377788e+01   7.1223582965e+01    0.1821201    0.1380454 -32.18 0.0003859223    1.200    0.166
         4 -11.5168     11.9110      2.2276   8.6178948929e+01   7.3278050486e+01    0.3983182    0.2112002  14.93  0.001098556    1.919    0.479
         5 -10.5326      7.4766      2.0374   8.8627387973e+01   7.3702519044e+01      0.19521    0.1310927 -27.96    0.0010796    1.159    0.137
         6 -12.1388     23.7261      7.7116   8.2695465954e+01   7.1304564845e+01    0.3681493    0.3209619 -46.39 0.0004420107    1.800    0.444
         7 -10.7973     17.2980      5.8837   8.5133912002e+01   7.2240313486e+01    0.2799534    0.1742863 -37.91   0.00117338    1.530    0.346
         8 -12.1244     20.4577     18.0418   8.9405244537e+01   7.0097465989e+01    0.4854279    0.3928446 -34.25  0.001618453    1.290    0.225
         9 -11.7485     26.7174      3.3328   7.8841742700e+01   7.1540602227e+01    0.4423793    0.2321098  43.61  0.001173861    2.693    0.629
        10 -11.9081     31.8171      1.9162   7.5551482956e+01   7.1073411545e+01    0.2581953    0.1755213  18.58  0.000608678    1.309    0.236
        11 -12.2125    128.9581     22.5419   5.3768705778e+01   5.0066800106e+01    0.5710226    0.3012684 -26.23  0.001371526    1.994    0.498
        12 -10.8018      6.5351      8.3302   9.2347137510e+01   7.2835721950e+01     0.274352    0.2084086  21.79 0.0005073029    1.604    0.377
        13 -11.2027     10.0665     15.7912   9.3837658089e+01   7.1366276541e+01    0.4770812    0.1916748 -33.40  0.002477565    2.101    0.524
        14 -12.1294      4.1530     18.0536   9.7994192024e+01   7.1409669442e+01    0.6518854      0.27648 -46.63  0.003662025    1.787    0.440
        15 -10.8983      5.3837     13.7576   9.5494881864e+01   7.2050382459e+01    0.2183015    0.1523421 -26.99 0.0002500784    1.056    0.053
        16 -11.6773    170.5455     18.7316   4.5377240936e+01   4.0176476835e+01    0.3465651    0.2927598 -57.09  0.002010397    1.207    0.172
        17 -10.9574    164.9816     16.7315   4.5562542234e+01   4.1784315442e+01    0.4409119    0.2404901 -36.64  0.001418083    1.872    0.466
        18 -10.9619     41.5748     19.5502   8.0006941695e+01   6.7448405762e+01    0.4986461    0.2641836  14.91  0.002473264    2.327    0.570
        19 -11.9997     40.7009     10.8293   7.6132505309e+01   6.8767048693e+01    0.5207393    0.3998339 -29.55 0.0006411553    1.378    0.274
        20 -10.7127     26.6302     14.0228   8.4398027889e+01   7.0079120129e+01    0.2649083    0.1814933 -41.39 0.0006118207    1.578    0.366
        21 -11.6348     35.6225     15.0011   8.0538265928e+01   6.8872892962e+01    0.3601586    0.2037508  13.49  0.000369328    1.942    0.485
        22 -11.7504     31.1475     12.9764   8.1666610403e+01   6.9710274755e+01    0.3958653      0.18587 -26.43 0.0003248925    1.991    0.498
        23 -10.7604    158.1510     13.3208   4.5500953369e+01   4.3841768183e+01     0.424337    0.2435319 -54.35  0.001976541    2.034    0.508
        24  -9.9929     81.4112      6.4608   5.8980374132e+01   6.2265049329e+01    0.2145087    0.1652234  -8.89 -4.670603e-05    1.272    0.214
        25 -11.4835     75.9382     15.7708   6.4930975639e+01   6.2358571624e+01    0.4555667    0.2303179  38.91   0.00224173    1.832    0.454
        26 -12.0602     75.0159      7.0209   6.1186818324e+01   6.3468131184e+01     0.786734     0.559105 -25.86  0.002656779    1.475    0.322
        27 -10.5025     62.0462     15.9779   6.9902944022e+01   6.4826809947e+01    0.3831103    0.2091977   3.48  0.001747127    2.519    0.603
        28 -11.5905    118.4306     12.2725   5.2172377432e+01   5.3628233988e+01     0.490565    0.2239154 -37.06  0.002153533    2.406    0.584
        29  -9.6211     50.2066     11.9196   7.2589206457e+01   6.7240245908e+01    0.2626178    0.1329188  -7.07  0.001052252    2.725    0.633
        30 -10.4960     99.9505     12.4353   5.6519443752e+01   5.7799795125e+01    0.2477264    0.2020856  12.73 0.0006342126    1.177    0.150
        31 -10.3130     55.1462     11.4987   7.0388943351e+01   6.6512823422e+01    0.3867653     0.149683 -27.57  0.001264749    2.493    0.599
        32 -10.7843    164.9400      6.7752   4.2538904022e+01   4.2773955677e+01    0.3737567     0.190418 -18.45  0.001520205    2.319    0.569
        33 -11.2172    145.7782      7.5699   4.5521776943e+01   4.7459733770e+01    0.3487327    0.3203886  42.49  0.002089671    1.094    0.086
        34 -11.1521    132.4394     10.8323   4.8892081765e+01   5.0425883907e+01    0.3457087    0.2663766  33.41 0.0009984188    1.299    0.230
        35 -10.8219    241.2906      9.7858   3.5773120490e+01   2.4317959484e+01    0.2034109    0.1431966 -78.87 0.0004936118    1.274    0.215
        36 -10.2643    226.5718     10.6942   3.7142920501e+01   2.7494619931e+01    0.2340254    0.1235614 -25.06  0.001153826    2.145    0.534
        37  -9.9747     67.1932      7.7860   6.4128979521e+01   6.4855432164e+01    0.1690624    0.1189495  15.99 0.0002744655    1.290    0.225
        38 -10.8211     92.2241      6.0720   5.5810570889e+01   6.0066708154e+01    0.4088948    0.2086631  19.39  0.001003061    2.462    0.594
        39 -10.9662    245.0039      5.4546   3.4564698946e+01   2.3989029481e+01    0.2230153    0.1177339 -53.69 0.0006990711    1.612    0.380
        40 -10.1265    175.2841      5.9269   4.1006051716e+01   4.0281477986e+01    0.1767207    0.1659014  88.77 0.0004086789    1.062    0.059
        41 -11.1366    236.6983      9.8639   3.6139266000e+01   2.5315564968e+01     0.205996    0.1553069  69.31 0.0005880993    1.383    0.277
        42 -11.3359    236.5595      1.8591   3.4373827615e+01   2.6201345840e+01    0.3129117    0.1722239 -50.60  0.001362221    1.560    0.359
        43 -10.4163    240.9916      2.3289   3.4168001492e+01   2.5185945916e+01    0.2169476      0.13825 -81.35 0.0003973465    1.425    0.298
        44 -10.8271    112.9529      2.6331   4.9597874047e+01   5.5752476356e+01    0.3195809    0.2313179 -71.01  0.001124844    1.889    0.471
        45  -9.5144    159.8170      1.0000   4.1442979627e+01   4.4554699631e+01    0.2209388   0.06761093  70.03 0.0007281145    2.903    0.656
        46  -8.8662    188.3122    209.3244   9.0028977504e+01   2.7944809076e+00    0.1358057    0.0958418   4.73  0.000704035    1.659    0.397
        47 -10.6872    250.0211    246.7035   8.5110704553e+01  -1.1546419574e+01    0.2121525    0.1389773 -10.35  0.001297657    1.365    0.267
        48 -10.2656     72.7045    249.9196   1.1774779545e+02   1.3917854288e+01    0.2662681     0.163377 -65.71   0.00172116    1.833    0.454
        49 -11.9044     74.9844    240.2503   1.1652664972e+02   1.5334683274e+01    0.5558044    0.4432297 -24.05  0.003534554    2.266    0.559
        50 -13.3920      5.9262    244.7854   1.2870724825e+02   2.2531634753e+01    0.9886906    0.6671755  34.39  0.005328477    1.858    0.462
        51 -10.9214     17.4819    247.4827   1.2697989522e+02   2.0887057236e+01    0.1965934    0.1227832 -88.24 0.0005315124    1.389    0.280
        52 -11.0505     19.1088    202.8445   1.2416323438e+02   2.9375146706e+01    0.3717201    0.2057395 -77.55  0.002281602    1.542    0.351
        53 -10.3733    175.4058    202.6863   9.1456070530e+01   6.1595287497e+00    0.2349898    0.1919619  41.25  0.000536371    1.172    0.147
        54  -9.3642    243.3094    202.3047   7.8510257376e+01  -5.0796412170e+00    0.1296557   0.08335127   2.59 0.0002418596    1.610    0.379
        55  -9.4181    223.5946    201.7692   8.1925576456e+01  -1.9170608530e+00     0.167392    0.1169563 -42.77 0.0006872576    1.681    0.405
        56  -9.5329      9.7733    202.4156   1.2591109753e+02   3.0357997117e+01    0.1277419    0.1073563  31.67 0.0009195826    1.622    0.383
        57  -9.5892     34.3753    201.3668   1.2106262120e+02   2.8094759951e+01    0.1504295    0.1254017 -56.20  0.000552861    1.545    0.353
        58  -9.3283    238.6569    200.7155   7.9022447010e+01  -4.1455656252e+00    0.1320212   0.08495557   5.86 0.0007016897    1.640    0.390
        59 -10.0105    215.4271    194.7522   8.2112521175e+01   5.1355331820e-01    0.1791334    0.1169499 -21.51  0.000303953    1.571    0.363
        60 -10.1366     16.1853    192.6052   1.2403786276e+02   3.1831158898e+01    0.2180281    0.1185371  17.29  0.001134774    3.141    0.682
        61  -9.7486    186.6806    190.6740   8.6961036423e+01   6.2557910230e+00    0.1436373    0.1031782   2.85 0.0007046417    1.680    0.405
        62  -9.4812    211.5000    188.4495   8.1634584347e+01   2.2037671971e+00    0.2418727    0.1201999 -26.80  0.001029487    2.313    0.568
        63  -9.3362      1.6170    188.2037   1.2662848421e+02   3.4070477753e+01    0.1542914   0.08163867 -72.97 0.0005266808    1.593    0.372
        64  -9.4617     61.6237    184.8211   1.1367981353e+02   2.8472185696e+01    0.1881897    0.1094573 -83.45 0.0009471044    1.735    0.424
        65  -9.9740    167.3067    183.6700   8.9670615217e+01   1.1132553966e+01    0.1394975    0.1137606  81.15 0.0005096885    1.659    0.397
        66 -11.1592     15.9790    182.8020   1.2337266116e+02   3.3986601494e+01    0.4317531    0.1918621  83.66  0.002133946    2.213    0.548
        67 -10.0818    244.4025    178.2771   7.3627434792e+01  -1.7533491613e+00    0.2465663    0.1122612 -29.63  0.001107121    2.079    0.519
        68 -10.0784    224.0969    178.6115   7.7301743651e+01   1.6115917871e+00    0.2218448    0.1740451 -37.50 0.0005391143    1.332    0.249
        69 -10.2810     46.6028    177.6249   1.1625355372e+02   3.1966359155e+01    0.2537682    0.1936644  73.79  0.001506216    1.160    0.138
        70  -9.3490     69.7433    177.7055   1.1095400356e+02   2.9010810965e+01    0.1211543   0.09909414 -44.53 0.0002658319    1.495    0.331
        71  -9.8906    200.7611    176.2449   8.1276676898e+01   6.2220658178e+00    0.2009035     0.156736   2.92 0.0009114825    1.357    0.263
        72 -11.0074     17.9837    173.2852   1.2219740329e+02   3.5929527697e+01     0.325843    0.1965361  65.38  0.001733428    1.520    0.342
        73 -11.3840     36.8870    157.8397   1.1632190426e+02   3.7670156575e+01    0.2960466    0.1821762 -81.26 0.0003830537    1.426    0.299
        74 -11.9478     35.9435    164.5691   1.1730031369e+02   3.6180281516e+01     0.608128    0.3646177 -88.70  0.003307214    1.540    0.351
        75  -9.5193     67.1964    165.1640   1.0986443837e+02   3.2290710166e+01    0.1951681     0.143316  72.19 0.0009059155    1.361    0.265
        76 -11.7682     50.7236    162.5971   1.1353505442e+02   3.4992987098e+01      0.61601    0.4294056  78.52  0.003452647    1.403    0.287
        77 -11.3998     44.6730    162.5003   1.1498647649e+02   3.5717174851e+01    0.3607052    0.1850786 -67.06  0.001746788    1.682    0.406
        78  -9.0973    200.3569    162.7100   7.8506791355e+01   8.7409459891e+00      0.13879    0.1178525  88.39 0.0007027024    1.684    0.406
        79 -10.6902     18.7397    158.6660   1.2073455234e+02   3.9219700042e+01    0.2178628    0.1500227 -82.89 0.0002568892    1.160    0.138
        80 -11.9092     21.5084    156.5141   1.1987462976e+02   3.9476699966e+01    0.4749381    0.3644204  62.32  0.002024249    1.281    0.219
        81  -9.0548    147.6674    156.3176   8.8563874587e+01   2.0568787426e+01    0.1541992     0.120209  82.54 0.0007047807    1.691    0.409
        82 -10.2804     11.9206    153.4180   1.2184669596e+02   4.1015081371e+01    0.2290694    0.1784087  15.33  0.001372068    1.791    0.442
        83 -10.2594    177.9014    151.3232   8.0646673282e+01   1.5445088247e+01    0.2974799    0.2655187  87.11  0.001030901    1.370    0.270
        84 -10.4811     18.4059    146.5534   1.1961084469e+02   4.2094470049e+01    0.2557945     0.169279 -52.80 0.0009010488    1.566    0.362
        85 -10.2172    207.1556    146.2051   7.3497714930e+01   1.0435579820e+01    0.2213361    0.1935826   0.03 0.0007702179    1.142    0.124
        86  -9.7521     41.7784    146.3199   1.1366133743e+02   3.9916766669e+01    0.1905602    0.1426805  59.83 0.0006596257    1.371    0.271
        87 -10.1228     12.5552    146.6882   1.2106153470e+02   4.2538627410e+01    0.1821081    0.1124467  27.94 0.0008394946    1.992    0.498
        88  -9.9232    220.2796    143.9872   7.0531375438e+01   8.2249674620e+00    0.2067363    0.1730992 -28.40  0.000637577    1.093    0.085
        89 -10.5505     22.6271    144.1536   1.1829517779e+02   4.2303060113e+01    0.1962747    0.1525954  60.07 0.0006296256    1.327    0.246
        90 -10.5027      2.8630    143.6431   1.2313120745e+02   4.3966091536e+01    0.2144114    0.1271526 -69.20  0.001231371    1.348    0.258
        91 -10.5810     49.2165    141.9748   1.1109624554e+02   4.0146287268e+01    0.1990915    0.1978893 -62.09   0.00130243    1.227    0.185
        92 -10.0623     19.7977    139.8501   1.1853094597e+02   4.3572196521e+01    0.1738747    0.1215386  85.30 0.0004621968    1.297    0.229
        93 -10.4622      9.1222    137.3467   1.2098658683e+02   4.4998506711e+01    0.3171503     0.123507 -69.88 0.0009804673    1.940    0.484
        94 -10.6288      2.7882    136.3070   1.2248186311e+02   4.5682307717e+01    0.2599324    0.1200669 -68.58  0.001389404    1.645    0.392
        95 -10.3869     21.4731    135.9116   1.1763779424e+02   4.4374712987e+01    0.2370244    0.1810601  68.88  0.001489817    1.323    0.244
        96  -9.3336    122.7092    135.3376   9.0082187190e+01   3.0253495369e+01    0.1562613    0.1209546  89.50 0.0003489699    1.641    0.391
        97 -10.2144    249.5322    134.0134   6.3338636418e+01   4.3789366770e+00    0.1971984    0.1815258  21.09 0.0005098844    1.200    0.167
        98  -8.9039     49.2966    134.6221   1.0994677784e+02   4.1937045852e+01    0.1432525   0.09410088  78.50 0.0007023785    1.752    0.429
        99 -10.3186    107.3025    133.1711   9.3660526426e+01   3.3667473488e+01    0.2530113    0.2135084  23.25  0.001287269    1.356    0.263
       100 -10.0290     79.8229    133.1723   1.0119991424e+02   3.8246216480e+01    0.1909495    0.1653648 -34.80 0.0004375555    1.287    0.223
       101 -10.2536     56.0091    132.7495   1.0777638072e+02   4.1602857112e+01     0.406978    0.2032962  27.15  0.001803586    2.454    0.593
       102 -10.9931     37.5388    130.5020   1.1256810504e+02   4.4207624650e+01    0.2529136    0.2406083  61.71 0.0005802943    1.215    0.177
       103 -11.3950     38.3589    127.0497   1.1181541279e+02   4.4968284190e+01    0.2492124    0.2017476 -62.45 0.0003717936    1.100    0.091
       104 -11.0869     73.5840    129.2943   1.0218890774e+02   4.0116096052e+01    0.3837909    0.2548625  56.08   0.00185339    1.723    0.420
       105  -9.3324     28.6497    129.2999   1.1485634684e+02   4.5345754841e+01    0.1326398   0.08639143  70.95 0.0007037455    1.691    0.409
       106 -10.8777     13.4112    126.1774   1.1863005377e+02   4.7338885259e+01    0.3205414    0.2111082  28.53 0.0005818028    1.862    0.463
       107 -11.2658     10.5614    122.8328   1.1901072885e+02   4.8338764009e+01    0.2555545     0.212911  61.25  0.001029208    1.329    0.248
       108 -11.1459      2.4464    123.8853   1.2133147181e+02   4.8620102604e+01     0.444479    0.1332487 -64.50  0.001451271    2.324    0.570
       109  -9.8786    219.8379    124.2063   6.5997299739e+01   1.1843462852e+01    0.2022739     0.166304  -6.96 0.0005549701    1.306    0.234
       110 -10.9095     22.2065    121.2608   1.1554965144e+02   4.7841487592e+01    0.3145413    0.1867671  35.96   0.00115597    1.944    0.485
       111  -9.2802     33.4618    121.4814   1.1235262869e+02   4.6803124244e+01    0.1328925    0.1091227 -69.44 0.0003391943    1.012    0.012
       112 -11.6070     17.9867    114.7273   1.1585160305e+02   4.9741604872e+01    0.3819146    0.3028868 -43.38  0.002278678    1.347    0.257
       113 -10.4483     13.1685    104.0097   1.1574059213e+02   5.2638479828e+01    0.2609728    0.1914245   8.77  0.001637589    1.786    0.440
       114  -9.7273     11.7169    112.3636   1.1735930860e+02   5.0751953930e+01     0.199689    0.1459851 -89.10 0.0006292872    1.275    0.216
       115 -12.2608     15.1454    108.9338   1.1586416190e+02   5.1332681521e+01    0.5392016    0.3926918 -33.33  0.003343715    1.583    0.368
       116  -9.9679    219.8528    116.8377   6.4222436292e+01   1.3155944758e+01    0.2530547    0.2064282  56.51  0.001315084    1.382    0.276
       117  -9.2072     86.2667    116.6529   9.5815325909e+01   4.1258152229e+01    0.1481395     0.113046 -88.79 0.0005239052    1.613    0.380
       118  -9.8355     35.1849    114.2196   1.1066385866e+02   4.8406082850e+01    0.1811742     0.140518  88.42 0.0008416405    1.323    0.244
       119 -10.8337    249.1078    112.4304   5.8529063486e+01   7.9871094397e+00    0.2703389    0.1748791 -40.66 0.0005745019    1.352    0.260
       120  -9.4759     94.6906    112.3348   9.2312735493e+01   4.0876194585e+01    0.1526385    0.1177318  87.39 0.0007042954    1.676    0.404
       121 -12.9800     55.2881    110.3823   1.0379083894e+02   4.7170366553e+01    0.3134765    0.2696729 -57.60 0.0005023492    1.024    0.023
       122 -11.5173     36.3710    109.3359   1.0944798536e+02   4.9476450585e+01    0.4018205    0.2588205  78.59  0.001358789    1.984    0.496
       123 -10.5486     25.5077    108.5345   1.1265622708e+02   5.0638047210e+01    0.2689372    0.1411074  88.76  0.001189079    2.514    0.602
       124 -11.9437      2.9236    106.3035   1.1915482323e+02   5.2728204077e+01    0.3346474    0.2729208 -70.81  0.000876885    1.068    0.064
       125  -9.3204    103.7375    108.0121   8.8584032890e+01   4.0260639514e+01    0.1918865    0.1269509 -49.54 0.0002663814    1.428    0.300
       126  -9.7754     69.8632    107.0934   9.8542546094e+01   4.6050430192e+01    0.2137124     0.180483 -86.96 0.0004588317    1.316    0.240
       127  -9.7652     62.5733    106.2555   1.0062728480e+02   4.7247656639e+01    0.2035846    0.1143843 -48.11 0.0005084512    1.603    0.376
       128 -10.7829    243.8153    104.6515   5.7503293722e+01   1.0301884533e+01       0.2598    0.1868137 -21.60  0.000663916    1.428    0.300
       129 -10.7731    247.1695    102.1644   5.6442780773e+01   1.0040108595e+01    0.2462478    0.2015671  57.45 0.0009300122    1.419    0.295
       130  -9.5021    223.3702    103.8036   6.0450630297e+01   1.4697774123e+01     0.201075     0.130149 -27.56 0.0003958116    1.547    0.354
       131 -10.2129     93.1949    104.1063   9.0660779736e+01   4.3068697758e+01    0.2230916    0.1892444 -29.55 0.0003669816    1.219    0.180
       132 -10.7241     36.3915    102.4548   1.0815814381e+02   5.1131981269e+01    0.3246596    0.2554897   8.11  0.001902222    1.586    0.369
       133 -11.2835    157.0993     82.5508   6.7367276004e+01   3.4043473125e+01    0.6221727    0.4071184  24.96  0.002320598    2.116    0.527
       134 -12.1030    158.7193     89.2293   6.8959862473e+01   3.2382381077e+01    0.5819234    0.3771689 -24.69  0.002429333    1.791    0.441
       135 -12.7193    165.2717     85.1178   6.6326606988e+01   3.1594769462e+01     1.908123    0.8404741 -29.90  0.006439532    2.691    0.628
       136 -10.4852      1.6037     91.3440   1.1750833044e+02   5.6284952572e+01    0.3779428     0.146288 -78.28   0.00136997    2.480    0.597
       137 -11.4357      3.0332    100.0033   1.1828908567e+02   5.4197413103e+01    0.2785548    0.2089304  57.57 0.0003253372    1.574    0.365
       138 -10.7391      1.6354     96.3188   1.1821394396e+02   5.5130665378e+01    0.2623023     0.162627 -87.78  0.001537529    1.558    0.358
       139 -11.1306    143.7074     97.4311   7.4874437497e+01   3.4239900606e+01    0.4981934    0.2563223  53.72  0.001872963    2.140    0.533
       140 -10.9248     62.1170     98.8108   9.9040831445e+01   4.9084808856e+01     0.320748    0.2922662  13.17 0.0009938438    1.244    0.196
       141 -10.4038     66.8764     97.1716   9.7096556090e+01   4.8826386891e+01    0.3828036    0.1548888 -47.21 0.0008225024    2.209    0.547
       142 -11.2413     20.7104     96.4841   1.1212599696e+02   5.3886678724e+01    0.5297147    0.1405836 -70.78  0.001717136    4.084    0.755
       143 -10.8272     16.5235     98.1884   1.1377118089e+02   5.3786432193e+01    0.2678272    0.1855308 -65.50  0.001624797    1.139    0.122
       144  -9.0860     10.2576     99.3691   1.1594843568e+02   5.3922533908e+01    0.1320919   0.06904864 -50.16 0.0004785027    1.642    0.391
       145 -10.6426     40.4018     97.4212   1.0583968948e+02   5.1940270577e+01    0.2809409    0.2138526  68.12  0.001047658    1.633    0.388
       146 -10.2759     57.5269     96.4972   9.9984398811e+01   5.0222423149e+01    0.1407745    0.1221747 -51.47 0.0008100726    1.002    0.002
       147  -9.1393     27.9844     95.9873   1.0964874666e+02   5.3427521192e+01    0.1502625    0.1197019 -60.42 0.0009233601    1.019    0.019
       148  -9.4094     77.4054     95.1857   9.3192009839e+01   4.7740724353e+01    0.2048327    0.1320349 -61.58 0.0006423384    1.625    0.385
       149 -10.0468     31.5065     93.0320   1.0789207122e+02   5.3821588390e+01    0.1999996    0.1095596 -62.97 0.0004720035    1.519    0.342
       150 -11.6144     10.9180     90.9115   1.1438618893e+02   5.5860621681e+01    0.3515026    0.2568736  51.19  0.001074281    1.692    0.409
       151  -9.7853    104.0448     91.9803   8.4062261594e+01   4.3823158380e+01    0.2279409    0.1784292  -9.99  0.001081521    1.549    0.354
       152  -9.6680     47.2001     92.0055   1.0236677746e+02   5.2499896036e+01    0.2008736    0.1426242 -24.55 0.0005164227    1.620    0.383
       153 -10.4012     25.5298     91.0854   1.0951799197e+02   5.4783748507e+01    0.2340442    0.2134312 -45.36 0.0009704233    1.151    0.131
       154 -11.1466     23.1350     86.6398   1.0945189756e+02   5.6008827509e+01    0.3191441    0.1973038 -42.18 0.0008608301    1.486    0.327
       155  -9.4612     91.4659    100.5045   9.0229243477e+01   4.4203683831e+01     0.150531    0.1382663 -40.35 5.290136e-05    1.027    0.026
       156  -9.8790    250.0039     95.7124   5.4557010246e+01   1.0517365740e+01    0.1846694    0.1709367 -49.74 0.0006654884    1.097    0.089
       157  -9.5735    119.4896    101.9656   8.2498132313e+01   3.8538789824e+01    0.2467246    0.1486455 -43.08  0.001030352    1.599    0.374
       158 -10.5738     97.5409     88.6344   8.5035528950e+01   4.5784980586e+01    0.4814075    0.2192734 -32.11  0.001603608    3.049    0.672
       159 -10.3867     84.1957     89.6583   8.9499262084e+01   4.7908085001e+01    0.3764518    0.2521297  68.41  0.001597621    2.424    0.587
       160  -9.0966     57.3199     89.6619   9.8366593407e+01   5.1846042862e+01    0.1370794    0.1066684  84.18 0.0004153581    1.710    0.415
       161 -11.1111     67.1197     84.8724   9.3764925841e+01   5.1623633236e+01    0.4901624    0.2656239 -29.11  0.001791778    2.421    0.587
       162  -9.9197    111.7349     85.8417   7.9984514913e+01   4.3614695817e+01    0.2966399    0.2125037  76.01  0.001258137    2.148    0.535
       163 -11.0859      4.5461     84.9576   1.1553103890e+02   5.7601959335e+01    0.3207549    0.1842713 -47.85  0.001110566    1.477    0.323
       164 -10.4897    132.9291     83.1674   7.3375441781e+01   3.9584252252e+01    0.2615085    0.2358349 -66.50 0.0005839962    1.218    0.179
       165 -11.4303     43.1877     82.7735   1.0152760629e+02   5.5072441765e+01    0.3915591     0.226463  41.68  0.001960375    2.105    0.525
       166  -9.8137     79.1566    101.3884   9.4254609389e+01   4.6023532641e+01    0.2001461    0.1339505  49.27 0.0009398392    1.730    0.422
       167  -9.8018    117.8642     82.6925   7.7277348941e+01   4.2989119103e+01    0.2809636    0.1997211 -30.15 0.0008618434    1.454    0.312
       168 -10.3409     86.1554     81.8236   8.6567276675e+01   4.9300825499e+01    0.3739598    0.3184671  72.36 0.0009171636    1.509    0.337
       169 -11.5807    162.4635     92.1724   6.8968189340e+01   3.0921171335e+01    0.5345839    0.2777794 -33.73 0.0003969973    1.995    0.499
       170 -10.9134     31.3657     81.0322   1.0533075879e+02   5.6620516923e+01    0.4575876    0.2111738 -37.62  0.001903497    2.263    0.558
       171 -11.2555     36.7505     67.8677   9.9967994066e+01   5.9053540184e+01    0.5865047    0.3944758 -75.99  0.003067615    1.979    0.495
       172 -10.4531     31.1627     67.7509   1.0208996317e+02   5.9607015586e+01    0.3474513    0.2128607 -36.16  0.001910767    1.496    0.332
       173 -11.6960     11.2703     62.4040   1.0855414847e+02   6.2269126948e+01    0.2972536    0.2155825 -22.44 0.0002670336    1.433    0.302
       174 -12.0998      3.4669     64.7124   1.1214191144e+02   6.2198926131e+01    0.6061279    0.3683214 -73.32  0.002744463    1.558    0.358
       175 -12.2780      5.2025     58.9421   1.1018015642e+02   6.3359682692e+01    0.2635432    0.2315293 -70.02 0.0003684956    1.253    0.202
       176 -12.5806     16.3951     67.9184   1.0784585137e+02   6.0734668120e+01    0.3147909     0.232398 -37.21 0.0003979108    1.222    0.182
       177 -11.8095     21.9592     66.6716   1.0538373459e+02   6.0607735918e+01    0.9867921    0.5461544  83.50  0.003548851    5.087    0.803
       178 -11.7576     12.7911     78.1992   1.1141347096e+02   5.8668485462e+01    0.6344374    0.2084668 -60.39  0.002262016    2.166    0.538
       179 -12.3572      8.2201     73.9374   1.1222994262e+02   5.9902723940e+01    0.7938437     0.441398 -25.67  0.004406204    2.063    0.515
       180  -9.2407    146.3237     81.6337   6.9583296333e+01   3.6783824239e+01    0.1647231     0.122647 -72.96 0.0007037896    1.796    0.443
       181 -10.7295     21.6636     81.0550   1.0881509429e+02   5.7407559095e+01    0.3501512    0.1870796 -30.62  0.001460612    2.137    0.532
       182 -10.5758     18.5033     79.5211   1.0962614344e+02   5.7987443570e+01    0.2582156    0.1563237 -41.01  0.000810042    1.500    0.333
       183 -10.7433     21.4978     76.9655   1.0798899273e+02   5.8350709760e+01    0.2490208    0.1733505  31.85 0.0006268949    1.754    0.430
       184  -9.8260    112.0266     79.3537   7.7888424327e+01   4.4892906130e+01    0.2041284    0.2002863 -18.30 0.0004839015    1.051    0.048
       185 -11.4312     46.2231     57.1104   9.2980182960e+01   6.0283612112e+01    0.3951666    0.2406174  32.89 0.0009962049    1.858    0.462
       186 -11.9151     50.1268     68.7069   9.5133499764e+01   5.7407363764e+01     0.417017    0.3234652  -9.10  0.001229112    1.395    0.283
       187 -10.8153     54.0271     74.0593   9.5276617682e+01   5.5772467355e+01    0.2807613    0.2256992 -70.09 0.0005559922    1.455    0.313
       188 -11.5990     58.6850     75.0141   9.3876578874e+01   5.4965701990e+01    0.5541661    0.4118305 -73.62  0.001622768    1.747    0.428
       189 -11.6568     61.8769     71.4969   9.1672738524e+01   5.5292053836e+01    0.5063556    0.3752641  84.42  0.002048705    2.318    0.569
       190 -12.2312     44.9511     75.2525   9.8928131753e+01   5.6576245613e+01    0.2947996    0.2373254  38.53 0.0004148236    1.485    0.327
       191  -9.5023    122.0164     76.2182   7.4094046182e+01   4.3382834074e+01     0.204679    0.1248266  46.70 0.0008702222    1.677    0.404
       192 -11.2517     90.4031     75.1934   8.3133705898e+01   4.9950899880e+01    0.4957521    0.3147413  57.91  0.001810486    2.181    0.541
       193 -10.3618     94.0670     73.8927   8.1550721216e+01   4.9544057782e+01     0.267498    0.2019648 -58.92   0.00131126    1.542    0.352
       194 -10.0404    137.9191     74.5404   6.9432812526e+01   4.0095904990e+01    0.2823913    0.2098923 -54.10 0.0008116701    1.483    0.326
       195 -10.1578    145.5224     73.9131   6.7402897900e+01   3.8417538153e+01    0.3284518    0.1977469 -32.24   0.00137629    1.705    0.414
       196 -12.1048    150.2414     71.9260   6.5695291230e+01   3.7644664574e+01    0.3536224    0.2742168 -43.11 0.0002573329    1.287    0.223
       197  -9.8151    128.8465     71.7869   7.0853816049e+01   4.2700211212e+01    0.2225107    0.1975452  15.36 0.0002911229    1.184    0.155
       198 -10.9047     77.8744     71.5108   8.6081354612e+01   5.2871561822e+01    0.2786575    0.2376473 -51.49  0.001551157    1.220    0.180
       199 -11.5503    167.5978     69.9515   6.1382749047e+01   3.3746340427e+01     0.262048    0.2269478  56.12 0.0003329881    1.166    0.142
       200 -10.9919    102.5187     73.0366   7.8662215076e+01   4.8088939899e+01    0.2766717    0.2221436  49.39 0.0006721764    1.358    0.264
       201  -9.2162    123.2168     68.0369   7.1112811494e+01   4.4663397258e+01    0.1974891    0.1210096 -36.04 0.0004747239    1.610    0.379
       202 -11.4306     94.1384     66.3729   7.9030309224e+01   5.1020908672e+01    0.3934601    0.2758479 -28.15     0.000395    1.429    0.300
       203 -11.0433     51.2235     63.2435   9.3029432947e+01   5.8424196414e+01    0.3306507     0.253674 -37.84  0.001156947    1.111    0.100
       204 -10.7081     68.6626     63.4103   8.6624400422e+01   5.5977580409e+01    0.5401083    0.1730794 -41.95  0.001409876    2.871    0.652
       205 -10.5043     77.1186     64.1451   8.3898639001e+01   5.4485638020e+01    0.3429296    0.2580224 -38.14  0.001745037    1.218    0.179
       206 -11.0194    152.9940     63.7304   6.2528696372e+01   3.8395513920e+01    0.3051911    0.2413523  36.27 0.0002254674    1.341    0.254
       207 -11.4209    155.8833     60.1913   6.0804030693e+01   3.8269580045e+01    0.2805759    0.2526753 -35.40 0.0003826645    1.114    0.102
       208  -9.3078    109.6716     63.3252   7.3286982061e+01   4.8472856647e+01     0.147382    0.1197108 -77.09 0.0007050038    1.699    0.411
       209 -10.9207     83.4987     61.5547   8.0833762091e+01   5.3896569443e+01    0.3955736      0.31631  50.18  0.002128525    1.472    0.321
       210 -10.3450     86.4214     58.6539   7.8837022823e+01   5.3917563279e+01    0.3586441    0.2838359 -71.27  0.001812478    1.848    0.459
       211  -9.6402    201.2675     61.7447   5.3100940643e+01   2.6798877277e+01    0.1864394    0.1684605  23.93 0.0003871392    1.291    0.225
       212 -10.1379    217.1666     61.2321   5.0654303583e+01   2.3093190823e+01    0.3664281    0.1666211  52.35  0.001289853    2.352    0.575
       213 -10.8653     32.7455     44.1111   9.4107642508e+01   6.4311833653e+01     0.438111     0.226512   0.53  0.001770173    2.935    0.659
       214 -11.1637     26.8976     50.7341   9.8853938487e+01   6.3562694005e+01    0.4615633    0.2854165 -65.49  0.001615198    1.932    0.482
       215 -10.9135     29.9664     60.8808   1.0065066578e+02   6.1191131037e+01    0.5613798    0.2387111  13.99  0.002417561    3.299    0.697
       216 -12.3460    233.4580    245.9406   8.7799141814e+01  -9.2589681426e+00     0.591007    0.3302014 -34.42   0.00360294    1.995    0.499
       217 -11.2989     63.8266     59.9803   8.7215978412e+01   5.7382610885e+01     0.223239    0.1942698   7.98 0.0005795914    1.173    0.147
       218  -9.0751     98.6572     59.7002   7.5306131876e+01   5.1391468517e+01    0.1510572    0.1098955   6.11 0.0007036554    1.673    0.402
       219 -10.9381    147.0952     56.7648   6.1595449318e+01   4.0981946143e+01    0.2560951    0.2304141 -32.20  0.000257937    1.120    0.107
       220  -9.4260    105.2605     57.6551   7.2595185595e+01   5.0411295015e+01    0.1415076    0.1144692 -64.20 0.0001843506    1.597    0.374
       221 -11.8973     75.3589     56.1374   8.1704766063e+01   5.6316685719e+01    0.2399828    0.2128902 -22.22 0.0002743326    1.037    0.036
       222 -11.1082     71.0443     50.8024   8.1284214997e+01   5.8006558529e+01    0.5169944    0.3737715  72.31  0.002395251    2.713    0.631
       223 -12.1619    129.7809     49.5658   6.3173980743e+01   4.6275508876e+01    0.5529805    0.3810299  -3.10  0.000420607    1.873    0.466
       224 -10.1428     98.9847     55.8639   7.3837804586e+01   5.2009787341e+01    0.3195735    0.1847976  37.23 0.0009788633    1.794    0.442
       225  -9.2524    183.5322     60.4507   5.5626197415e+01   3.1353938333e+01     0.147111    0.1415562 -70.32  0.000140794    1.003    0.003
       226  -9.1120    213.4888     54.4786   4.9413833211e+01   2.4965653229e+01    0.1410263    0.1302323 -61.08 2.199092e-05    1.020    0.019
       227  -9.7895    119.8636     52.9219   6.6848855699e+01   4.8034689556e+01    0.2235309    0.1851098  15.00 0.0002864363    1.280    0.219
       228  -9.3177    108.6508     53.1268   6.9995499242e+01   5.0470099701e+01    0.2070777    0.1313066 -21.56 0.0005498035    1.746    0.427
       229 -10.5475     87.3708     52.4528   7.6270616372e+01   5.4859818913e+01    0.2479704    0.2032371 -26.20 0.0007964815    1.142    0.124
       230  -9.4420     62.0131     53.0057   8.5433360824e+01   5.8995805502e+01    0.1653361    0.1399454 -24.38 0.0004325054    1.023    0.022
       231 -11.5075      5.7193     51.8856   1.0824673308e+02   6.4825920640e+01    0.3378033    0.2093834 -36.75   0.00211992    1.371    0.271
       232 -10.9523     12.0967     50.8106   1.0522714242e+02   6.4672051789e+01    0.3449622    0.2362317 -71.19  0.001281699    1.640    0.390
       233 -10.9928     12.1219     43.9801   1.0322425095e+02   6.6057906161e+01    0.3765813    0.2244514 -35.71  0.002290006    1.383    0.277
       234 -10.4313    103.8379     49.5758   7.0093215126e+01   5.2076044144e+01    0.5941674    0.1893329 -37.87  0.002024616    3.053    0.672
       235  -9.2870     99.5813     52.2138   7.2330136720e+01   5.2517601212e+01    0.1911783    0.1321172 -21.90 0.0002876621    1.502    0.334
       236  -9.7226     17.0764     51.6871   1.0333895132e+02   6.4152873861e+01    0.1594518    0.1321909 -28.20 0.0003433543    1.137    0.120
       237 -11.2103     78.1656     47.4079   7.7475084896e+01   5.7400548670e+01    0.3951139    0.2261423 -30.97 0.0003211173    1.689    0.408
       238 -10.0981     53.3418     50.1539   8.7744169647e+01   6.0748414072e+01    0.2159359    0.1672621   6.52 0.0006358478    1.330    0.248
       239 -10.2826    149.1068     42.1817   5.6412920209e+01   4.2671395864e+01    0.3753715    0.2126488 -43.30  0.001429788    1.861    0.463
       240 -11.2483    151.8202     47.5527   5.7616505455e+01   4.1230614875e+01    0.4134478    0.3045955   7.81  0.001053281    1.743    0.426
       241 -10.5585    156.0278     46.4953   5.6441389376e+01   4.0337422703e+01     0.385433    0.2202771 -30.25  0.001076956    1.805    0.446
       242  -9.5458    166.9313     48.5356   5.5028948506e+01   3.7310883122e+01    0.2156167    0.1407776  59.50  0.000391283    1.493    0.330
       243 -11.4835    112.5683     46.2826   6.6419329250e+01   5.0716918938e+01    0.5042036    0.3337687  38.55  0.002388626    1.502    0.334
       244  -9.3895    194.3441     47.2977   5.0184583661e+01   3.0638939374e+01    0.1451496    0.1088531  31.46 0.0004694665    1.671    0.402
       245  -9.9571    119.9687     47.0414   6.4734936558e+01   4.8938668649e+01    0.2177962    0.1978335  18.75 0.0005279368    1.067    0.063
       246 -10.5368    143.0439     45.8052   5.8870938564e+01   4.3649391523e+01    0.3032516    0.2376802 -89.24 0.0009530495    1.567    0.362
       247 -10.4181    130.1381     55.0985   6.4985513664e+01   4.5315531289e+01    0.3000239    0.2475313   7.97 0.0007630048    1.343    0.255
       248 -10.8582     58.2679     42.4489   8.2886330308e+01   6.1459979314e+01    0.3514527     0.266693  79.62 0.0009518372    2.899    0.655
       249 -10.2791     51.1089     44.9755   8.6712324830e+01   6.2006426693e+01    0.2254988    0.1608783 -28.31 0.0003782637    1.222    0.181
       250 -11.4367     51.5864     40.3425   8.4722382652e+01   6.2769722364e+01    0.3873822    0.2873688   9.56 0.0008194586    1.364    0.267
       251 -10.9214    221.9460     43.2191   4.5481572996e+01   2.4572652244e+01    0.2547436    0.2048158 -53.51 0.0009974365    1.123    0.110
       252  -9.6137    174.9592     44.3064   5.2355617803e+01   3.5896861134e+01     0.201526    0.1835083  73.10 0.0005764443    1.068    0.064
       253  -9.8131    244.4666     42.9526   4.2972606221e+01   1.9551712838e+01    0.1954023    0.1158211 -36.24 0.0004582043    1.526    0.345
       254 -11.3596     23.9582     42.1939   9.7315909122e+01   6.5504712597e+01    0.6175945    0.4227224  81.69  0.002244866    3.811    0.738
       255 -12.4264     27.6912     38.0243   9.4140361165e+01   6.5953344722e+01    0.5207717    0.2946118 -35.10 0.0003677885    1.467    0.318
       256 -11.3559     24.6405     35.2910   9.4517689037e+01   6.6742263837e+01    0.2467369    0.1878163  -2.12 0.0007730252    1.301    0.231
       257 -10.4559      7.0053     41.5977   1.0482826634e+02   6.6852107234e+01    0.2811773    0.1040349 -49.17 0.0006939603    1.892    0.472
       258  -9.3677    163.1603     42.2001   5.3752326952e+01   3.9156824676e+01    0.1937196    0.1633375 -65.17 0.0004046822    1.263    0.208
       259  -9.8802    109.9727     41.3747   6.5309254859e+01   5.2028630411e+01    0.3417395    0.2217793  77.83  0.001255033    2.630    0.620
       260 -11.3297     65.1819     41.8364   7.9989464227e+01   6.0514097951e+01    0.4349493     0.227468  45.06  0.001917617    2.241    0.554
       261 -12.0461     69.5321     38.1987   7.6907450758e+01   6.0406822892e+01    0.4973883    0.3122166 -29.47  0.001439575    1.485    0.326
       262  -9.3906    138.6318     41.2936   5.8298835599e+01   4.5369244693e+01    0.1490534    0.1126369 -74.92 0.0006570986    1.720    0.419
       263 -11.5508     99.0784     38.0289   6.7111189406e+01   5.4853905571e+01    0.7017413    0.5153142  36.35  0.001870509    1.308    0.236
       264  -9.9365    105.5174     35.3036   6.4220855682e+01   5.3868275750e+01    0.2999659    0.2286448 -59.70 0.0009841159    1.781    0.439
       265 -12.1768    225.7472    246.0351   8.9153373230e+01  -8.2023841522e+00    0.4961931      0.28351  -8.96  0.002807471    2.069    0.517
       266 -11.7558     93.0769     24.5449   6.3438405853e+01   5.7915764305e+01    0.6162472    0.2368659  45.17 0.0006559304    2.385    0.581
       267 -10.2500     99.0061     20.5148   6.0104373774e+01   5.7142590328e+01    0.2157748    0.1688984  -0.78 -5.309005e-05    1.279    0.218
       268 -11.0295    104.0917     25.1573   6.0621151345e+01   5.5493402658e+01    0.4546336    0.2994777  85.01 0.0008656032    2.702    0.630
       269 -10.4337     98.4979     31.4833   6.4695321966e+01   5.5890069755e+01    0.2566275    0.2319967  21.08 0.0006454041    1.034    0.033
       270 -11.7577    101.2749     28.5452   6.2737362500e+01   5.5683623276e+01    0.3904546    0.2863567 -43.06  0.000937083    1.574    0.365
       271  -9.4523    102.8366     60.3895   7.4279303645e+01   5.0424482490e+01    0.1980862    0.1325894  32.34  0.000414816    1.587    0.370
       272 -11.0834     41.4412     37.2742   8.7757426682e+01   6.4607187024e+01    0.5195445    0.3369839 -47.77  0.002952639    1.582    0.368
       273 -11.2700     92.0897     44.6742   7.1814221006e+01   5.5257970743e+01    0.7419373    0.3029039 -48.78  0.002518763    3.685    0.729
       274  -8.9592    188.2784     39.3343   4.8840834950e+01   3.3239545875e+01    0.1395921    0.1091283  25.75 0.0001942706    1.609    0.378
       275 -11.6637     81.3084     35.7729   7.1785420045e+01   5.8701086004e+01     0.529115    0.3236668  -5.68  0.002443845    2.099    0.523
       276 -10.9144     77.9855     32.8479   7.1699924914e+01   5.9746727713e+01    0.6769534    0.3724382  -1.55  0.002672854    3.063    0.674
       277  -9.9926    110.0448    243.3844   1.1028514365e+02   9.7857886754e+00    0.2273847    0.1482336  85.18  0.001058886    1.970    0.492
       278 -11.8545      9.8269     33.9590   1.0105381339e+02   6.8159597112e+01    0.6011335    0.3308119  36.32  0.002828646    2.504    0.601
       279 -10.9923     17.5038     31.0106   9.6279229477e+01   6.8139906392e+01    0.3976352    0.2013222  17.66  0.002219565    2.209    0.547
       280 -10.0957     88.8706    241.2473   1.1404263645e+02   1.3237083671e+01    0.1987082    0.1479462 -36.61  0.001223232    2.135    0.532
       281 -10.1517    195.4457    238.7435   9.3477997005e+01  -2.7972128508e+00    0.2457117    0.1669061  21.81  0.001493393    1.327    0.246
       282 -10.1512    181.1978    248.2097   9.7509645599e+01  -1.9194553390e+00    0.2370817   0.08732563 -36.56  0.001039675    3.545    0.718
       283  -9.7666    135.2773    237.7169   1.0479635309e+02   6.8695136470e+00    0.1771631   0.09985486 -39.26 0.0009091202    2.416    0.586
       284 -11.2384     22.2522     25.0535   9.1579071677e+01   6.8771440276e+01    0.3434182    0.2815437  14.02  0.001072339    1.366    0.268
       285 -10.0210     24.2416    232.3141   1.2505077017e+02   2.2964402015e+01    0.1713446    0.1429367  82.73 0.0006607035    1.250    0.200
       286 -10.6464     29.4957    232.9804   1.2417588981e+02   2.2270747968e+01    0.2562332    0.1545116  66.73  0.001120527    1.294    0.227
       287 -10.2373    159.9723    236.0054   9.9792194307e+01   3.2111658239e+00    0.1933307    0.1410823   9.31 0.0005942669    1.678    0.404
       288  -9.5562      1.7809     37.3816   1.0599428845e+02   6.7973558262e+01    0.1525654    0.0924057 -14.23 0.0009515166    1.727    0.421
       289  -9.2261    229.4394     36.5390   4.3009088930e+01   2.3739981612e+01    0.1308516    0.1188139 -63.30 4.985305e-05    1.067    0.063
       290 -11.2332     57.2172     34.4598   8.0054451159e+01   6.2956109353e+01     0.312007    0.2539473 -52.41  0.001864381    1.636    0.389
       291  -8.9326    198.2953     34.3528   4.6088029365e+01   3.1413029667e+01    0.1382575    0.1062145  28.01 0.0007032921    1.686    0.407
       292 -11.4565    192.8293     33.0207   4.6441253425e+01   3.2930083322e+01    0.2486041     0.235681  82.97 0.0002839974    1.067    0.062
       293 -10.5303    247.1434     33.2793   4.0516490253e+01   2.0246095622e+01    0.2008257    0.1492301  75.43 0.0004126328    1.394    0.283
       294 -10.5814    167.7106     32.8607   5.0088547012e+01   3.9241398171e+01    0.2763586    0.1985196  77.05 0.0007611129    1.426    0.299
       295  -9.7107     66.8453     32.9037   7.5695822141e+01   6.1682729830e+01    0.1648332    0.1508242 -33.94 0.0003660829    1.312    0.238
       296  -9.5650    177.2830     31.6491   4.8238912473e+01   3.6983327847e+01    0.1488922   0.09987807 -61.96 0.0007017147    1.654    0.396
       297  -9.2962    157.5276     31.5006   5.1373715005e+01   4.1972545564e+01    0.1409407    0.1339386  77.32 6.076976e-05    1.025    0.025
       298  -9.3002    145.2212     31.2407   5.3542534808e+01   4.5074225968e+01    0.2225234   0.09553468 -39.55 0.0008657256    2.417    0.586
       299 -10.1995     49.2653     30.1142   8.1448389681e+01   6.4796162585e+01    0.4310437    0.2209379 -23.91   0.00206882    2.071    0.517
       300  -9.0866     44.3035     31.3155   8.4073120552e+01   6.5265795250e+01    0.1305746   0.08362371 -11.83 0.0003592617    1.620    0.383
       301 -10.1537    236.5087     30.4864   4.0866892188e+01   2.2925063493e+01    0.2819186   0.06004609  53.35 0.0008101607    5.913    0.831
       302 -11.0408     61.3435     24.8912   7.4280486848e+01   6.3762474410e+01    0.2651395    0.2250888 -33.24 0.0008750823    1.346    0.257
       303 -10.7338    208.9992     27.5442   4.2994872572e+01   2.9665099572e+01    0.2310955     0.188744 -39.36 0.0001099519    1.224    0.183
       304 -10.3934    214.7844     26.5285   4.2101349578e+01   2.8409876219e+01    0.2397284    0.1771753 -36.40 0.0005812892    1.341    0.254
       305 -10.0373    184.2476     26.4030   4.5734239745e+01   3.5875598707e+01    0.2368127     0.150571 -55.38 0.0003635579    1.649    0.393
       306 -10.1393    152.1099     25.8740   5.0501921763e+01   4.4003500961e+01    0.2622018    0.1639149 -28.03 0.0009968561    1.688    0.407
       307 -11.0759    112.0469     24.9107   5.8489768231e+01   5.3749078450e+01    0.2763146    0.2024557 -22.37 0.0003961411    1.409    0.290
       308 -10.4528     70.7853     25.9899   7.1273805834e+01   6.2011354714e+01    0.3180374    0.2199629  23.89  0.001782339    1.396    0.284
       309  -9.9204     16.6243     26.8457   9.5091096946e+01   6.8956916555e+01    0.1620794     0.112233 -38.65  0.000398141    1.165    0.142
       310 -10.5444    139.5461     20.2031   5.0861122384e+01   4.7750833537e+01    0.5464362    0.1877579  39.95  0.001735902    3.917    0.745
       311 -11.2196    132.1847     25.7817   5.4259501414e+01   4.8920447012e+01    0.4724177    0.2605739  30.07 0.0003317948    2.266    0.559
       312  -9.8063    177.5015    234.9371   9.6274130244e+01   5.6713638460e-01     0.166945    0.1220871 -35.68  0.001022629    1.573    0.364
       313  -9.9186    164.6890     24.8519   4.8104875938e+01   4.0965947735e+01    0.2381516    0.1570373  72.30 0.0009570395    1.484    0.326
       314  -9.8076    159.9975     24.0000   4.8580601072e+01   4.2242440414e+01    0.2959528    0.1273072  59.26  0.001212567    2.068    0.516
       315  -9.2708    119.2221     25.4070   5.6963656326e+01   5.2041531521e+01    0.1820685    0.1220136  40.91 0.0006970119    1.411    0.292
       316 -10.0711    120.3628     21.1597   5.5110177255e+01   5.2259101891e+01    0.3293159    0.1993145  17.73 0.0009299685    2.110    0.526
       317 -10.7368     10.3543     24.9645   9.7502318475e+01   6.9774367173e+01    0.2549021    0.1475376  -0.94  0.001085369    1.873    0.466
       318 -10.4992    153.8475    233.7083   1.0065683795e+02   4.5634134565e+00    0.1964562    0.1675138 -18.52 0.0009433069    1.399    0.285
       319  -9.6015    167.4388    233.5184   9.7994549220e+01   2.3989131322e+00    0.1250969    0.1058865  33.35 0.0002177228    1.022    0.021
       320 -11.9454     74.0017    236.8337   1.1640907869e+02   1.6093461477e+01    0.5057608    0.2907884 -67.22  0.003036938    1.855    0.461
       321  -9.1734     90.7265    249.6980   1.1449143126e+02   1.1499907307e+01   0.09678433   0.08948421  12.03 0.0002073035    1.536    0.349
       322 -10.2980     85.7189     22.5511   6.4807611406e+01   5.9654469042e+01    0.3940986    0.2329213 -52.96  0.001741929    2.834    0.647
       323  -9.8789    185.9978     22.2631   4.4333189591e+01   3.5921132176e+01    0.3025027    0.1288477 -52.04  0.001171786    2.696    0.629
       324 -10.6177     55.2425     22.6247   7.5649238454e+01   6.5046735933e+01    0.2592668    0.1445526  -9.65 0.0008090417    2.221    0.550
       325  -9.7973     34.8948     23.1362   8.4699926914e+01   6.7744411761e+01    0.2965049    0.1367037  19.15 0.0009212923    2.714    0.632
       326 -10.0660    240.9911     21.7727   3.8466798454e+01   2.3004752560e+01    0.1726084    0.1586325  86.26  0.000359793    1.202    0.168
       327  -9.0777    227.6122     22.3010   3.9783042682e+01   2.5934290527e+01    0.1447092   0.08224533 -65.55 0.0002384351    1.792    0.442
       328 -10.4946      5.5166    235.2010   1.2835570526e+02   2.4316584625e+01    0.3068143    0.2044847  60.86  0.001676078    1.166    0.142
       329 -12.0669     21.9579    248.9046   1.2632536541e+02   2.0163998814e+01    0.3982068    0.2156631  49.90  0.001717691    1.453    0.312
       330 -10.4480    155.7684     21.9420   4.8611826945e+01   4.3533657447e+01    0.2387112    0.1901922  75.67 0.0002275514    1.226    0.184
       331  -9.9662     67.1864     21.6897   7.0650642841e+01   6.3218196566e+01    0.2296679    0.1634557  57.10  0.001260603    1.938    0.484
       332  -8.3587     45.5446     20.5254   7.8721869482e+01   6.6767185114e+01    0.2822526    0.1695756 -20.47  0.001447211    1.547    0.354
       333 -11.8132     37.5179    243.8222   1.2345129546e+02   1.9359054663e+01    0.5224282     0.277372  89.83  0.003032506    1.757    0.431
       334  -9.9920    190.6343    227.1506   9.2561834897e+01  -3.7435174779e-01    0.3050145     0.119606 -43.70  0.001346602    2.953    0.661
       335 -10.8557    120.3785    226.2681   1.0628021290e+02   1.1221081554e+01    0.1977282    0.1599805 -83.14 0.0006119115    1.393    0.282
       336 -10.6094      4.6639    226.2861   1.2808824958e+02   2.6075491079e+01    0.2838351    0.1083015  54.49  0.001295491    2.012    0.503
       337  -9.9512     66.0406    226.1838   1.1696717984e+02   1.9174944884e+01    0.1640929    0.1512762  63.53 0.0005938291    1.272    0.214
       338 -10.3707    161.7234     19.9971   4.7055383120e+01   4.2253665622e+01    0.2668595    0.1831969 -62.39  0.001130809    1.656    0.396
       339 -10.2949     26.7759    224.6027   1.2414253885e+02   2.4177524783e+01    0.1507787   0.07999122  51.51 0.0004766755    1.544    0.352
       340 -10.4086     69.7848     17.3503   6.7740679334e+01   6.3307837170e+01    0.2454857    0.1562083  19.00 0.0006730975    1.601    0.375
       341  -9.9871    123.4901    222.0909   1.0511518253e+02   1.1490312292e+01    0.1750051    0.1268723 -57.53  0.001020786    1.559    0.359
       342  -9.9002    141.6638    221.0311   1.0128355601e+02   8.7114579916e+00    0.2357365    0.1702535  19.86  0.001301799    1.627    0.386
       343  -9.2719     41.6776    220.7045   1.2114075973e+02   2.3281140698e+01   0.09880681   0.08855968 -51.03 0.0007019563    1.618    0.382
       344  -9.2140    250.4912    219.4552   8.0415232709e+01  -8.3948617839e+00     0.121807   0.09279446   3.35 9.828121e-05    1.026    0.026
       345  -9.4326    249.2907    227.3134   8.1995745765e+01  -9.2026305282e+00     0.120845   0.07398488   3.22 0.0004263768    1.590    0.371
       346 -10.0947     50.8349     15.4174   7.4046909951e+01   6.6699244021e+01    0.2496114    0.1134425  40.37  0.001231121    2.222    0.550
       347 -12.7627     29.1138    248.1960   1.2511650069e+02   1.9515847924e+01      1.46645    0.4159226  66.83  0.005381497    5.302    0.811
       348 -11.4709      9.6749    217.0913   1.2675835006e+02   2.7390022795e+01    0.2821179    0.1593336  69.48  0.001186215    1.385    0.278
       349  -9.4673     66.4714     13.2273   6.6985293706e+01   6.4387953544e+01    0.1657049    0.1102277 -34.69 0.0009215755    1.655    0.396
       350 -11.3581    235.9082    214.8929   8.2119392875e+01  -5.6966743228e+00    0.3454877    0.1973279 -16.76  0.001325666    1.849    0.459
       351 -11.6241    240.9848    211.6820   8.0649395086e+01  -6.0171384145e+00    0.4538129    0.3629134  39.57  0.002946191    1.525    0.344
       352  -9.7313     37.9555    217.4920   1.2160299068e+02   2.4353500747e+01    0.1621744    0.1021179  41.69 0.0008533953    1.562    0.360
       353 -11.5212     30.2723    216.0888   1.2294554333e+02   2.5490936557e+01    0.3860139     0.245026  17.38  0.002201801    2.747    0.636
       354  -9.9387     23.4824    216.6420   1.2423949003e+02   2.6101952455e+01    0.1893895    0.1068469  32.26  0.001143133    2.086    0.521
       355  -8.8995    201.6805    215.6659   8.8539756717e+01  -4.3913199655e-01    0.1344544   0.09042993   5.15 0.0007049127    1.699    0.411
       356  -9.6052    194.4992    215.4828   8.9885325581e+01   7.7184240652e-01    0.1304896    0.1114559  18.33 -5.638105e-05    1.001    0.001
       357  -9.5477     67.5424    214.7111   1.1560294029e+02   2.1259544170e+01    0.2239266   0.08436195 -53.24 0.0009537908    3.251    0.692
       358 -10.4838     21.3880    212.4736   1.2436090496e+02   2.7159756772e+01    0.3151692    0.1345943  54.00  0.001745705    1.957    0.489
       359 -10.2080    208.9531    212.0547   8.6528907233e+01  -1.0807818589e+00    0.1974872    0.1638358   9.55 0.0004836292    1.044    0.042
       360  -9.4093     76.3202    212.3004   1.1358149999e+02   2.0553814561e+01    0.1105618   0.09950903 -23.65 0.0004273598    1.624    0.384
       361 -10.3767     10.6554    208.7688   1.2611920877e+02   2.8969017966e+01    0.1965092    0.1545596 -61.68 0.0005606386    1.611    0.379
       362 -10.0577      2.0424    212.2555   1.2786135938e+02   2.9058350722e+01    0.1809668    0.1369675  63.27 0.0007931177    1.194    0.162
       363 -12.0970      4.8006    207.6566   1.2712761814e+02   2.9736250736e+01    0.6333952     0.238351  83.30  0.003147146    2.535    0.606
