#   1 NUMBER                 Running object number                                     
#   2 MAG_AUTO               Kron-like elliptical aperture magnitude                    [mag]
#   3 X_IMAGE                Object position along x                                    [pixel]
#   4 Y_IMAGE                Object position along y                                    [pixel]
#   5 X_WORLD                Barycenter position along world x axis                     [deg]
#   6 Y_WORLD                Barycenter position along world y axis                     [deg]
#   7 A_WORLD                Profile RMS along major axis (world units)                 [deg]
#   8 B_WORLD                Profile RMS along minor axis (world units)                 [deg]
#   9 THETA_WORLD            Position angle (CCW/world-x)                               [deg]
#  10 FWHM_WORLD             FWHM assuming a gaussian core                              [deg]
#  11 ELONGATION             A_IMAGE/B_IMAGE                                           
#  12 ELLIPTICITY            1 - B_IMAGE/A_IMAGE                                       
         1 -12.5530    199.0687     37.0152   4.7368645370e+01   3.0926333117e+01     1.213739     1.045781  21.32  0.006854047    1.420    0.296
         2 -12.5515    210.2185     25.5583   4.2974677830e+01   2.9644214085e+01    0.9280042    0.7872345  19.14  0.002949297    1.527    0.345
         3  -9.7223     32.8720     22.8569   8.7084672462e+01   6.7973169965e+01    0.3838377   0.06153398 -42.65  0.001198052    5.125    0.805
         4 -10.1249     21.5299      4.2965   8.3840788310e+01   7.1982413935e+01    0.4751385    0.1326327 -30.57  0.001807082    4.042    0.753
         5 -10.5728    234.4180      2.3338   3.5192217574e+01   2.6614339425e+01    0.6584396     0.242727  75.32  0.002947065    2.572    0.611
         6  -9.0666     32.8919      3.3590   7.7525859812e+01   7.0769443921e+01    0.2132146    0.1212165 -40.36  0.001214827    2.091    0.522
         7  -8.9122     51.4071      3.1898   6.9153248061e+01   6.8112943419e+01    0.1603598    0.1019214 -30.65 0.0009474974    1.654    0.396
         8  -8.5795     40.2264    224.1396   1.2234964174e+02   2.2909159306e+01    0.2666151    0.1376448  88.62 0.0009819064    1.869    0.465
         9 -12.8345     85.3653    229.1797   1.1419979742e+02   1.6165882280e+01     2.390738     1.479949  56.28  0.005668999    1.395    0.283
        10 -12.5082     45.1614    204.0382   1.1984077944e+02   2.6403813514e+01     2.017144    0.7781639  54.24   0.00200567    2.423    0.587
        11 -13.9349     60.0386    247.0511   1.2041831436e+02   1.6273209569e+01     7.548677     2.361831  29.06    0.0045176   11.200    0.911
        12 -11.7268     15.0185    192.6015   1.2500410693e+02   3.1971723366e+01    0.6977363     0.246006 -63.67  0.001593298    2.586    0.613
        13  -8.4077    113.4869    207.9154   1.0597837927e+02   1.6040644469e+01    0.1857059     0.129251 -64.19  0.001022872    1.571    0.364
        14  -8.2499    195.5307    199.5139   8.7451722159e+01   3.4119559903e+00    0.1346023    0.1192827  16.80 0.0006447997    1.035    0.034
        15 -12.7444     30.3006    247.5302   1.2553593630e+02   1.9675423253e+01     0.750049    0.7035633  22.35  0.006249056    1.732    0.422
        16 -11.2155     47.3367    223.0731   1.2094725375e+02   2.2289552806e+01    0.4343651    0.2137075  65.81 0.0007662976    1.926    0.481
        17  -8.4335     72.0124    186.3426   1.1228608013e+02   2.6842890505e+01    0.2066226    0.1543557  73.50 0.0003649814    1.262    0.208
        18  -8.0532     75.2896    189.8849   1.1198282787e+02   2.5606490096e+01    0.2611065    0.1382769  67.58  0.001169536    2.308    0.567
        19  -8.3464     99.8730    180.4960   1.0508334704e+02   2.4005271118e+01    0.2096417    0.1295385  40.55  0.001024759    1.566    0.361
        20 -10.3392     69.2179    176.8656   1.1174351694e+02   2.9361358540e+01    0.4013601    0.2661465 -38.55  0.002036308    2.104    0.525
        21 -10.3430     73.4932    171.7634   1.1005690404e+02   2.9949543448e+01    0.3634539    0.2541468 -47.13  0.001071292    1.641    0.390
        22 -10.3901     97.3847    169.1020   1.0388806826e+02   2.6980188979e+01    0.5720262    0.2442299  53.87  0.002095855    2.898    0.655
        23  -8.0313     37.6390    168.2958   1.1810220995e+02   3.5138788522e+01    0.1344973   0.07910395  66.93 0.0007032291    1.708    0.414
        24 -11.1374     82.5711    162.5918   1.0649450156e+02   3.0787590274e+01    0.7306553    0.4110948  61.16 0.0005957051    2.128    0.530
        25 -11.9603     70.2999    157.9249   1.0885725851e+02   3.3642611475e+01    0.5954358    0.4609118 -39.93  0.001493192    1.549    0.354
        26 -12.1846     68.5533    143.9558   1.0711109328e+02   3.7242645213e+01    0.9441182    0.6292839  80.46  0.003260412    1.789    0.441
        27 -10.9022     88.9551    155.5284   1.0372513254e+02   3.1487893355e+01    0.6029153    0.4515268 -20.81  0.001797567    1.934    0.483
        28  -9.5826     33.0307    156.8052   1.1796653406e+02   3.8287420604e+01    0.2836691    0.1522111 -68.71  0.001010931    1.568    0.362
        29  -7.4043    175.3127    149.3095   8.1443180089e+01   1.6558814447e+01    0.1546394    0.1177975   1.74  0.000464296    1.627    0.385
        30  -9.0910     53.9967    149.5115   1.1179727047e+02   3.7745688602e+01    0.1943865   0.09124347  55.48 0.0008101492    2.540    0.606
        31 -10.8004     31.1834    144.5442   1.1702417280e+02   4.1370676497e+01    0.3988084    0.3198192 -74.34  0.002549164    1.066    0.062
        32  -8.7374     84.1379    143.5204   1.0285838728e+02   3.5108125075e+01    0.2847785    0.2105591  80.77  0.001123464    1.561    0.359
        33  -9.1128    134.2955    142.5459   8.9561400170e+01   2.6433622980e+01     0.280787    0.1363266 -48.24  0.001070744    2.048    0.512
        34  -9.9594    102.7349    140.5610   9.7306014083e+01   3.2791212278e+01    0.5244992    0.3254423 -31.16  0.002178304    2.227    0.551
        35 -10.6104     90.0649    140.4785   1.0069087393e+02   3.4917830000e+01    0.2900026    0.2530011 -40.69 0.0004992475    1.227    0.185
        36  -8.0469     38.5225    141.4226   1.1472579407e+02   4.1401522293e+01    0.1302577    0.1091944 -84.33 0.0001589791    1.034    0.033
        37 -11.5537     57.2694    127.8743   1.0749031608e+02   4.2614339412e+01    0.9124874    0.3231472 -67.11  0.003281985    2.890    0.654
        38  -8.5974    111.7630    130.5797   9.2727037095e+01   3.3538570545e+01    0.2861364    0.2158801   7.11  0.000910361    1.822    0.451
        39  -8.8885    105.9464    130.2479   9.4233225255e+01   3.4677473891e+01    0.3433404    0.2184432 -53.21  0.001543339    1.511    0.338
        40  -7.9088     74.2823    130.3461   1.0309919117e+02   3.9763777136e+01    0.1454556    0.1033461 -35.41 0.0007014538    1.642    0.391
        41  -9.0088     32.3542    165.0777   1.1899841432e+02   3.6425553689e+01    0.1820343    0.1387362 -87.24 0.0007001116    1.081    0.075
        42  -9.4121     98.9240    126.7960   9.5405010896e+01   3.6735715637e+01    0.2899682    0.2445547 -11.89 0.0006376169    1.443    0.307
        43  -9.5323    119.3214    123.5499   8.9037274546e+01   3.3740219982e+01    0.4358055    0.2735133   4.61  0.001464771    3.439    0.709
        44  -8.9651     49.2921    216.4512   1.2005521867e+02   2.3368512362e+01    0.2984437    0.1820772 -84.39  0.001822493    1.526    0.345
        45  -8.3419    108.0229    119.3692   9.1128268552e+01   3.6865132976e+01      0.20636    0.1883158  40.11 0.0004033316    1.145    0.126
        46  -9.5948     32.6264    131.5068   1.1497514833e+02   4.4366094633e+01     0.246475    0.1740353 -69.01     0.000887    1.174    0.148
        47 -11.2955     21.2313    115.3684   1.1595518580e+02   4.9214022690e+01    0.3521764     0.248343 -50.23   0.00213585    1.346    0.257
        48  -7.8782    168.3860    113.5732   7.4262919520e+01   2.5373243916e+01    0.3171597    0.1288478 -52.12 0.0009511595    3.292    0.696
        49  -8.6208    114.6646    110.4860   8.7032071285e+01   3.7653875288e+01    0.2814051    0.1393472 -47.12   0.00107811    1.940    0.485
        50  -8.1609    206.1594    110.3949   6.5711661699e+01   1.7410722072e+01    0.2030025    0.1470519  66.22 0.0006820945    1.680    0.405
        51  -9.6569     31.9255    109.5987   1.1185800586e+02   4.9716652994e+01    0.2377525    0.1505672  45.32  0.001293047    1.837    0.456
        52  -9.1864    134.6177    106.2054   8.0480453856e+01   3.4484602881e+01    0.4790078    0.1389115 -49.90  0.001261222    4.139    0.758
        53 -10.3658     49.3369    107.9410   1.0614393865e+02   4.8384577739e+01    0.5027163    0.1942633  31.60  0.002074477    2.856    0.650
        54  -7.5944     56.2387    223.9810   1.1933559289e+02   2.1030915004e+01    0.1335593     0.087542 -80.85 0.0003174876    1.461    0.315
        55  -9.6620     31.8761    105.4990   1.1117059810e+02   5.0704162706e+01    0.2679821    0.1711878 -44.04   0.00146941    1.515    0.340
        56  -8.6430    244.0116    102.9885   5.7656863403e+01   1.0631218299e+01    0.2780413    0.1626619   9.86 0.0009542018    4.093    0.756
        57  -9.8608     33.5338     99.5073   1.0955127229e+02   5.1986678864e+01    0.3173409    0.1559213 -71.71  0.001454545    1.997    0.499
        58  -8.2192     41.5682     92.1593   1.0538651601e+02   5.2961523155e+01    0.1945483    0.1000194 -49.88 0.0005969829    1.630    0.387
        59  -8.1461     75.1236     84.9322   9.2162682812e+01   5.0396014718e+01    0.2023484    0.1892336 -79.86 0.0005218476    1.231    0.188
        60  -7.6222     59.6466     67.6789   9.2470966165e+01   5.6350076454e+01    0.1459771   0.09589559 -19.88 0.0003092899    1.753    0.429
        61  -9.4996    178.1055    222.6786   9.4871179887e+01   2.6342117041e+00    0.2273664    0.1837764 -23.77 0.0007021392    1.367    0.268
        62 -11.8585    189.3353     44.2232   5.0758416120e+01   3.2370817687e+01    0.8208309    0.5991496 -12.68  0.001230991    1.674    0.403
        63 -15.4820      6.3389    204.8862   1.2740207747e+02   3.0208430871e+01     18.78962    0.9565102 -76.69   0.02439965   13.492    0.926
        64  -9.8332     61.3493    234.7323   1.1924600767e+02   1.8340818189e+01    0.2307063    0.1822078  65.36 0.0006711157    1.032    0.031
        65  -9.8753    146.4332     50.6710   6.0600973277e+01   4.2173021175e+01    0.4875744    0.3284056 -81.76  0.002031852    2.311    0.567
        66  -8.6347     93.3665    218.7989   1.1151342054e+02   1.6998080460e+01    0.2158486    0.1641855  75.32 0.0009735842    1.277    0.217
        67  -8.7558    147.8815     44.1083   5.8133389827e+01   4.2782394138e+01    0.2466147    0.2027485  63.06 0.0004961584    1.212    0.175
        68 -12.2713     54.8109    192.7304   1.1678208276e+02   2.7669372891e+01     1.408256    0.8983507  55.22  0.008203829    1.422    0.297
        69 -14.8942      8.4092    242.2586   1.2885556734e+02   2.2874238001e+01     1.632918     1.242389 -83.51  0.009695622    1.389    0.280
        70  -8.5064     53.9468    231.2708   1.2034095129e+02   1.9914012841e+01    0.1986427    0.1347511 -81.94   0.00116846    1.416    0.294
        71  -8.6787     34.2286    228.0893   1.2370782512e+02   2.2821247995e+01    0.1787572    0.1315288  51.98 0.0008085082    1.248    0.199
        72  -8.2503     56.1462    217.6852   1.1882717179e+02   2.2284647608e+01    0.1924565    0.1144554  57.89 0.0007325865    1.435    0.303
