#   1 NUMBER                 Running object number                                     
#   2 MAG_AUTO               Kron-like elliptical aperture magnitude                    [mag]
#   3 X_IMAGE                Object position along x                                    [pixel]
#   4 Y_IMAGE                Object position along y                                    [pixel]
#   5 X_WORLD                Barycenter position along world x axis                     [deg]
#   6 Y_WORLD                Barycenter position along world y axis                     [deg]
#   7 A_WORLD                Profile RMS along major axis (world units)                 [deg]
#   8 B_WORLD                Profile RMS along minor axis (world units)                 [deg]
#   9 THETA_WORLD            Position angle (CCW/world-x)                               [deg]
#  10 FWHM_WORLD             FWHM assuming a gaussian core                              [deg]
#  11 ELONGATION             A_IMAGE/B_IMAGE                                           
#  12 ELLIPTICITY            1 - B_IMAGE/A_IMAGE                                       
         1 -14.4462      6.3146    145.4267   1.4995002163e+02   4.3262589986e+01     3.979974      1.10306  89.77   0.01558056    3.855    0.741
         2 -13.8488    194.6263     23.4890   7.2195880699e+01   3.3694002767e+01     1.876145     1.483349  20.74  0.008379288    1.390    0.281
         3 -13.4850    209.0020      5.8648   6.5533381949e+01   3.1873567408e+01    0.9564016    0.8254801  55.11  0.005857876    1.235    0.190
         4 -12.6093      2.3845      4.1880   1.2878764256e+02   7.5951750072e+01    0.8819428    0.5869081  70.01   0.00474046    2.785    0.641
         5 -11.8562      2.2146     12.5639   1.3249301779e+02   7.4198466281e+01    0.5837313    0.1906483 -69.74   0.00225288    3.497    0.714
         6 -10.7543      2.8982     38.8751   1.3966801293e+02   6.8237773160e+01    0.2045459    0.1350642 -47.99  0.001247373    1.283    0.220
         7 -12.3478    174.5374    247.9513   1.2491545031e+02   6.3833788735e+00     0.420713    0.2730813  34.25  0.003141209    1.199    0.166
         8 -12.5142    124.8813    249.1199   1.3353164688e+02   1.2415634100e+01    0.5146843    0.3213205  37.12   0.00379108    1.177    0.151
         9 -12.5026    132.5966    246.4760   1.3194195282e+02   1.1802623261e+01    0.4959734    0.3502209  45.00   0.00381233    1.262    0.208
        10 -10.6305    100.2590    249.7172   1.3785825127e+02   1.5255552875e+01    0.2377934    0.1251005  54.68  0.001566488    1.897    0.473
        11  -8.7462     89.3248    250.2842   1.3979407085e+02   1.6422816917e+01   0.09069085    0.0695658  15.12 0.0002402084    1.600    0.375
        12  -8.6355     63.7777    250.6512   1.4420123065e+02   1.9124971348e+01    0.1411505   0.06188403  41.71 0.0008063781    1.595    0.373
        13 -10.2984     30.1754    249.1769   1.4976951107e+02   2.2590842581e+01    0.2541288    0.1816136  39.47  0.002216383    1.249    0.199
        14  -9.8247     28.8951    243.1184   1.4975769606e+02   2.3595906959e+01    0.1462775    0.1049053  63.71 0.0003753439    1.144    0.126
        15 -10.6728     20.0471    247.8132   1.5138546241e+02   2.3682475551e+01    0.3693331    0.2093862  18.62  0.002589923    2.460    0.593
        16 -11.8843     53.2914    209.2415   1.4359054761e+02   2.6660258148e+01     1.470265    0.2422011  49.44   0.00509951    5.445    0.816
        17 -11.7283     35.9790    216.3334   1.4732955073e+02   2.7174430320e+01    0.8269514    0.6338292  21.48  0.006444408    1.588    0.370
        18 -12.5567     50.7838    218.3622   1.4465340412e+02   2.5384715368e+01    0.8743572    0.5266794  60.60  0.006157379    1.440    0.306
        19 -13.0248     36.9335    237.2953   1.4814702613e+02   2.3734705641e+01    0.2691721    0.2413455 -80.48 0.0007678184    1.435    0.303
        20 -14.1110     42.1307    230.4328   1.4690932601e+02   2.4301206110e+01    0.7763916    0.4529211  39.48  0.003075507    1.355    0.262
        21 -10.9910     95.4462    240.3795   1.3797507767e+02   1.7089760106e+01     0.256312    0.1509665 -36.22  0.001314056    2.873    0.652
        22 -12.1019    183.1718    235.5246   1.2195853822e+02   6.6380717455e+00    0.5642824    0.4126816 -81.18  0.002983173    4.753    0.790
        23  -9.8545     24.8336    240.0867   1.5033123271e+02   2.4412673214e+01     0.171732    0.1114017  68.03 0.0006369248    1.291    0.226
        24  -8.7366     12.6848    239.7038   1.5235507785e+02   2.5511229852e+01   0.07322519   0.07121097  -6.03  0.000245542    1.604    0.377
        25 -13.7055    124.7247    231.9234   1.3190703519e+02   1.4692300049e+01     1.802996    0.2775634  36.57  0.006362763    4.685    0.787
        26  -9.6583      3.3416    227.7625   1.5360667441e+02   2.8116887591e+01    0.2275465    0.1196255  31.76  0.001680205    1.753    0.430
        27  -9.3072    157.6397    225.2943   1.2516196491e+02   1.1245418238e+01    0.1084581   0.07491606  51.54 0.0007031108    1.702    0.413
        28 -11.6548     83.8400    225.0359   1.3887934922e+02   2.0702690754e+01    0.7373631   0.07792125  42.33  0.002602765    4.921    0.797
        29 -13.2966    104.9043    230.4706   1.3541363749e+02   1.7373674341e+01     1.541379          nan  39.91  0.004520355    6.943    0.856
        30  -9.5438     83.4876    219.1069   1.3846096005e+02   2.1672198544e+01    0.1839156    0.1206973  51.67 0.0009847089    1.297    0.229
        31 -10.5025     22.5948    212.2096   1.4964608763e+02   2.9085954712e+01    0.4872693    0.1945204  37.55  0.003010893    1.931    0.482
        32 -12.3414     10.4571    206.5887   1.5170418040e+02   3.1069269140e+01    0.5112475    0.3309265  25.68  0.003058416    1.720    0.418
        33  -9.6835     52.9670    204.0471   1.4330202672e+02   2.7594967026e+01    0.2293465    0.1370496  57.94  0.001512798    1.456    0.313
        34 -11.7033     62.7273    202.1615   1.4119296252e+02   2.6878665795e+01    0.2013246    0.1958466 -75.66 0.0004863541    1.287    0.223
        35  -9.9938    193.0978    195.5056   1.1448039542e+02   1.0024056461e+01    0.6051563    0.3279597 -58.20  0.001997259    8.009    0.875
        36 -12.0238     68.9033    193.4299   1.3918527270e+02   2.7741891514e+01    0.2155076    0.2081394  62.38 0.0003909901    1.198    0.165
        37 -10.6640     29.8135    187.8537   1.4701341863e+02   3.2810279477e+01    0.5277954    0.1379863  61.45  0.001820001    5.655    0.823
        38 -13.4619      3.7640    111.6479   1.4851700423e+02   5.0950967498e+01      1.43281    0.5896278  86.55  0.006823249    2.305    0.566
        39 -13.0174      4.8301    170.1416   1.5146041811e+02   3.8272540865e+01     1.585013    0.2928972 -74.60   0.00645573    4.266    0.766
        40  -9.6360    218.3273    249.6662   1.1802891057e+02   8.3037279816e-01   0.08884772   0.07064698  37.72 0.0005262042    1.718    0.418
        41  -8.4852    103.6326    179.8291   1.3018107043e+02   2.5806866669e+01    0.1466519    0.1129026 -84.06 9.277362e-05    1.563    0.360
        42 -11.8655     86.1130    170.3246   1.3293378751e+02   2.9976942598e+01    0.6000891    0.4760841 -41.11  0.003799358    1.509    0.337
        43 -11.7607      2.4396    152.1325   1.5121755195e+02   4.2102443096e+01     1.064702    0.2341578 -84.57  0.003495439    4.293    0.767
        44 -13.1141     65.6378    178.5192   1.3850981374e+02   3.0913481949e+01    0.4230408    0.2492057 -43.44  0.001605169    2.308    0.567
        45 -10.2573     98.4418    154.1118   1.2775591023e+02   3.1486614796e+01    0.2843673    0.2367294 -43.73 0.0009010084    1.319    0.242
        46  -9.7517    101.4692    150.2979   1.2641294964e+02   3.1810159188e+01    0.3586529    0.2432765 -86.28   0.00139709    2.042    0.510
        47 -11.9104     87.0484    153.4128   1.3045018578e+02   3.3245095446e+01    0.2585957    0.2297387 -29.79 0.0006097573    1.320    0.242
        48  -9.2657    133.6418    144.4464   1.1762675770e+02   2.7757883077e+01    0.2557167     0.132846 -52.88  0.001132599    2.202    0.546
        49 -12.3531     67.0890    143.5045   1.3415083526e+02   3.7951692048e+01    0.6381142    0.3841881  57.77  0.003335171    1.767    0.434
        50 -10.5688     97.0614    135.7528   1.2505996014e+02   3.5496751492e+01    0.2536574    0.2181955  38.35 0.0003902537    1.141    0.124
        51  -9.0879     84.1254    134.8508   1.2833022163e+02   3.7592456671e+01    0.2055668     0.160769  62.78 0.0006696263    1.344    0.256
        52  -9.9506    109.6463    138.3881   1.2230583149e+02   3.2969174192e+01    0.4036324    0.2573675 -23.60  0.001274361    2.354    0.575
        53  -9.1462    116.1764    130.2128   1.1905659304e+02   3.3561399460e+01    0.2372276    0.1510103 -10.79 0.0009516769    2.860    0.650
        54  -9.1525    107.0034    124.6871   1.2031017619e+02   3.6259349644e+01    0.1846305    0.1667527  34.98 0.0003088112    1.099    0.090
        55  -9.5487    167.9303    113.0015   1.0287450835e+02   2.7000443868e+01    0.2140204    0.2063039 -21.62 0.0006342704    1.137    0.121
        56 -10.8984     78.8926    179.9897   1.3569535549e+02   2.9041404923e+01    0.2063708    0.1900689  77.43 0.0003328547    1.103    0.094
        57  -9.7359    156.9486     75.3308   9.4847898172e+01   3.5838364060e+01    0.2148281    0.1932662  33.53 0.0005956021    1.116    0.104
        58 -10.9261      2.0939     61.4672   1.4400866807e+02   6.2922217557e+01    0.3438178    0.1442233  85.81  0.001469261    2.822    0.646
        59 -10.0015     81.6732    249.1194   1.4103654107e+02   1.7430815204e+01    0.1536552    0.1012928  62.21  0.001027395    1.488    0.328
        60  -9.4903      2.4188    249.0354   1.5425045969e+02   2.4958542353e+01    0.1456855    0.1105092  31.33 0.0008823671    1.497    0.332
        61 -10.8011    237.8530    247.1659   1.1470440663e+02  -1.2470835246e+00    0.1488333    0.1077057  19.75 0.0007689581    1.229    0.186
        62 -13.5283    142.0490    247.3881   1.3039094991e+02   1.0518903898e+01    0.8680028    0.4632993  36.19  0.005850134    1.379    0.275
