#   1 NUMBER                 Running object number                                     
#   2 MAG_AUTO               Kron-like elliptical aperture magnitude                    [mag]
#   3 X_IMAGE                Object position along x                                    [pixel]
#   4 Y_IMAGE                Object position along y                                    [pixel]
#   5 X_WORLD                Barycenter position along world x axis                     [deg]
#   6 Y_WORLD                Barycenter position along world y axis                     [deg]
#   7 A_WORLD                Profile RMS along major axis (world units)                 [deg]
#   8 B_WORLD                Profile RMS along minor axis (world units)                 [deg]
#   9 THETA_WORLD            Position angle (CCW/world-x)                               [deg]
#  10 FWHM_WORLD             FWHM assuming a gaussian core                              [deg]
#  11 ELONGATION             A_IMAGE/B_IMAGE                                           
#  12 ELLIPTICITY            1 - B_IMAGE/A_IMAGE                                       
         1 -13.5416    219.8310     46.6944   2.1395790238e+00   2.4458320380e+01    0.9453308    0.7409126  39.45  0.001376943    1.689    0.408
         2 -11.9468    247.3420     27.7632   3.5583008290e+02   2.1281693622e+01     0.656686    0.3270868 -60.73  0.003693821    1.857    0.462
         3 -11.9120    248.8468     21.8843   3.5450963251e+02   2.1640117698e+01    0.5766448    0.3778149 -54.84  0.003840897    1.203    0.169
         4  -9.3876     61.2002      3.0394   1.4357079980e+01   6.9561772537e+01    0.2170395    0.1480786 -56.71 0.0008806893    1.986    0.497
         5  -9.0945      2.5576      2.2138   5.7830814354e+01   7.9698272459e+01    0.1735123   0.09245362 -42.76 0.0006288524    1.621    0.383
         6 -10.1180    103.3997    238.5047   6.3225473738e+01   1.2398266458e+01    0.2595636    0.1927169 -31.52  0.001198902    1.752    0.429
         7  -9.6236     74.4846    250.0840   7.0563518280e+01   1.4022398808e+01    0.2617253    0.1690216 -34.46  0.001275822    2.386    0.581
         8  -8.9837     76.2261    244.7681   6.9791307067e+01   1.4714901624e+01    0.2374262    0.1260679 -40.53  0.001096154    2.976    0.664
         9 -14.7160     55.7026    234.5894   7.3675063647e+01   1.8925413511e+01     5.228413     2.305291 -50.49   0.02516732    3.255    0.693
        10 -15.5880     31.2814    182.1739   7.6335956347e+01   3.2613580037e+01     9.112224     2.938397  73.76   0.02715579    5.273    0.810
        11 -14.3306     44.7411    173.8829   7.1864590463e+01   3.3138927899e+01     13.29214     4.442596  82.64   0.02718921   10.776    0.907
        12 -10.4711     72.8290    233.0131   6.9644372895e+01   1.7201269298e+01    0.2355523    0.2040241  58.25 0.0006846113    1.206    0.171
        13  -8.9458    185.0000    233.0643   4.5580687960e+01   2.6286834518e+00    0.1595147   0.06285567 -40.34  0.000599898    2.871    0.652
        14 -12.5024    130.0556    229.8382   5.6388584575e+01   1.0296742226e+01    0.9590559    0.3145455  31.03  0.004038807    2.431    0.589
        15 -12.3083    106.7326    229.2468   6.1524447506e+01   1.3534607225e+01    0.8652825    0.4573308  42.13  0.004588908    1.610    0.379
        16 -11.5449     97.7600    223.1777   6.2947637630e+01   1.5811361180e+01    0.5568697    0.4295022 -57.27  0.002241161    1.612    0.380
        17 -11.2128     90.2675    225.5752   6.4942776610e+01   1.6363604108e+01    0.6736707    0.4383696  62.47  0.003784868    1.803    0.445
        18 -11.4671     81.5148    221.0212   6.6573450057e+01   1.8350408155e+01    0.6277564    0.3782463  27.25  0.001371497    1.430    0.301
        19 -11.3179    146.9837    228.5735   5.2587467581e+01   8.2066208276e+00    0.3940416    0.1592066  37.28  0.001867895    2.066    0.516
        20  -9.7224     90.4552    217.5301   6.4088306861e+01   1.7840697490e+01    0.3881475    0.2093126  17.37  0.001815712    2.122    0.529
        21 -10.4597     72.1945    225.4958   6.9181194766e+01   1.8676372343e+01    0.3670403    0.1769787  33.88  0.001589248    1.584    0.369
        22 -10.7100    173.8312    224.0829   4.6464489290e+01   5.2795020453e+00    0.3725629    0.1781384  16.69  0.001769688    2.339    0.573
        23  -9.0636    118.6482    221.8323   5.7966406845e+01   1.3199687865e+01    0.1642123    0.1495744  34.48 0.0008596567    1.174    0.148
        24  -9.7484     67.1221    221.3232   7.0043186232e+01   2.0100455010e+01    0.1939979     0.164948  64.87 0.0003426749    1.215    0.177
        25  -9.7112     96.1081    211.5999   6.2080980775e+01   1.8208378004e+01    0.3269076    0.1933473 -71.05   0.00166462    2.245    0.554
        26  -8.4698    102.2600    211.3307   6.0559055932e+01   1.7402281495e+01    0.1237651   0.09676597  -8.67 0.0002672616    1.567    0.362
        27  -9.6066    211.1512    198.7582   3.5484673217e+01   3.8699877743e+00     0.203359    0.1499956   0.41 0.0004591341    1.116    0.104
        28  -9.5185    194.7898    198.3784   3.8397495247e+01   6.1329271516e+00    0.2167243    0.1525878 -69.89 0.0009527144    4.284    0.767
        29 -11.2392     68.5222    192.8668   6.7085772784e+01   2.5825367792e+01    0.4602181    0.2450422  62.02  0.001247933    2.178    0.541
        30 -14.6099      7.8163    189.8454   8.3013131079e+01   3.2977110670e+01     2.328656     1.097954  56.89   0.01058125    1.742    0.426
        31 -11.2881    123.9979    191.3147   5.2574741854e+01   1.8035545866e+01    0.3391559    0.2269211  17.15   0.00129245    1.560    0.359
        32  -8.9860    190.6913    190.9914   3.7924052385e+01   7.8072130438e+00    0.1732417    0.1021108 -59.60 0.0005949706    4.073    0.754
        33  -9.7543     73.9491    189.7699   6.5300649221e+01   2.5785954579e+01    0.2460194    0.1894276 -87.51 0.0005238032    1.470    0.320
        34  -9.0199    207.5273    189.9271   3.4623089188e+01   5.5790923145e+00    0.1770574     0.106748 -30.12  0.001020233    1.563    0.360
        35 -10.2401    134.3294    189.6571   4.9828026412e+01   1.6723154931e+01    0.2694871    0.1669029  11.79  0.001242195    1.981    0.495
        36 -14.0376     18.8332    237.2690   8.2026646116e+01   2.2251986119e+01    0.7496188    0.5281537  89.02  0.002986532    1.550    0.355
        37  -9.6570     60.1340    179.2560   6.7975256363e+01   3.0001420610e+01    0.2590562    0.1933816 -73.90 0.0002614706    1.450    0.310
        38  -9.3246     64.8106    185.0540   6.7279180199e+01   2.8059725861e+01    0.2775239    0.1832394  87.41 0.0006939773    1.754    0.430
        39  -9.0355     63.5037    181.5105   6.7265812555e+01   2.9043089770e+01    0.2389252    0.2023805  50.34 0.0005566155    1.034    0.032
        40 -13.4445     43.9718    243.1127   7.6787473288e+01   1.8660762112e+01     1.046194    0.8190269  45.52   0.00280554    1.071    0.066
        41 -10.2963    116.0149    181.8618   5.3119229501e+01   2.1199965792e+01    0.2539332    0.2069405 -53.44 0.0005932112    1.401    0.286
        42  -8.7193    100.0078    181.2233   5.7205413585e+01   2.3867733363e+01    0.1963629    0.1648652  35.48  0.001092923    1.042    0.040
        43  -9.4205    174.8284    179.8602   3.9122570157e+01   1.1986770374e+01    0.2068896    0.1626346   0.04 0.0006673366    1.209    0.173
        44 -11.0695    179.5026    165.5302   3.5490510347e+01   1.3643067743e+01    0.5058397    0.3889414 -66.92  0.002653149    2.081    0.519
        45 -10.6919    172.1968    174.9432   3.8774736086e+01   1.3242003551e+01     0.359074    0.2716225  20.22  0.001065794    1.217    0.178
        46 -10.6365    173.7637    170.8170   3.7679061819e+01   1.3692896776e+01    0.3138212    0.2396299  57.01  0.001187326    1.796    0.443
        47  -9.6856    104.0064    171.4794   5.4652808325e+01   2.5366721380e+01    0.3042261    0.1926253 -84.80  0.001281917    2.480    0.597
        48 -10.1360     78.7133    168.3195   6.1306166676e+01   3.0027559607e+01    0.3067082       0.2257 -75.72 0.0004750035    1.518    0.341
        49  -9.8925     76.6891    165.2871   6.1477612482e+01   3.1046656638e+01     0.270496    0.2079559  56.58 0.0001962687    1.266    0.210
        50  -9.0545     86.2016    168.8341   5.9220476683e+01   2.8783106249e+01    0.1950783    0.1697595   0.02 0.0005827901    1.322    0.244
        51 -10.2189    110.5950    167.1834   5.2162350194e+01   2.5224160492e+01    0.2793504    0.2532262  65.34 0.0004518746    1.194    0.163
        52 -12.2660     66.8451    126.4076   5.8429127807e+01   4.2316064385e+01     2.181418      1.57701 -19.74  0.009767096    1.872    0.466
        53 -11.2227     51.6476    143.6343   6.6384990765e+01   3.9906763570e+01    0.9542147    0.2819428  47.99  0.002856252    3.669    0.727
        54 -12.3924     54.4077    122.4045   6.2216196850e+01   4.5145001236e+01     1.781029    0.8076279 -88.10  0.005376755    3.986    0.749
        55 -11.7136     61.4685    161.5330   6.5550503493e+01   3.4093230003e+01    0.4853777     0.392053 -16.54  0.002539063    1.581    0.367
        56 -11.8321     66.1496    157.7958   6.3626656370e+01   3.4382146036e+01    0.6105143     0.534784  45.11  0.001666509    1.040    0.038
        57 -13.5400     63.1043    145.6595   6.2878842354e+01   3.7868102115e+01     1.049184    0.7079381  27.38  0.001159208    1.472    0.321
        58  -9.1335    101.7397    166.9414   5.4546972049e+01   2.6751194411e+01    0.1936308    0.1870881  87.91 0.0003520923    1.132    0.116
        59  -8.2513     71.3212    167.6636   6.3379783095e+01   3.1248898134e+01    0.1572645   0.09798472  59.40 0.0007050187    1.709    0.415
        60  -9.1000    129.0389    162.4205   4.6458933103e+01   2.3052469574e+01     0.204139    0.1928325 -42.19 0.0003272304    1.159    0.137
        61  -9.3005     96.2500    161.6686   5.5232724960e+01   2.8858987399e+01    0.2807784    0.2140029  71.67 0.0007362976    1.548    0.354
        62 -11.2524    237.7504    160.4612   2.4330716846e+01   5.4896333303e+00    0.2850208    0.2528218 -76.01  0.001636243    1.993    0.498
        63 -15.4079      5.6779    231.2558   8.4711523215e+01   2.4565227319e+01     1.671898    0.6009822  74.41  0.008297474    2.724    0.633
        64 -16.7022      6.1135    217.9753   8.4283896312e+01   2.7128335427e+01      4.20714     2.428689  28.46   0.01571718    1.531    0.347
        65 -10.8332     29.1907    152.7336   7.4733044478e+01   4.0034969753e+01    0.3267857    0.2669345  63.81 0.0009685874    1.097    0.088
        66  -9.0847     56.0136    159.3226   6.6957099470e+01   3.5353667341e+01    0.2067865     0.167206  39.14  0.000455051    1.135    0.119
        67 -10.5709     43.1756    156.1543   7.0616690612e+01   3.7699097719e+01     0.520349    0.2977537  44.19  0.001578933    1.562    0.360
        68 -11.0657     90.6223    152.7647   5.5387621350e+01   3.1888661821e+01    0.7008197    0.4162543 -78.69  0.002840401    2.337    0.572
        69  -9.8670     88.5701    149.4649   5.5438444733e+01   3.3024707499e+01    0.2569737     0.218714 -59.33 0.0001874541    1.256    0.204
        70  -9.6414    126.1118    156.4800   4.6093947263e+01   2.4837834400e+01    0.2848085    0.2246815  86.05  0.000889115    1.751    0.429
        71 -12.5483     70.0652    144.9615   6.0506731936e+01   3.7046803490e+01     1.138689    0.5192522  56.90   0.00225175    2.910    0.656
        72 -12.1475     75.6515    150.4846   5.9599459812e+01   3.4820169266e+01     0.971936    0.6454487 -45.47 0.0004200417    1.716    0.417
        73  -9.7065    122.6440    149.2720   4.5602300573e+01   2.7042062514e+01    0.5015038    0.2970098 -72.04  0.001843528    2.831    0.647
        74 -10.7206    133.2154    144.7989   4.1897507823e+01   2.6015106968e+01     1.073537    0.3668893 -54.08  0.003283213    3.805    0.737
        75  -9.4518    114.3354    147.0298   4.7436157520e+01   2.9081610984e+01    0.2018014    0.1883882 -60.31 0.0003739929    1.158    0.136
        76 -10.4236    109.0219    145.4002   4.8620112220e+01   3.0430112791e+01    0.2936998    0.2623198  39.74 0.0006703162    1.045    0.043
        77  -8.9901    100.9495    143.7593   5.0658755429e+01   3.2273029576e+01    0.2077901    0.1845895  47.21 0.0001902537    1.068    0.064
        78 -10.4304     36.8027    142.3892   7.1232432242e+01   4.1943568224e+01    0.3131774    0.2344428 -82.71 0.0008528207    1.309    0.236
        79 -14.7752     10.1733    206.3423   8.2986080197e+01   2.9183618474e+01    0.8614939    0.5057042  20.42    0.0028611    1.753    0.429
        80  -9.0358    146.0037    141.0499   3.7895405602e+01   2.4319223188e+01    0.1766773    0.1679224  11.79 0.0003696652    1.013    0.012
        81 -10.2154    114.6110    136.1116   4.5102178420e+01   3.1528189579e+01    0.3160605    0.2487309 -73.06  0.001502379    1.522    0.343
        82 -10.0839    109.6873    126.2849   4.4361769995e+01   3.4772756892e+01    0.3109322     0.262375  18.83 0.0004951627    1.285    0.222
        83 -10.5327     99.8753    133.3667   4.8887788244e+01   3.4959990868e+01    0.6648786    0.4090448   3.19  0.002261735    3.224    0.690
        84 -10.5709    105.4199    131.1130   4.6718401914e+01   3.4459523513e+01    0.4294291    0.3880757 -26.99  0.001283955    1.214    0.176
        85 -11.6290     85.9576    132.2317   5.3060102409e+01   3.7725619431e+01    0.3119203     0.289375 -56.06 0.0004288193    1.135    0.119
        86  -7.9024     38.2912    133.3243   6.9670355295e+01   4.4174575729e+01    0.1453418    0.1056123 -39.14 0.0007014711    1.613    0.380
        87  -9.1888     32.2947    133.1756   7.1782488995e+01   4.4831932699e+01    0.2830611    0.1376556  50.63  0.001178214    2.030    0.507
        88 -10.4693     44.9484    131.2457   6.7025667821e+01   4.3978244459e+01     0.452383    0.3004568  40.25  0.001671747    1.420    0.296
        89  -8.8984    123.1723    130.8427   4.1530813251e+01   3.1041083362e+01    0.2345006    0.2067488  76.33 0.0008952679    1.290    0.225
        90  -9.3096    136.0000    129.9637   3.7908452456e+01   2.8633288598e+01    0.2509426   0.08776329 -46.38 0.0008047111    2.958    0.662
        91  -9.6142     32.3613    125.5502   7.0873784040e+01   4.6859341976e+01    0.4032559    0.2313511  -5.86  0.001229509    2.542    0.607
        92  -9.9413     46.3088    122.3801   6.5228804308e+01   4.6182429625e+01    0.3419402    0.2113915  45.24  0.001026846    1.571    0.364
        93 -10.5231     41.4291    118.6808   6.6512967718e+01   4.7746934036e+01    0.5462717    0.2042032  47.89  0.001483667    2.883    0.653
        94  -9.4579    115.4881    121.9024   4.1628764018e+01   3.4626657189e+01    0.2630252     0.218628  14.76   0.00108585    1.366    0.268
        95 -10.3681     96.2427    121.4558   4.7424027527e+01   3.8536438166e+01    0.3190393    0.2666039  27.33 0.0006065742    1.230    0.187
        96 -10.2496     25.9747    116.1214   7.2169148807e+01   4.9987964065e+01    0.3011968    0.2110323  47.60 0.0006294148    1.398    0.285
        97  -9.4380    106.1927    116.1318   4.3021408970e+01   3.7864620305e+01    0.2281697    0.2133562  -4.77 0.0003483226    1.167    0.143
        98 -11.1437    243.6106    114.4320   1.4499884835e+01   1.0932734644e+01    0.2247488    0.1855032 -47.18 0.0008482635    1.287    0.223
        99 -12.6027     82.5883    143.5226   5.6254845703e+01   3.5465977071e+01      2.93743     1.357088 -68.05   0.01068985    2.644    0.622
       100 -11.0826     53.4893    106.5013   5.9617958496e+01   4.9506612107e+01    0.5022985     0.382575  75.34  0.002416024    1.465    0.317
       101  -9.7435     32.4582    109.5073   6.8694231684e+01   5.1173026489e+01    0.2668673    0.1787355 -71.37 0.0008986488    1.424    0.298
       102  -9.0545     33.5211    106.5074   6.7803092916e+01   5.1878204784e+01    0.2513911    0.1673436  75.17 0.0006775783    1.658    0.397
       103  -9.0336     65.9572    108.5328   5.5155824287e+01   4.7130992065e+01    0.2319549     0.203372 -66.55  0.000351868    1.150    0.131
       104  -9.6211     20.3874    108.7901   7.3536093816e+01   5.2424052165e+01     0.295098    0.1476745  40.78  0.001289709    1.954    0.488
       105  -8.2510    233.2679    107.6525   1.4398681862e+01   1.3569878672e+01    0.1249327   0.08453963 -52.14 0.0006988321    1.616    0.381
       106 -10.0894    133.6777    104.4636   3.2153732596e+01   3.4555495089e+01    0.4930509    0.2625532 -62.06  0.001663179    2.960    0.662
       107 -10.9369     23.7834    104.7572   7.1624626988e+01   5.3242009649e+01    0.4152801    0.2954436  40.07  0.002042673    1.408    0.290
       108 -10.3143    112.7814    102.8620   3.7574544537e+01   3.9553716221e+01    0.3961855    0.2948636  78.10   0.00170303    1.781    0.439
       109 -10.1410     50.9060     98.5186   5.9014466143e+01   5.1978194197e+01    0.3037844    0.2006644  37.25 0.0006487979    1.490    0.329
       110 -10.1052     46.7522     95.7520   6.0195171721e+01   5.3258752910e+01    0.3450445    0.2324762  52.02 0.0009899497    1.590    0.371
       111 -10.0330     41.5863     92.1680   6.1710942057e+01   5.4848463263e+01    0.2909019    0.2524726  47.49 0.0004411479    1.172    0.147
       112 -10.7843     45.8810     91.1484   5.9570256041e+01   5.4588601063e+01    0.3457034    0.3019658  64.48 0.0009833456    1.197    0.164
       113 -10.5355     81.8007     95.3765   4.5901965816e+01   4.7717435030e+01    0.8836921    0.4941412  72.84  0.002499316    4.447    0.775
       114  -9.3648     57.8133     98.3557   5.6096446690e+01   5.1041600210e+01    0.2046576    0.1457179  17.41 0.0002656438    1.578    0.366
       115  -8.9982     70.9214     93.3596   4.9535230963e+01   5.0208612598e+01    0.2147517    0.1911635  36.28 0.0003615985    1.110    0.099
       116  -8.9494     25.1887     92.9298   6.9284402772e+01   5.6313308261e+01    0.2206749    0.1792163  64.40 0.0004510336    1.275    0.216
       117  -8.9107     71.3772     85.5967   4.7194464470e+01   5.2061466975e+01     0.218676    0.1741181  71.73  0.001018291    1.485    0.327
       118  -8.9667     93.7946     81.0966   3.7327250077e+01   4.8633580219e+01    0.2345714    0.2086231  84.95 0.0003368372    1.240    0.194
       119  -9.7587     60.8511     77.5312   4.9287860097e+01   5.5875332666e+01    0.2463649    0.2110158  78.94 0.0007708197    1.340    0.254
       120  -9.8776     87.1828     74.8551   3.7670079565e+01   5.1458343311e+01    0.4341284    0.2891505  78.39  0.001639252    2.484    0.597
       121  -9.1948     37.1547     75.3722   5.9965434544e+01   5.9769765728e+01    0.2077073    0.1254406  37.44 0.0005581718    1.685    0.407
       122  -9.1089    102.0281     76.9550   3.3206948786e+01   4.7696174317e+01    0.2313607    0.2223121  65.17 0.0003048239    1.023    0.023
       123 -10.1782     29.6794     71.3645   6.2840952200e+01   6.1603080019e+01    0.2951251    0.2104633  62.58 0.0009845337    1.665    0.399
       124  -9.1940     40.5589     70.9760   5.7079159816e+01   6.0483389559e+01    0.2265185    0.1912883  22.48 0.0007054001    1.208    0.172
       125  -9.1876    142.4807     69.4450   1.9819624231e+01   3.9266442948e+01    0.2845297    0.1431686 -42.88  0.000555166    1.983    0.496
       126 -10.2369    138.6887     65.3183   1.9361218809e+01   4.0946114036e+01    0.5059291    0.2914595 -66.79  0.001837077    2.651    0.623
       127 -12.0191    197.0104     61.7648   8.3718737110e+00   2.7358887417e+01    0.7080508    0.5592385  55.34  0.002572986    1.397    0.284
       128 -12.9253    208.8397     54.3186   5.0915511039e+00   2.5792200593e+01    0.9388507    0.8057262 -43.99  0.003123607    1.072    0.068
       129  -9.1448     82.9818    245.9504   6.8398324986e+01   1.3702398225e+01     0.174673    0.1360212  34.75 0.0003015971    1.047    0.045
       130 -11.6521     13.6359     60.2355   6.9324605649e+01   6.5749581539e+01    0.5261559    0.3430556  74.87  0.001480912    1.861    0.463
       131 -11.8486      7.7524     61.0659   7.2953081613e+01   6.5856607499e+01    0.4812385    0.3396771  50.65  0.002600076    1.598    0.374
       132  -9.8046     24.0825     68.7190   6.5231038014e+01   6.2802422837e+01    0.3122587    0.1704035  29.01  0.001137024    1.858    0.462
       133  -8.9361     46.1985     50.4453   4.7251412163e+01   6.4616810173e+01    0.2020958    0.1309049  43.61 0.0009372146    1.633    0.388
       134  -9.6363     29.2012     49.7945   5.6983027397e+01   6.7014018890e+01    0.2419284    0.1667037  23.82 0.0009163939    1.467    0.318
       135 -10.3328     12.5610     49.2869   6.7507090700e+01   6.8560262923e+01    0.3479834    0.1112354 -65.83   0.00131558    2.693    0.629
       136 -10.9356     19.7260     33.0316   5.7235267403e+01   7.1842859390e+01    0.4975373     0.166323  33.56  0.001920579    2.978    0.664
       137  -9.1885    146.9871    243.0057   5.4397745284e+01   6.0672047698e+00    0.1780704     0.123859  46.06 0.0005646278    1.679    0.404
       138 -10.3354     67.4480    241.1411   7.1471979890e+01   1.6384016076e+01    0.2783917    0.1862113 -74.54  0.001509454    1.886    0.470
       139  -9.4889     21.2214     27.1818   5.3545357268e+01   7.2967679753e+01    0.1707792    0.1572754  51.42 0.0006348562    1.334    0.250
       140  -9.9173      2.4944     22.1717   6.7322599525e+01   7.5489140005e+01    0.2178196    0.1971706  20.61 0.0008540453    1.254    0.203
       141  -9.6872     61.1320     21.2995   2.5379844625e+01   6.7306632359e+01    0.2795223    0.2331383  59.86 0.0008235762    1.277    0.217
       142  -8.7034    189.4975     15.4535   3.5691264795e+02   3.4913644088e+01    0.1326916    0.1118402 -68.50 0.0001271677    1.011    0.011
       143  -9.6963    185.4535    241.0280   4.6593811740e+01   1.5519812107e+00    0.2420656    0.1062719 -39.61  0.001304421    2.621    0.618
