#   1 NUMBER                 Running object number                                     
#   2 MAG_AUTO               Kron-like elliptical aperture magnitude                    [mag]
#   3 X_IMAGE                Object position along x                                    [pixel]
#   4 Y_IMAGE                Object position along y                                    [pixel]
#   5 X_WORLD                Barycenter position along world x axis                     [deg]
#   6 Y_WORLD                Barycenter position along world y axis                     [deg]
#   7 A_WORLD                Profile RMS along major axis (world units)                 [deg]
#   8 B_WORLD                Profile RMS along minor axis (world units)                 [deg]
#   9 THETA_WORLD            Position angle (CCW/world-x)                               [deg]
#  10 FWHM_WORLD             FWHM assuming a gaussian core                              [deg]
#  11 ELONGATION             A_IMAGE/B_IMAGE                                           
#  12 ELLIPTICITY            1 - B_IMAGE/A_IMAGE                                       
         1 -10.3788    242.0195      3.0605   2.9356507606e+01   2.5521003854e+01    0.4799205    0.2123251 -65.73  0.002513116    2.124    0.529
         2 -11.4008    235.3636      4.8959   3.0151086236e+01   2.6686650780e+01      1.70614     0.466208 -61.48  0.005575275    5.446    0.816
         3 -10.9097    238.2884     16.5718   3.2308485203e+01   2.4814784912e+01    0.9004657    0.4182095 -58.96  0.004699097    1.964    0.491
         4 -10.6799    249.5733      7.7633   2.9792126093e+01   2.3517412554e+01     0.403665    0.2345234 -46.75  0.001968916    1.439    0.305
         5 -11.9486    248.6858     36.5191   3.5546349299e+01   2.0309662373e+01      1.45686    0.2607853 -39.14  0.005327778    3.741    0.733
         6 -10.8035    250.0394     18.6473   3.1870604275e+01   2.2208969688e+01    0.8007803    0.1269318 -37.99  0.003022406    3.944    0.746
         7 -10.6445    230.8954     13.5255   3.2238053360e+01   2.6693390150e+01     0.607029    0.4027501   3.91  0.003099949    3.183    0.686
         8 -10.6154    134.6155     17.3725   4.4498791466e+01   4.8743802710e+01    0.4691614    0.2979425  30.75  0.002382725    1.853    0.460
         9 -10.7763     87.7998     16.1993   5.4508321206e+01   5.9548428954e+01    0.3502264    0.2949138 -44.88  0.002173352    1.490    0.329
        10  -9.3938     91.3589     12.3605   5.1981975928e+01   5.9162377243e+01    0.2511804    0.1892792  30.36  0.001066182    1.207    0.171
        11 -12.4945    113.1359     12.4856   4.6938806079e+01   5.4278963163e+01    0.3596424    0.2722519 -21.36 0.0002800036    1.484    0.326
        12 -10.8701    141.1443     12.5924   4.1888683760e+01   4.7626046985e+01    0.3338731    0.2678993  11.80 0.0005151477    1.506    0.336
        13 -11.0887    101.3733     13.7186   5.0017263276e+01   5.6840297542e+01    0.2409418     0.199786  36.80 0.0003000148    1.071    0.066
        14  -9.4404    100.2714      9.6985   4.8729072444e+01   5.7449024642e+01    0.1879574    0.1705904  17.11 0.0002036898    1.137    0.120
        15  -9.1945    192.8041     13.1323   3.5495106517e+01   3.5200735830e+01    0.2008182    0.1831918 -22.21 0.0008144609    1.356    0.263
        16  -9.9599     67.0243     13.1375   5.9628912050e+01   6.4008693696e+01    0.3120405    0.1772468 -14.54  0.001475512    1.893    0.472
        17 -10.6552    204.4961     12.1132   3.4129011275e+01   3.2622037142e+01    0.3599118    0.2020257 -69.41  0.001057533    1.788    0.441
        18  -9.2314     60.7869     12.6540   6.1616051877e+01   6.5205989331e+01    0.2779966    0.1675055  18.77 0.0008692754    1.691    0.409
        19  -8.4408     80.0122     11.9751   5.4978171794e+01   6.1577277022e+01     0.152414    0.1280734  27.86 0.0004370861    1.019    0.019
        20  -9.3621     42.0270     11.4345   6.8599785529e+01   6.8458539777e+01    0.2175781    0.1410751  -5.29 0.0006018148    1.472    0.321
        21  -9.2721    128.4620     11.2394   4.3568887814e+01   5.0790425486e+01    0.1732245     0.117846 -41.00 0.0009486363    1.663    0.399
        22  -9.6655    112.3821      4.8692   4.4343164318e+01   5.5099246358e+01    0.3508291    0.2695907  76.67  0.002110512    1.336    0.252
        23 -10.5640     25.8580     10.4729   7.5869506543e+01   7.0808274557e+01    0.4596596    0.2594101  46.74  0.001098774    2.890    0.654
        24 -10.2107    209.2570      9.9756   3.3218019616e+01   3.1773245108e+01    0.2077294    0.1561779  76.42            0    1.232    0.188
        25  -8.9033    182.5459      2.5343   3.3894620650e+01   3.8622210305e+01    0.2031295    0.1254213 -21.45  0.001121232    1.994    0.498
        26  -9.6189    182.9784      8.9378   3.5462998365e+01   3.7920855399e+01    0.1922663    0.1558424  56.15  0.000629819    1.308    0.236
        27 -10.9542    186.3890      3.9243   3.3867519156e+01   3.7597168086e+01    0.3510495    0.2620572 -23.29  0.001011472    1.624    0.384
        28  -8.3911    103.6509      8.2824   4.7420504853e+01   5.6812942618e+01    0.1230601   0.09683687 -79.73 0.0007015711    1.649    0.394
        29  -9.5499     12.8255      8.5999   8.2024018550e+01   7.2517943350e+01    0.1471931   0.09429824  29.83  0.000953419    1.743    0.426
        30  -8.2500    224.3036      1.3261   3.0175366044e+01   2.9368664824e+01    0.1064492   0.08612867  48.85 0.0004005137    1.643    0.392
        31 -10.1860    223.1169      5.8277   3.1205276263e+01   2.9166216980e+01    0.3812116    0.2371151 -82.47 0.0009022629    1.430    0.301
        32  -9.8042    217.9722      3.4889   3.1089144582e+01   3.0513490798e+01     0.240163    0.1503543  80.70 0.0009163914    1.416    0.294
        33  -9.1826    138.6906      6.1999   4.0269541857e+01   4.8779971660e+01    0.1919583    0.1517952 -27.03  0.000529195    1.452    0.311
        34  -9.7944     94.8564      5.4745   4.8345926733e+01   5.9001679174e+01      0.36295    0.2245995  68.74  0.001944453    1.713    0.416
        35 -11.2519     65.5134      6.0929   5.6903864027e+01   6.4980498363e+01    0.4225048    0.2313967  38.85 0.0009300776    1.535    0.348
        36 -10.1886     32.3796      6.1932   7.0387195433e+01   7.0473130355e+01    0.2318825    0.1635689  16.10 0.0005502005    1.167    0.143
        37  -9.3467     73.5015      4.8510   5.3802159011e+01   6.3535885147e+01    0.3172399    0.1748831 -48.29   0.00149763    3.047    0.672
        38  -9.8765      6.0905      3.9356   8.3600725439e+01   7.3804684602e+01    0.3031166     0.139319 -41.68  0.001479168    2.108    0.526
        39  -8.5004    144.5273      5.5432   3.9211472152e+01   4.7433223889e+01    0.1290271    0.1109634  78.35 5.161915e-05    1.055    0.052
        40  -8.9956    203.1313      2.8447   3.2115201316e+01   3.3860228963e+01    0.2682024    0.1155562 -81.30  0.001157243    2.754    0.637
        41  -8.7482    149.0451      3.0138   3.7835315002e+01   4.6557902020e+01    0.2078835     0.129238  44.19  0.001120345    1.670    0.401
        42  -8.2549    120.6804      3.6939   4.2389927012e+01   5.3260406867e+01    0.1357044   0.08110502  40.09 0.0005489369    1.635    0.388
        43  -8.8307     78.0870      2.6846   5.1509643300e+01   6.2787888815e+01    0.1736505    0.1335924  38.74  0.000390155    1.064    0.061
        44  -8.5572     15.0144      2.9707   7.7801850249e+01   7.3035189833e+01    0.1378781    0.1008425  -7.83 0.0009809048    1.043    0.042
        45  -8.8792    248.4362      1.9116   2.8745033402e+01   2.4362544270e+01    0.1585517    0.0930654 -42.08 0.0003987087    1.529    0.346
        46 -10.1158    231.2181    115.8825   5.4888363309e+01   1.1734690462e+01    0.3594681    0.2366288 -56.90  0.001787478    1.689    0.408
        47 -10.7152    248.1307    112.8353   5.1754798722e+01   9.0868397637e+00    0.2682141    0.1934176 -49.62 0.0008872381    1.283    0.220
        48 -11.6077    248.4659    105.7678   5.0194752563e+01   1.0178899249e+01    0.8074124    0.2243318 -43.60   0.00289485    3.064    0.674
        49  -8.3976     52.6409    114.3050   9.9047174857e+01   4.7145533351e+01    0.1437779    0.1063871  69.82 0.0004085791    1.726    0.421
        50  -9.3264    104.9879    111.8937   8.1829451839e+01   3.9447302302e+01    0.2341631    0.2252278  -9.69 0.0005472508    1.043    0.041
        51  -9.3450     25.9724    111.9666   1.0746071259e+02   5.0451055618e+01    0.1951453    0.1677219 -63.08  0.001205206    1.025    0.025
        52  -9.2178     15.7622    112.1111   1.1084527081e+02   5.1204083413e+01    0.1934401     0.155928 -81.61 0.0006408752    1.188    0.159
        53 -10.7305    241.9972    104.8137   5.0866520624e+01   1.1539492777e+01     0.340701    0.1695168 -34.37  0.001562842    1.839    0.456
        54  -9.1722    119.9871    103.0211   7.5088855429e+01   3.8408926463e+01    0.2366125    0.1923652  87.86            0    1.618    0.382
        55 -10.0132    249.5817     98.3003   4.8449602170e+01   1.1174703739e+01    0.2128789    0.1614281  80.28  0.001234431    1.634    0.388
        56  -9.4758     72.0909     95.6937   8.7965993648e+01   4.8910883027e+01    0.2042589    0.1880276   9.09 0.0009253475    1.121    0.108
        57  -8.3524    165.0073     95.0260   6.1755608863e+01   2.9899573234e+01    0.1835681    0.1701376 -42.46  0.000464872    1.060    0.056
        58 -10.9571    242.4007     92.0329   4.8018774460e+01   1.3535658758e+01    0.3777873    0.1956417 -42.04  0.001832701    1.633    0.388
        59  -9.4439    225.3054     92.9797   5.0570842672e+01   1.6800747711e+01    0.2005022    0.1593586 -43.77 0.0005930625    1.118    0.105
        60  -9.2330     19.6085     91.7109   1.0593561719e+02   5.5815522181e+01    0.2454817    0.1833429 -31.38 0.0008642168    1.321    0.243
        61  -8.8145     99.2204     90.5990   7.7621156685e+01   4.5293808331e+01     0.205368    0.1428065  28.40 0.0005086593    1.561    0.359
        62  -9.2947     38.3080     89.9410   9.8605668157e+01   5.4585042623e+01    0.1940949    0.1837335  38.44 0.0003097152    1.241    0.194
        63 -11.1137    248.3995     85.9775   4.5958532732e+01   1.3337679337e+01     0.638604    0.3972792 -71.55  0.003219257    2.080    0.519
        64 -10.7950    246.3734     78.9261   4.4686615363e+01   1.4812714900e+01    0.7573012    0.3523107 -66.95  0.002648423    4.290    0.767
        65 -10.9036    243.0836     70.6375   4.3279555037e+01   1.6709312964e+01    0.4829688    0.2655139 -51.93  0.002465027    1.648    0.393
        66 -10.9287    237.3042     65.8350   4.2891604243e+01   1.8586376351e+01    0.4217282    0.3293348  37.44  0.002462699    1.736    0.424
        67  -9.4203    235.6042     61.1962   4.2063225343e+01   1.9612950555e+01    0.2010127    0.1596309 -73.87   0.00122135    1.201    0.167
        68 -10.1321    235.8587     56.1417   4.0924832456e+01   2.0282832771e+01    0.5382452    0.2786255 -36.13  0.002658741    1.796    0.443
        69  -9.9061    188.9995     88.0333   5.5203330403e+01   2.5603987819e+01    0.2094496    0.2013224 -61.42            0    1.017    0.017
        70  -9.2077     53.9859     88.4948   9.2435574425e+01   5.3111270903e+01    0.1909305    0.1119205  53.28 0.0008102006    2.519    0.603
        71  -8.3672    210.5167     91.5044   5.2456868353e+01   2.0183568745e+01      0.14465    0.1280164 -57.81 0.0002298795    1.068    0.064
        72 -10.1793    237.9944     84.1581   4.6852897622e+01   1.5650884139e+01    0.3917612    0.2390519 -81.50  0.001812503    2.431    0.589
        73  -9.9012    229.8039     83.9374   4.7874422035e+01   1.7346187338e+01    0.3738812    0.2271294  58.48 0.0008732129    1.813    0.449
        74  -8.6416    135.4904     83.5187   6.5309240881e+01   3.8954691774e+01    0.1506094    0.1492362  87.74 9.586859e-05    1.042    0.040
        75 -10.3463     87.7878     82.1630   7.8718897753e+01   4.9221478602e+01    0.3646135    0.2932259  59.67  0.001374707    1.540    0.351
        76  -8.9593     63.5800     82.2151   8.7157803909e+01   5.3195423850e+01    0.2019666     0.119964 -38.89 0.0005284116    1.593    0.372
        77 -10.8996    195.5097     82.1994   5.2587506812e+01   2.5113184746e+01    0.3037585    0.2385433  57.91 0.0002362987    1.321    0.243
        78  -8.7293    174.9783     78.7228   5.5313740685e+01   3.0498657622e+01    0.2038298    0.1925915  68.64 0.0004949932    1.062    0.058
        79  -8.5637     48.9532     79.5243   9.1852443496e+01   5.5745716398e+01    0.1912546    0.1340745  22.94 0.0006322009    1.534    0.348
        80  -9.4123    199.4702     76.9836   5.0627605061e+01   2.5073910649e+01    0.2009249    0.1844532  85.83 0.0003075762    1.093    0.085
        81  -9.6513    188.9449     82.0524   5.3667307553e+01   2.6650517860e+01    0.2326179    0.2048184  60.40 0.0003303076    1.168    0.144
        82 -10.2737    234.9697     74.3381   4.5050425723e+01   1.7787031456e+01    0.4669462    0.1712733 -43.32  0.001517991    2.310    0.567
        83  -8.2180     69.6875     82.3014   8.4980847555e+01   5.2256982238e+01    0.1353884    0.1155934  81.16 0.0004052178    1.609    0.379
        84  -8.9725     43.0148     75.0196   9.2881687030e+01   5.7429982314e+01    0.1640384    0.1418389 -30.10 0.0003825284    1.015    0.015
        85  -9.1126     19.6898     74.3270   1.0208927323e+02   5.9783980434e+01    0.1187271   0.09692748  76.13 0.0005203343    1.660    0.398
        86 -10.4781    128.9158     71.1634   6.3192404780e+01   4.2728203660e+01    0.3250386    0.2659729 -12.08 0.0003194615    1.374    0.272
        87  -9.0945     80.3280     71.9616   7.7982736026e+01   5.2624395706e+01    0.2037247    0.1828098 -20.68 0.0005051864    1.043    0.041
        88  -9.4753     71.3603     71.2256   8.0911248496e+01   5.4292323394e+01    0.2540351    0.1765278 -50.81 0.0009139442    1.529    0.346
        89 -10.0582     28.8225     71.4826   9.7623998354e+01   5.9650794269e+01    0.2471804    0.1956178 -60.46 0.0002978808    1.297    0.229
        90 -10.0254    113.9222     70.1400   6.6864160853e+01   4.6280266180e+01     0.416095    0.2960258 -86.80  0.001740224    2.448    0.591
        91  -8.9120     59.4124     70.7857   8.5209574204e+01   5.6212882435e+01    0.2017641    0.1161778 -37.01 0.0006035602    1.642    0.391
        92  -9.2610     37.2584     71.0832   9.4060620794e+01   5.8909159930e+01    0.2060264     0.178706   6.46 0.0004363175    1.213    0.176
        93 -10.3381    249.4165     65.2239   4.1430931635e+01   1.6257479399e+01    0.4291564    0.1914356 -52.18  0.001570986    2.091    0.522
        94  -8.2933    157.4735     70.5041   5.6457533849e+01   3.6080903327e+01      0.14628    0.1434169  52.69 8.773083e-05    1.038    0.036
        95  -8.6067    204.1754     68.8389   4.7881315177e+01   2.5301267074e+01     0.175824    0.1653501  15.76 0.0002859618    1.284    0.221
        96  -8.7376    192.2314     69.5847   4.9893257986e+01   2.7937345484e+01    0.1970556    0.1285619  49.24 0.0009392974    1.639    0.390
        97  -9.7291    139.2941     69.0170   6.0001683432e+01   4.0676606578e+01    0.4291758    0.2119402  52.09  0.001130942    1.962    0.490
        98 -10.2202     94.9733     66.7412   7.1386651309e+01   5.0862886914e+01    0.4070986    0.2445369 -18.71  0.001268932    2.225    0.551
        99  -9.4197    227.7577     66.3062   4.4126039374e+01   2.0503158073e+01    0.2767128    0.1801815 -27.08  0.001423974    1.731    0.422
       100  -8.8483    173.0757     66.7069   5.2374415517e+01   3.2942312379e+01    0.1980393    0.1831222  68.88 0.0004067757    1.065    0.061
       101 -10.1313    149.0031     66.9803   5.7205387573e+01   3.8702778000e+01    0.2920432    0.2102755  59.45 0.0004372332    1.382    0.276
       102  -9.1862    144.3378     64.4191   5.7450656813e+01   4.0241236619e+01    0.3065168     0.228766 -57.15  0.001116422    1.515    0.340
       103  -9.8168     15.2197     66.1594   1.0192515965e+02   6.1893367101e+01    0.2187642    0.1602801 -31.75 0.0003316726    1.197    0.165
       104  -8.3269      3.3165     67.6929   1.0732222453e+02   6.2273977579e+01    0.1103876   0.09017909  73.40 0.0002996343    1.630    0.386
       105  -9.4244     28.7467     65.9488   9.6115855362e+01   6.0843860686e+01    0.1897478    0.1707839 -11.52 0.0003672109    1.149    0.129
       106  -9.3900    208.5172     64.6276   4.6231232445e+01   2.4964934834e+01    0.2316267     0.203046 -55.94 0.0001895779    1.048    0.046
       107 -10.7615    101.3504     62.9122   6.8115349337e+01   5.0246981418e+01    0.4738747     0.373567 -87.83  0.001239593    1.935    0.483
       108  -9.3333     49.8218     64.9631   8.7089348190e+01   5.8707126780e+01    0.2206054    0.1654411 -22.34  0.001235191    1.256    0.204
       109  -8.4429      5.4620     64.4843   1.0568989466e+02   6.2858064873e+01    0.1250079   0.09558367 -44.64 0.0003922009    1.024    0.024
       110 -11.0908     39.6583     60.4066   8.9798105177e+01   6.0861235147e+01    0.3669356    0.3139989  88.62  0.002174097    1.776    0.437
       111 -10.3517     34.7489     59.8198   9.1701384708e+01   6.1517674274e+01    0.3249293    0.2034514 -33.12 0.0004839541    1.425    0.298
       112 -10.0123    134.5631     59.1964   5.8042716040e+01   4.3407819620e+01    0.6644103     0.280075 -54.68  0.001920383    4.668    0.786
       113  -9.6025     82.8264     61.3815   7.3531426590e+01   5.4169321169e+01    0.3921138     0.229173  14.08  0.001560516    2.642    0.621
       114  -9.8259     20.0507     57.0020   9.7292215781e+01   6.3456292891e+01    0.2087711    0.1790748  13.24 0.0005730769    1.317    0.241
       115 -10.3931     24.8303     58.9146   9.5739619301e+01   6.2661733598e+01    0.3124078    0.2555823 -38.06  0.002018617    1.064    0.061
       116 -10.9200    243.9710     58.1649   4.0503976359e+01   1.8343826034e+01    0.3222639    0.2733659  85.67  0.001190894    1.221    0.181
       117 -11.0494    243.5531     51.0915   3.9042976796e+01   1.9412753429e+01    0.4757803    0.3611394 -37.75   0.00241534    1.303    0.232
       118  -8.5323    175.1134     58.2623   4.9690866598e+01   3.3757561195e+01    0.3398949    0.1896655  32.20  0.001305789    2.878    0.653
       119  -8.6535    173.7076     53.9817   4.8746470115e+01   3.4729099036e+01    0.4147313    0.1976932 -66.18  0.001260829    4.469    0.776
       120  -9.2599     93.0340     59.1961   6.9402797779e+01   5.2588112272e+01    0.2177148    0.1817449   9.61 0.0004083848    1.205    0.170
       121  -9.5256    192.4713     56.0730   4.6372105956e+01   2.9938528303e+01    0.2643941    0.1937753 -72.41 0.0008483805    1.451    0.311
       122  -9.0386    120.2738     56.6937   6.0725326394e+01   4.7132318125e+01    0.2475118    0.1722175  54.24 0.0004553223    1.415    0.293
       123  -8.6594     89.7737     57.1780   6.9734977044e+01   5.3579539647e+01    0.1903046    0.1526392   6.61 0.0002235418    1.296    0.228
       124  -9.8807     63.5232     56.0375   7.8615323361e+01   5.8449734390e+01     0.397112    0.2970076  80.83  0.001695148    2.831    0.647
       125  -9.4669    207.6466     55.2140   4.4058468962e+01   2.6550889166e+01    0.3250093     0.196038  55.22  0.001622085    1.743    0.426
       126 -10.1050    205.0182     51.7358   4.3551964545e+01   2.7644858700e+01    0.2518665    0.2143508 -52.30 0.0003318848    1.108    0.097
       127  -9.4134    207.4930     48.4750   4.2444276813e+01   2.7533560231e+01    0.2655906    0.1960949 -56.32 0.0007376551    1.257    0.205
       128 -10.1340    112.4900     55.0247   6.2220207637e+01   4.9152596269e+01    0.4063396    0.2925789  53.36  0.001520677    1.384    0.278
       129  -8.9682     28.3441     54.4561   9.2784977982e+01   6.3236009666e+01    0.2448146    0.1165161 -35.96  0.001176354    1.906    0.475
       130  -8.3917    221.3277     54.3226   4.2152665676e+01   2.3630673575e+01    0.1247645    0.1035534  24.91 0.0002875041    1.691    0.409
       131  -8.9270    142.6166     54.2590   5.4697503582e+01   4.2241180729e+01    0.2403252    0.1634645  36.61 0.0005533098    1.613    0.380
       132  -9.7576    124.9875     54.0058   5.8649333624e+01   4.6462769274e+01    0.2185714    0.2041063  33.97 0.0003247723    1.026    0.026
       133  -9.4396     10.0792     52.4818   1.0052325227e+02   6.5101598742e+01     0.230479     0.191716  24.06  0.001082855    1.470    0.320
       134 -10.0848    228.2938     50.8527   4.0574401421e+01   2.2613009652e+01     0.331706      0.28862 -59.96  0.002131318    1.053    0.050
       135  -9.7593    120.2987     50.5068   5.8643003039e+01   4.8075255057e+01    0.2272414    0.2180944  24.00 0.0002167253    1.032    0.031
       136  -9.8805     84.4957     50.8152   6.9159880513e+01   5.5663590045e+01    0.3230294    0.1969601  51.93  0.001523293    1.852    0.460
       137  -9.4720     79.9969     49.9928   7.0377175152e+01   5.6649817264e+01    0.2872926    0.2136678   3.47   0.00151808    1.451    0.311
       138 -10.3211     73.2780     49.5038   7.2561034094e+01   5.7951351398e+01    0.3386609    0.2231279  -9.95  0.001656952    1.796    0.443
       139 -10.5162    192.6447     49.0967   4.4554397639e+01   3.0890603976e+01     0.344344    0.2264571  83.92  0.001034999    1.643    0.391
       140  -9.4330    233.2560    247.1351   8.0383075359e+01  -9.5397868981e+00    0.1939068    0.1485995  46.37  0.001179356    2.063    0.515
       141 -10.3445    238.7467     37.7632   3.6677039526e+01   2.2162606153e+01    0.4362145    0.2458509  55.12  0.002353513    2.084    0.520
       142  -9.1886    225.6673    243.6134   8.1174608054e+01  -8.1013049180e+00    0.1962233    0.1796963  65.82  0.001330656    2.040    0.510
       143  -9.6240    246.9123    240.3252   7.6866063972e+01  -1.0373159987e+01    0.1895225    0.1426906 -25.82  0.001318612    1.393    0.282
       144  -8.9218    230.5915    236.8025   7.9153402608e+01  -7.8374850824e+00    0.1503233    0.1060182 -36.75 0.0006059062    1.633    0.388
       145 -10.7896    244.3719     42.0219   3.7058706373e+01   2.0462998864e+01    0.3769955    0.3060049 -34.85  0.001827301    1.349    0.258
       146  -9.3110    240.5264    240.8420   7.8062537371e+01  -9.6487975511e+00    0.1775594    0.1561487  59.48  0.001175796    2.271    0.560
       147 -10.2861    246.4837     23.4733   3.3086981012e+01   2.2351599652e+01    0.4554126    0.2032158 -84.77  0.002039463    2.751    0.637
       148  -8.5668    249.4527    234.4883   7.5444708027e+01  -9.9389629761e+00    0.1169142   0.08983689  -2.52 0.0006388535    1.055    0.052
       149  -8.3889    159.6015     49.8270   5.0016501775e+01   3.8757397835e+01    0.1873846     0.126886 -47.68 9.242698e-05    1.539    0.350
       150  -8.8663    213.0232     47.0289   4.1428436010e+01   2.6481722186e+01    0.2222607    0.1374047 -65.63 0.0009486513    1.692    0.409
       151  -9.9066     40.5984     46.4141   8.4512172369e+01   6.3414188813e+01    0.3361839     0.232517  54.09  0.001616226    2.448    0.591
       152  -9.2213     20.0518     47.0780   9.4169979119e+01   6.5428053717e+01    0.1879522    0.1485355 -25.59 0.0003660681    1.030    0.030
       153  -8.9012    163.9480     46.0049   4.8143636861e+01   3.8227389296e+01    0.2208263    0.1580085 -68.26 0.0005251176    1.596    0.373
       154  -8.6168    156.8418     46.2153   4.9454548754e+01   3.9934438967e+01    0.1910672    0.1629117  28.75 0.0005905769    1.328    0.247
       155  -8.7866     54.6422     46.2926   7.8498065499e+01   6.1527231372e+01    0.1911727     0.109762 -31.14 0.0003752208    1.668    0.401
       156  -9.2372    233.3136     45.0824   3.8771712912e+01   2.2334856500e+01    0.1831484     0.142256 -54.18 0.0006197057    1.108    0.098
       157  -9.7002    133.8114     43.5861   5.3195768171e+01   4.5879151461e+01    0.4834071    0.3070376  83.70  0.002105365    2.235    0.553
       158  -8.8036    238.4127     44.2445   3.8087468271e+01   2.1385298968e+01    0.1729393   0.09775505 -47.67 0.0004333284    1.506    0.336
       159 -10.7202    239.0551     30.9619   3.5219269323e+01   2.2955015265e+01    0.4907662    0.2740917  70.00  0.000331908    1.799    0.444
       160 -10.1320     96.4088     43.2481   6.2591102761e+01   5.4418841980e+01    0.3368132    0.2080735  32.88 0.0008939833    1.646    0.392
       161  -9.6236     92.7733     41.0453   6.2857916103e+01   5.5493416275e+01    0.4442205     0.191493  55.71  0.001727895    2.678    0.627
       162 -10.6836     32.3258     43.7396   8.7245845544e+01   6.4859806930e+01     0.541887    0.2450264  31.13  0.001921679    2.325    0.570
       163  -8.8697      3.6717     43.2834   1.0088755641e+02   6.7325417167e+01    0.1810431     0.104505 -58.03 0.0005238899    1.594    0.373
       164  -9.3815      1.4246     39.9925   1.0100650910e+02   6.8089832454e+01    0.1698971   0.09381019 -53.94 0.0003341468    1.519    0.342
       165 -11.0458    213.5719     37.5626   3.9143130393e+01   2.7609340037e+01    0.5269389    0.2986686 -84.68  0.002371698    2.038    0.509
       166 -10.2793    212.0338     31.9510   3.8000085620e+01   2.8659198443e+01    0.3681298    0.2263207 -84.68 0.0009437657    1.695    0.410
       167  -8.7897    152.8556     40.8489   4.8574560993e+01   4.1626112303e+01    0.2020616     0.162826 -77.23  0.001088425    1.360    0.265
       168  -8.7833    171.3817     40.5077   4.5380626562e+01   3.7147428796e+01    0.2954494     0.117605  58.80 0.0007472102    2.273    0.560
       169  -8.5608    106.6238     40.1451   5.8565878466e+01   5.2642827627e+01    0.1816689    0.1300726 -12.01 0.0004359597    1.579    0.367
       170  -8.9983     19.9941     39.9934   9.1733630169e+01   6.6764718849e+01    0.1505113    0.1189863 -21.86 0.0005098642    1.022    0.022
       171  -9.2193    185.4254     37.3497   4.2501263026e+01   3.4165708617e+01    0.3495949    0.1360758 -42.44    0.0014298    2.456    0.593
       172  -9.2452    119.7822     39.0061   5.4838613214e+01   4.9802034489e+01    0.1940397    0.1811377 -79.51 0.0003911893    1.217    0.178
       173  -9.8361     61.4763     38.3656   7.2620728579e+01   6.1743403008e+01    0.2676908    0.2283269 -42.21  0.001026072    1.431    0.301
       174  -8.4801    201.3215     38.6965   4.0817703241e+01   3.0253839585e+01    0.1404207   0.08984891 -68.03 0.0007029313    1.633    0.388
       175  -8.1374    239.3184    232.3101   7.6834090906e+01  -8.3731897467e+00    0.1249746   0.07582319  -0.66 0.0004223273    1.641    0.391
       176  -9.3994    192.0133     36.7556   4.1485360808e+01   3.2676969561e+01    0.2882802    0.1661584  77.06 0.0008081222    1.756    0.430
       177 -10.5959    124.4162     35.4800   5.2563527994e+01   4.9167429002e+01    0.3979061    0.2539296 -32.69  0.001576703    1.677    0.404
       178  -9.4205    113.1515     36.0631   5.5415256195e+01   5.1709963850e+01     0.310211    0.1676501  37.05  0.001368695    1.951    0.487
       179  -8.4171     99.3056     36.6149   5.9276952914e+01   5.4717610946e+01    0.1357691    0.1076407 -68.41 0.0007019494    1.797    0.444
       180  -8.6191    165.4885     34.9887   4.4741423886e+01   3.9280708861e+01    0.1916843   0.09897406 -54.94 0.0005036687    2.307    0.567
       181  -9.0314     91.5144     35.5109   6.1123657611e+01   5.6515441963e+01    0.2764508    0.1240638  49.63  0.001184096    2.074    0.518
       182  -9.7384      5.0139     33.3923   9.6986255500e+01   6.9119908481e+01    0.2802083    0.1543566 -63.80   0.00151118    2.312    0.568
       183  -9.1311    226.7631     32.5301   3.6662918121e+01   2.5348147258e+01    0.3530614    0.1329294 -34.56  0.001562477    2.507    0.601
       184  -8.6520    153.2142     33.8348   4.6404317196e+01   4.2420448584e+01     0.249082    0.1334413 -66.87 0.0009611358    2.941    0.660
       185  -9.4555    134.0402     32.2542   4.9454640313e+01   4.7267249627e+01    0.2116453    0.1969436 -26.24 0.0004042273    1.174    0.148
       186  -9.9480     51.6750     37.5553   7.6251643008e+01   6.3406768110e+01    0.2517738    0.2164387 -28.92 0.0007511465    1.254    0.203
       187  -9.2203     39.1626     33.0551   7.9856398495e+01   6.5863351964e+01    0.1997675    0.1438206  -9.70 0.0008302046    1.250    0.200
       188  -8.0654     33.3024     33.3444   8.2704805281e+01   6.6543520121e+01     0.131834   0.08034953 -13.98 0.0007039264    1.683    0.406
       189 -10.1068     20.1632     31.9388   8.8583775778e+01   6.8178014908e+01    0.1868375    0.1456494  -6.36 0.0003904069    1.123    0.109
       190  -9.8591     24.0775     30.7447   8.6124560996e+01   6.7994114126e+01    0.1719425    0.1298715 -13.84 0.0003943842    1.076    0.071
       191  -9.1816     70.4115     31.4368   6.6412945579e+01   6.1191156165e+01    0.3951215    0.1032923  41.79  0.001359451    3.568    0.720
       192 -10.8821     14.5640     30.2869   9.0812908868e+01   6.8963438031e+01    0.3816182    0.2051243  19.44 0.0009711739    1.904    0.475
       193  -9.8782      8.3705     26.3540   9.2561783088e+01   7.0136254833e+01    0.2211521    0.1924875   6.15 0.0008005004    1.350    0.259
       194 -10.4382    224.7994     26.7242   3.5570916354e+01   2.6479415188e+01    0.3186737    0.2694303   3.03 0.0002357949    1.754    0.430
       195  -9.1624    224.1155     22.3707   3.4679951412e+01   2.7140230648e+01    0.2897094    0.1397242  83.35  0.001084357    2.148    0.535
       196  -8.9230     84.6173     28.9493   6.0642824152e+01   5.8774337055e+01    0.1812975    0.1600595   6.99 0.0003859551    1.078    0.073
       197  -8.7661    167.0112     28.5183   4.2683389105e+01   3.9681387090e+01    0.2005696    0.1229407  69.25 0.0004931113    1.505    0.335
       198  -9.2464    123.3853     26.7140   4.9792266659e+01   5.0445949870e+01    0.3309549    0.2050716   1.27  0.001156128    2.257    0.557
       199  -8.7146     63.4755     25.6975   6.6504212253e+01   6.3192876887e+01    0.2073491    0.1326539  34.58 0.0005933906    1.416    0.294
       200 -10.0474    218.7450     25.9508   3.5960587479e+01   2.7891390924e+01    0.2201134    0.1898498 -65.15 0.0003674669    1.078    0.072
       201  -9.0824    215.0287     22.9914   3.5644089250e+01   2.9059310079e+01    0.1794879    0.1483532 -69.50 0.0003795714    1.037    0.035
       202  -8.5082    202.2414     26.7683   3.7814660573e+01   3.1510340143e+01    0.1886803    0.1117807 -15.76 0.0008957342    2.474    0.596
       203  -9.8348    192.5906     26.0137   3.8704670350e+01   3.3841519396e+01    0.2789146    0.2101355  25.50 0.0005130217    1.897    0.473
       204  -8.4402     30.6699     27.2661   8.1383527766e+01   6.7827037659e+01    0.1023547   0.09564544  34.27 0.0002900545    1.577    0.366
       205  -8.7736     27.4806     26.9542   8.2818719329e+01   6.8243405746e+01    0.1511856    0.1066367 -61.90 0.0008097774    2.627    0.619
       206  -9.9361    136.9935     25.6331   4.6738650098e+01   4.7312656277e+01    0.2293093    0.1989326 -25.53 0.0004341842    1.280    0.219
       207  -8.0576    105.3140     26.2779   5.3805599187e+01   5.4661185541e+01    0.1392933   0.09146199  30.65 0.0002219493    1.567    0.362
       208  -9.2959     37.9636     25.9253   7.7315022333e+01   6.7115034707e+01    0.1916657    0.1486394  -5.91 0.0004618482    1.058    0.054
       209  -8.9429    174.2008     25.0205   4.0719869802e+01   3.8337379320e+01    0.1826471    0.1670603 -72.46 0.0005910639    1.082    0.076
       210  -9.3416    142.2762     23.5971   4.5146101170e+01   4.6254520954e+01    0.3440311    0.1704278 -33.77  0.001586609    2.138    0.532
       211  -8.6953     78.2057     25.3992   6.1226006983e+01   6.0487021115e+01    0.1792104    0.1197304  55.72 0.0007704581    1.659    0.397
       212  -9.5095    199.1984     21.2882   3.6817687218e+01   3.2840837577e+01    0.2485113    0.2025081 -39.84  0.001092808    1.300    0.231
       213 -10.4245    157.7693     22.7747   4.2403034979e+01   4.2572176171e+01     0.429395    0.1754136  59.92 0.0009401896    2.095    0.523
       214  -8.7595     77.8115     21.4595   5.9697700833e+01   6.1026182985e+01    0.2210625    0.1389767 -47.98  0.001108197    2.279    0.561
       215  -9.6676     70.9170     20.3522   6.1503513182e+01   6.2486117958e+01    0.3059744      0.22113 -48.59   0.00136456    1.964    0.491
       216  -9.2087    232.7289     20.6714   3.3589999481e+01   2.5501796602e+01    0.2028231    0.1480914 -54.71 0.0007171504    1.175    0.149
       217  -8.6965    103.3086     20.9651   5.2309397319e+01   5.5689448269e+01    0.2086085   0.07904852 -46.00 0.0007044112    4.266    0.766
       218  -9.2035    169.0025     18.5176   3.9628834455e+01   4.0296360448e+01    0.2209411     0.180694  79.59  0.000569021    1.086    0.079
       219  -8.7414    172.9798     17.0000   3.8710363046e+01   3.9495465035e+01     0.195863    0.1616748  81.35  0.001197127    1.067    0.063
       220  -8.7573    229.4663    228.4992   7.7941667846e+01  -6.5407714748e+00    0.1232712   0.09835977   0.91 5.942461e-05    1.030    0.029
       221  -9.0148    128.2867     19.0017   4.6192389603e+01   5.0097902824e+01     0.282921    0.1757895  72.26  0.001424457    1.624    0.384
       222 -10.7355    238.7423    219.8891   7.4767225575e+01  -6.5819367054e+00    0.4790044    0.2377592 -37.99  0.002394492    1.998    0.499
       223  -8.9030    193.6982    220.3392   8.3355873213e+01  -5.3074306192e-02     0.118361    0.1062846  70.86 0.0007037569    1.669    0.401
       224  -9.0270     62.1731     19.0386   6.4033929695e+01   6.4244034744e+01    0.1928972    0.1175562  25.10  0.001039717    1.573    0.364
       225  -9.6243     50.8394     18.4284   6.8196767673e+01   6.6238599465e+01    0.3407379    0.1512857  35.22  0.001647392    2.089    0.521
       226 -10.6080    121.8179     17.7008   4.7009507407e+01   5.1760282077e+01    0.2225757    0.2066514  73.08 0.0001815235    1.114    0.103
       227 -10.4519     24.0217     17.8716   8.0458726514e+01   7.0009028873e+01    0.3907322    0.1434686  32.40  0.001470267    2.713    0.631
       228  -8.8587    195.4939     17.0612   3.6178275280e+01   3.4162252500e+01    0.1978152    0.1491579  83.20  0.000621189    1.178    0.151
       229  -9.1721    156.7244     16.8080   4.0819549969e+01   4.3445671410e+01    0.2726104    0.1278966 -50.87  0.001184748    2.489    0.598
       230 -10.8684    247.8190    217.0442   7.2677037061e+01  -7.3896170481e+00    0.4334679    0.2332041 -36.12  0.002331265    1.775    0.437
       231  -8.6817     45.4237     17.2305   6.9927961798e+01   6.7237596428e+01    0.1475832    0.1080465 -30.94 0.0002805537    1.473    0.321
       232  -9.1006    212.3522    219.5665   7.9568136336e+01  -2.7820366563e+00    0.2197585    0.1134254  37.59 0.0008113869    1.893    0.472
       233  -9.4458    233.1904    212.6914   7.4462132404e+01  -4.7697320194e+00     0.305609    0.1774469 -21.24  0.001645989    1.665    0.399
       234  -9.1240    249.9858    201.4977   6.9464765127e+01  -5.4542374821e+00    0.2219775    0.1550971 -39.82  0.000922207    1.562    0.360
       235  -9.2943    242.4634    200.7118   7.0605304936e+01  -4.2904234719e+00    0.3077032    0.1075696 -35.29  0.001304261    2.588    0.614
       236  -8.3358     64.6879    202.6963   1.0940734339e+02   2.3937909955e+01    0.1233525    0.1022778 -31.52 0.0002629973    1.614    0.380
       237  -9.9507    247.3647    193.5817   6.8415966901e+01  -3.9081030466e+00    0.3010897    0.1974733 -43.48  0.001666221    1.707    0.414
       238  -9.1620    231.4644    194.2074   7.1312496008e+01  -1.6704751572e+00    0.2347558    0.1765043  27.39   0.00126025    1.343    0.255
       239  -9.0314    237.5309    192.0299   6.9814578914e+01  -2.2375650568e+00    0.1954456    0.1119567 -34.52   0.00068168    1.568    0.362
       240  -9.7046    237.3394    187.4844   6.8966729543e+01  -1.4891957328e+00    0.2958077    0.1635276 -38.97  0.001093131    1.695    0.410
       241  -8.4969     33.0377     12.5746   7.3339369565e+01   6.9609505905e+01    0.1658041    0.1010836  29.98 0.0003801383    1.521    0.343
       242  -9.0798    250.2167    185.2542   6.6338246402e+01  -3.0435152089e+00    0.1983964    0.0861894 -43.73 0.0008815644    2.417    0.586
       243  -9.6053    241.6126    180.5513   6.6866443633e+01  -1.0301126585e+00    0.3290198    0.1072583 -41.84  0.001267178    2.935    0.659
       244  -8.6023    170.6749    176.7011   8.0014854429e+01   1.1926158617e+01    0.1510039    0.1122245  -0.85    0.0002973    1.631    0.387
       245  -8.5997    233.2834    174.6483   6.7129268756e+01   1.2375224999e+00    0.1250205    0.1027959 -57.99  0.000272852    1.657    0.396
       246  -9.4208    225.8868    172.6639   6.8042999600e+01   2.7832607070e+00    0.2735504    0.1839291 -39.85  0.001407811    1.418    0.295
       247  -9.7737    243.3905    168.8904   6.4236204354e+01   5.8154905265e-01     0.258592    0.1619324  19.05  0.001324337    1.935    0.483
       248 -10.0019    246.1135    158.0889   6.1590138971e+01   1.9213254312e+00    0.2420928    0.1595434 -39.88 0.0009304546    1.368    0.269
       249  -9.1715    226.5200    156.9627   6.4657230707e+01   5.4008715923e+00    0.2172163    0.1226683 -36.85 0.0008809582    1.582    0.368
       250  -8.8245    146.7653    157.5541   8.1540076303e+01   2.0630174136e+01    0.2102157    0.1449036  52.01 0.0008295494    1.582    0.368
       251 -11.0015    244.1132    148.7133   5.9969022019e+01   3.8061953659e+00    0.5141666    0.2260862 -30.00   0.00183196    2.302    0.566
       252  -9.3462    222.0321    152.9858   6.4603790292e+01   6.9009341572e+00    0.2158685    0.1729934 -68.03  0.001138989    1.723    0.420
       253 -10.4070    250.0210    151.0827   5.9531484559e+01   2.4440449829e+00    0.3199668    0.1650334 -42.93  0.001399855    1.763    0.433
       254  -8.9535    235.3240    147.6461   6.1171129925e+01   5.4846506987e+00    0.1352192    0.1032914 -63.57 0.0007046894    1.762    0.432
       255  -9.1574    224.4483    145.7317   6.2606808875e+01   7.7571556498e+00    0.2717033    0.1222795 -41.91  0.001130582    2.020    0.505
       256  -9.1137    199.6408    139.7885   6.5846867244e+01   1.3615381903e+01    0.2121026    0.1289277 -47.37 0.0009385286    1.649    0.393
       257  -8.7693    209.7201    138.0127   6.3531859305e+01   1.1952396771e+01    0.2068311    0.1808006 -32.25 0.0008591491    1.044    0.042
       258 -10.8108    241.9045    134.8084   5.7376155007e+01   6.5275181261e+00     0.498933    0.2979689 -24.92  0.002028838    1.750    0.429
       259 -10.1590    248.8665    135.1257   5.6385053485e+01   5.2711752875e+00    0.3134324    0.1649345 -42.74  0.000963349    1.662    0.398
       260  -9.3276    248.9943    130.5104   5.5393193838e+01   6.0149012367e+00    0.2396139    0.2197447  42.01  0.001546539    1.293    0.227
       261  -8.9853     13.5208    133.0138   1.1439932246e+02   4.6240940051e+01    0.1967604    0.1071646 -72.16 0.0004877269    1.517    0.341
       262  -8.9889     65.2904    132.0638   9.8638355588e+01   4.1092922543e+01    0.2035311    0.1748717 -64.78 0.0003464891    1.085    0.079
       263 -10.3671    241.0383    124.7921   5.5353559443e+01   8.3779740932e+00    0.3637002    0.1762815 -45.45  0.001638944    1.893    0.472
       264  -8.5347    188.7595    123.9996   6.4272374462e+01   1.8938825550e+01    0.2002165     0.121832 -40.00 0.0006115616    1.556    0.357
       265  -9.6382     69.1992    122.9276   9.5542976428e+01   4.2822403174e+01    0.2223931    0.2100875  31.59 0.0003543112    1.140    0.123
