#   1 NUMBER                 Running object number                                     
#   2 MAG_AUTO               Kron-like elliptical aperture magnitude                    [mag]
#   3 X_IMAGE                Object position along x                                    [pixel]
#   4 Y_IMAGE                Object position along y                                    [pixel]
#   5 X_WORLD                Barycenter position along world x axis                     [deg]
#   6 Y_WORLD                Barycenter position along world y axis                     [deg]
#   7 A_WORLD                Profile RMS along major axis (world units)                 [deg]
#   8 B_WORLD                Profile RMS along minor axis (world units)                 [deg]
#   9 THETA_WORLD            Position angle (CCW/world-x)                               [deg]
#  10 FWHM_WORLD             FWHM assuming a gaussian core                              [deg]
#  11 ELONGATION             A_IMAGE/B_IMAGE                                           
#  12 ELLIPTICITY            1 - B_IMAGE/A_IMAGE                                       
         1 -14.6011    167.2656     45.2513   7.6625866849e+01   3.7988423968e+01     1.955485     1.217634  24.92  0.005830611    2.493    0.599
         2 -13.5491    190.2760     15.4074   6.5097822021e+01   3.5993268386e+01    0.6521286    0.3102474  61.54  0.003084005    1.818    0.450
         3 -14.2444    180.7026     30.4619   7.0321020339e+01   3.6600846534e+01    0.8743075    0.7595147 -20.78  0.004029875    1.376    0.273
         4 -13.9209    184.9945     23.6352   6.7899248813e+01   3.6359898321e+01    0.7624235    0.6136435 -58.14  0.001444315    1.268    0.211
         5 -13.3640    199.5951      6.5211   6.1844670872e+01   3.4682965684e+01    0.6118714    0.3620111 -46.56  0.003340739    1.711    0.416
         6 -10.9552     49.6721      6.6750   9.3395099319e+01   6.6547372515e+01    0.1204976    0.0711805  10.34 0.0007049816    1.697    0.411
         7 -11.8456    184.0024    215.5274   1.1372210579e+02   1.5843413231e+00    0.2447354    0.2000898 -69.25  0.000918993    1.569    0.363
         8  -9.6709    196.7596    249.9959   1.1688982593e+02  -6.1524569573e+00    0.1381759    0.1048786 -35.86 0.0004208387    1.539    0.350
         9 -19.6857     39.8121    160.3285   1.3710875856e+02   3.7702841551e+01     19.93139     5.218853 -69.84   0.06857745    3.665    0.727
        10 -12.2380    112.1144    196.6052   1.2578768433e+02   1.8747903815e+01    0.5350261    0.3532072  10.90  0.002131584    3.296    0.697
        11 -11.5565    103.4922    194.3982   1.2734968851e+02   2.0729116110e+01    0.3968809    0.2355331  30.52  0.001797831    2.149    0.535
        12 -10.5181    180.1236    193.2509   1.1045158505e+02   6.4473891877e+00    0.2737539    0.1961001 -79.07  0.001243932    2.134    0.531
        13 -10.6099    157.7975    193.0341   1.1516513724e+02   1.0907322062e+01    0.2174595    0.1879274  81.70 0.0004420776    1.266    0.210
        14 -10.9245     10.3459    213.7755   1.4812797402e+02   2.8972277540e+01    0.1671339    0.1364883  22.81  0.001047148    1.980    0.495
        15 -11.7477    207.9712    185.0410   1.0315475322e+02   2.5198928649e+00    0.3301902    0.2879091   5.44 0.0009524046    1.170    0.145
        16 -11.8035    211.8421    181.3681   1.0164565841e+02   2.4395455245e+00    0.3627843     0.268199 -22.42  0.001220125    1.461    0.316
        17 -12.2195    107.4694    210.7501   1.2885328086e+02   1.6507958936e+01    0.4288324    0.2548682  48.06  0.002162005    1.519    0.342
        18 -11.7585     99.0564    180.8579   1.2624810071e+02   2.4551321636e+01    0.2904027     0.275143 -46.73 0.0009511644    1.273    0.215
        19 -12.8085    110.7294    204.9837   1.2734391251e+02   1.7173789002e+01     0.478392    0.2693451  51.82   0.00226294    1.649    0.393
        20 -10.6770    197.7076    176.3148   1.0342775918e+02   6.2006853636e+00    0.3719122    0.2336453 -56.79  0.001638677    1.956    0.489
        21  -9.7263    168.4479    175.5166   1.0945626295e+02   1.2387577638e+01    0.1482086    0.1434854  26.56 -0.0001720474    1.062    0.058
        22 -12.0725    127.0497    173.0812   1.1837795312e+02   2.1270227526e+01    0.5003878    0.2961788  59.89  0.002116405    1.929    0.482
        23 -14.0080     10.9558    206.6945   1.4753487027e+02   3.0375605506e+01    0.4801628    0.3605948  33.65  0.002805525    1.804    0.446
        24 -12.2313    137.1528    170.8114   1.1558747480e+02   1.9805991387e+01    0.4815767    0.3306879 -79.43   0.00211905    1.889    0.471
        25 -11.7237    133.1137    169.8160   1.1633549173e+02   2.0831192011e+01    0.4236539    0.2881716 -63.54  0.001234057    1.565    0.361
        26 -10.3897    228.6611    171.3288   9.6353811552e+01   1.0099058654e+00    0.1382441    0.1132102 -79.39 0.0007051797    1.735    0.424
        27 -11.0591    145.6443    168.1073   1.1308184935e+02   1.8697296408e+01    0.2568397     0.203714  58.52 0.0004421368    1.265    0.209
        28  -9.8294    121.7486    164.8215   1.1805882601e+02   2.4183686427e+01    0.2044105    0.1657745  80.14 0.0003625038    1.311    0.237
        29 -12.8921    101.3245    156.4559   1.2144693274e+02   2.9889180311e+01      0.67202    0.4188952 -40.91  0.003000225    1.898    0.473
        30 -10.1352    118.9040    155.3010   1.1686387086e+02   2.6946570355e+01     0.209511    0.1874458  56.89 0.0003759386    1.112    0.100
        31 -10.7860    161.9043    153.5101   1.0624296752e+02   1.8497296678e+01    0.2403724    0.1515554  45.61  0.001027128    1.573    0.364
        32 -11.9413    133.7171    144.6354   1.1093974293e+02   2.6483992238e+01     1.101151     0.270316 -54.42  0.002564388    5.630    0.822
        33 -10.7797    174.8627    149.1163   1.0235356126e+02   1.6610085812e+01     0.242639     0.213497 -88.11 0.0005961204    1.261    0.207
        34 -11.8577    144.6243    146.0137   1.0860131127e+02   2.3884478405e+01    0.4194687    0.2699974 -75.82  0.001625246    2.301    0.565
        35 -12.2608    110.9370    140.8652   1.1585079904e+02   3.1849904001e+01    0.5706059    0.3120663 -38.50  0.002250596    2.230    0.552
        36 -10.5807    115.6349    138.3102   1.1408198153e+02   3.1560555105e+01    0.2514248    0.1818438  61.24 0.0007055624    1.530    0.347
        37 -12.4529    100.0007    141.3777   1.1879311498e+02   3.3707472698e+01    0.2752269    0.2629068  35.57 0.0004416737    1.167    0.143
        38 -10.3902      8.4096    145.3917   1.4269763835e+02   4.4052679777e+01    0.1883648     0.162218 -69.74 0.0006926385    1.196    0.164
        39 -11.6086     11.3030    136.8679   1.4103134301e+02   4.5762063553e+01    0.1935897    0.1729345 -80.22 0.0003911864    1.172    0.147
        40 -11.8786    117.5579    130.7997   1.1187755616e+02   3.2938216404e+01     0.390792    0.3357832   2.60  0.001056909    1.462    0.316
        41 -11.8553    105.6268    128.8989   1.1458706149e+02   3.5642738929e+01    0.5862924    0.2892461 -56.04  0.001831346    2.019    0.505
        42 -11.8653    135.2155    122.8118   1.0542023198e+02   3.1135127842e+01    0.6120098    0.1886196 -50.75  0.001767441    3.506    0.715
        43 -11.5610    142.9902    127.8549   1.0473305109e+02   2.8327277712e+01    0.3466857    0.2743182  82.38 0.0008225653    1.525    0.344
        44 -11.0713    160.2931    127.5790   1.0054314028e+02   2.4526306007e+01    0.3639917    0.2384904 -69.80  0.001436779    2.100    0.524
        45 -11.3665    125.1414    126.9093   1.0899126629e+02   3.2316968764e+01    0.2491648    0.2104658  88.40   0.00123014    1.328    0.247
        46 -10.3440    111.9216    119.9029   1.1077079676e+02   3.6538689950e+01    0.2242512    0.2156676 -68.02 0.0004418363    1.012    0.011
        47 -11.6358     15.5486    201.2135   1.4629018494e+02   3.1075256849e+01    0.2055598    0.1600305  47.53 0.0006430878    1.476    0.323
        48 -10.0130    165.1627    208.1289   1.1629096270e+02   6.4884748969e+00    0.2077018    0.1849993  14.17 0.0004545722    1.243    0.195
        49 -11.0902    168.7227    113.5648   9.5102385409e+01   2.5547039188e+01    0.3755009    0.2865026 -83.68 0.0007885784    1.661    0.398
        50 -10.5996    162.8939    110.2669   9.5557797353e+01   2.7599162105e+01    0.4077977    0.2620738  85.86  0.001468044    2.717    0.632
        51 -10.5665    205.3218    110.2348   8.6807377523e+01   1.7571816647e+01    0.3132597    0.2145401  48.17 0.0009917396    1.528    0.346
        52 -10.6977     86.5134    206.9511   1.3273528670e+02   2.0741076544e+01    0.2763149    0.2073278 -87.44 0.0008682775    1.246    0.198
        53  -9.9371    152.6751    102.9584   9.5986906789e+01   3.1493017125e+01    0.2112161    0.1980682 -60.95 0.0005321543    1.063    0.060
        54 -10.3248    134.5143    102.9189   1.0042660657e+02   3.5611329459e+01    0.2395188    0.1507024 -43.79 0.0009454383    1.574    0.365
        55 -11.2791     87.5018    203.4804   1.3208139631e+02   2.1342056190e+01    0.2684477    0.2220251  72.70  0.001295522    1.039    0.037
        56 -10.1771    150.4619     78.4874   8.9681198536e+01   3.6754112006e+01    0.1495451    0.1465516  57.79 7.151583e-05    1.014    0.014
        57 -10.0878     81.9775     76.0170   1.0759747134e+02   5.1228756318e+01    0.1996465    0.1878882  -9.78 0.0003917374    1.052    0.049
        58 -10.7229     13.6361     60.0148   1.2673077672e+02   6.2094314424e+01    0.1593587    0.1489441 -33.38 0.0004583548    1.244    0.196
        59 -10.5093    168.1597    248.1649   1.2201006804e+02  -1.0516995102e+00    0.1685496    0.1347825  60.35 0.0002448526    1.318    0.241
        60  -9.3254    217.2777    244.3280   1.1218819435e+02  -8.6897801840e+00    0.1230104   0.08465206   7.09 0.0002366907    1.594    0.373
        61 -13.3594    195.5140    195.2914   1.0767679819e+02   3.0525330417e+00    0.9071816    0.7063752  82.30   0.00342073    1.882    0.469
        62 -11.7067     93.9887    206.7831   1.3114712918e+02   1.9589738904e+01    0.5492856    0.3054408 -53.77  0.002688427    1.963    0.491
        63 -11.0163     13.4742     37.0028   1.2017132724e+02   6.6249375732e+01    0.1854181     0.141161  -1.89 0.0005339104    1.307    0.235
        64 -10.8717     93.1377    198.3901   1.3019012856e+02   2.1563674343e+01    0.2470991    0.1809442 -81.47 0.0006180396    1.329    0.248
