#   1 NUMBER                 Running object number                                     
#   2 MAG_AUTO               Kron-like elliptical aperture magnitude                    [mag]
#   3 X_IMAGE                Object position along x                                    [pixel]
#   4 Y_IMAGE                Object position along y                                    [pixel]
#   5 X_WORLD                Barycenter position along world x axis                     [deg]
#   6 Y_WORLD                Barycenter position along world y axis                     [deg]
#   7 A_WORLD                Profile RMS along major axis (world units)                 [deg]
#   8 B_WORLD                Profile RMS along minor axis (world units)                 [deg]
#   9 THETA_WORLD            Position angle (CCW/world-x)                               [deg]
#  10 FWHM_WORLD             FWHM assuming a gaussian core                              [deg]
#  11 ELONGATION             A_IMAGE/B_IMAGE                                           
#  12 ELLIPTICITY            1 - B_IMAGE/A_IMAGE                                       
         1 -13.2886    246.0080    115.4244   5.2962980344e+00   1.3413758376e+01     2.640623      1.25279 -61.63   0.01010908    5.201    0.808
         2 -15.4278    244.0411    145.9924   1.1165690637e+01   9.2167122143e+00     3.244633     2.833206 -37.54   0.01844152    1.248    0.198
         3 -13.4679    247.1212     75.6088   3.5752366859e+02   1.8843190367e+01     3.802731     1.228997 -43.76    0.0128706    2.204    0.546
         4 -11.2806    208.2058     16.5704   3.4802205517e+02   3.3086075778e+01    0.4284855    0.3923081  69.13  0.002655079    1.446    0.308
         5 -11.7713    216.2564     28.2475   3.5010942989e+02   3.0211411314e+01    0.6013902    0.3566082 -73.44  0.003687328    1.595    0.373
         6 -11.3448    224.9856     29.2945   3.4975733533e+02   2.8469623136e+01    0.5326039    0.2378281 -35.09  0.002510148    1.873    0.466
         7  -9.7593    120.3661      9.0279   3.5388878898e+02   5.3697960038e+01    0.2628197    0.2022132  63.80  0.001146872    1.260    0.206
         8  -9.6410     10.8906    184.1445   7.1851460352e+01   3.2885941724e+01    0.2673643    0.2168847   5.76 0.0008344242    1.425    0.298
         9 -10.7601    248.7548    248.7457   2.6735738585e+01  -4.7892330386e+00    0.4450584    0.2955068   9.68  0.003721748    1.359    0.264
        10 -13.6791     13.2021    229.9187   7.3234370535e+01   2.2093220369e+01     3.999132     1.837269  75.76    0.0199995    2.255    0.557
        11  -7.9211    143.4797    231.9782   4.2985711063e+01   7.6669131125e+00    0.1610995    0.1165904 -43.95 0.0005644757    1.516    0.340
        12  -7.5305    190.0567    226.7331   3.3126988658e+01   3.3330203690e+00    0.1349238   0.08648903  21.36 0.0003791101    1.440    0.305
        13  -7.6586    172.7539    220.5688   3.5469992295e+01   6.1777804184e+00    0.1526427    0.1018704  31.71 0.0008442017    1.536    0.349
        14  -8.3273    212.1434    204.4933   2.5898049443e+01   4.2513830033e+00    0.1868675    0.1658773 -39.87 0.0008860943    1.527    0.345
        15 -10.0835    176.4019    154.7578   2.3503871102e+01   1.7244253766e+01    0.3505975    0.2104033 -33.00  0.001761591    1.602    0.376
        16  -8.3782    151.9830    152.6610   2.8127811318e+01   2.1583148768e+01    0.2501533     0.183974 -19.49 0.0007169963    1.538    0.350
        17  -8.8658    138.1643    152.9934   3.1365584787e+01   2.3819922361e+01    0.2275763    0.2028763  33.91 0.0002684983    1.155    0.134
        18  -9.0706    181.5818    148.7440   2.1333310008e+01   1.7548065848e+01    0.2206033    0.1770965 -69.54 0.0005872974    1.659    0.397
        19 -11.4259    180.7877    141.1465   1.9939984422e+01   1.9075457568e+01    0.7138483    0.3624462 -35.98  0.002040779    1.866    0.464
        20 -10.5496    181.3749    132.3267   1.7990928659e+01   2.0606001722e+01    0.3853555    0.3267168 -10.37  0.001075066    1.275    0.216
        21  -9.1892    134.0357    147.2841   3.1204838958e+01   2.5767539324e+01    0.3785868    0.1838786 -59.09  0.001426804    2.534    0.605
        22 -10.3191    192.5090    193.0621   2.7430668681e+01   8.2895817519e+00    0.7911547    0.3741111 -54.73  0.003395546    3.415    0.707
        23  -7.9316     68.6692    145.3218   4.9634531583e+01   3.6920887703e+01    0.1640569    0.1110515  63.12 0.0007049384    1.697    0.411
        24  -9.3093    168.8395    139.4443   2.1869050660e+01   2.1386993605e+01     0.270767    0.1750861 -42.50  0.001370814    1.402    0.287
        25 -10.2837    161.1569    128.8023   2.1117405793e+01   2.4823076864e+01     0.438381    0.2389271 -41.33  0.001979142    1.700    0.412
        26  -7.5440     67.6303    130.2477   4.7287098469e+01   4.1101138701e+01    0.2113493    0.1378927 -53.36 0.0003723378    1.514    0.340
        27  -7.2523    111.5311    124.4891   3.2132680650e+01   3.5059517161e+01    0.1518169    0.1479714 -46.09 0.0001752151    1.026    0.026
        28  -9.0716    178.2854    122.4732   1.6418273481e+01   2.2961326388e+01     0.260508    0.1926942 -32.34 0.0007380352    1.292    0.226
        29 -10.5145    172.4646    121.0346   1.7166706776e+01   2.4275408320e+01    0.4952652     0.325124  40.81  0.001984124    1.728    0.421
        30  -9.9837    168.9988    115.1611   1.6482555685e+01   2.6026692484e+01    0.3570107    0.2898925 -54.74 0.0007369815    1.191    0.161
        31  -8.8982    193.0383    118.9932   1.3143925088e+01   2.1014319262e+01    0.3250294    0.1660231 -34.33 0.0009880769    1.865    0.464
        32  -8.8914    203.8526    116.6055   1.0962647634e+01   1.9603188806e+01    0.3928457    0.2242033 -64.88  0.001524135    2.861    0.651
        33  -8.2307    155.3494    117.6769   1.9782323594e+01   2.8126143709e+01    0.2457974    0.1441864  58.04  0.001071375    2.117    0.528
        34  -8.8250    154.1872    113.4809   1.9032105914e+01   2.9190115610e+01    0.2965344    0.1906847 -51.99 0.0005265548    1.513    0.339
        35  -8.8599    204.4828    109.9966   9.4671740776e+00   2.0597736909e+01    0.2124805    0.1773597  22.16 0.0006695179    1.527    0.345
        36  -7.6790    140.1504    109.1654   2.1058359005e+01   3.2861026846e+01    0.2026703    0.1715769  89.64 0.0005749705    1.353    0.261
        37  -8.4197     45.0990    108.0648   5.1470298580e+01   5.0256195852e+01     0.216836    0.2139182 -81.66 0.0003840061    1.029    0.028
        38  -8.2754    210.4931    105.0829   7.5826511678e+00   2.0388801259e+01     0.210872    0.1550732 -14.84  0.001041458    1.705    0.414
        39  -8.8198    219.6167    103.9949   6.1651842309e+00   1.9061798293e+01    0.2267593    0.2044622  19.30 0.0006856141    1.412    0.292
        40  -9.7881     43.9907     94.7217   4.9087559360e+01   5.4008814978e+01    0.4684253    0.2948494  47.79 0.0009696643    1.706    0.414
        41  -9.8534     60.4657    102.1752   4.3944497546e+01   4.9678482819e+01    0.4947914    0.3564848  54.33  0.001288387    1.506    0.336
        42 -10.8427     52.4776     96.6252   4.5874359860e+01   5.2336467886e+01     0.841095    0.7236235  46.27  0.004350143    1.185    0.156
        43  -7.8957     98.0954    102.9416   3.0772061203e+01   4.2766530165e+01    0.1940945    0.1763613 -26.12            0    1.208    0.172
        44  -8.3179    201.8344    194.3703   2.5999806590e+01   6.9563640262e+00    0.1936152    0.1415602 -39.65 0.0006605452    1.364    0.267
        45  -8.1216    139.8591     94.2810   1.7281914692e+01   3.5955217994e+01    0.1881433    0.1855222  54.14 0.0002831857    1.109    0.098
        46  -9.8792     19.5785     91.1442   5.9683005541e+01   5.7577882506e+01    0.6781942    0.2898491 -51.11  0.002672201    2.161    0.537
        47 -11.4281     14.1581     88.5218   6.1889199040e+01   5.8707071339e+01    0.9076264    0.5531616 -56.85  0.004323923    1.491    0.329
        48  -8.4559    221.1705     81.5751   1.2763752713e+00   2.2203149479e+01    0.2067141    0.1759117   4.39 0.0009758733    1.652    0.395
        49  -8.0156    184.1194     78.1339   5.1319865803e+00   2.9611946100e+01    0.1958455    0.1776688 -17.53 0.0009208804    1.325    0.245
        50  -8.1163    208.2608     76.5657   1.6442587341e+00   2.5228999525e+01    0.1548357    0.1185882  50.11  0.000953636    1.646    0.392
        51  -7.8379    183.3673     73.0440   3.9934372300e+00   3.0578116064e+01    0.1817198    0.1437861 -49.76 0.0006317837    1.084    0.077
        52 -10.1815    219.1796     68.8076   3.5874917193e+02   2.4394789176e+01    0.4822529    0.2631378 -24.10 0.0007085503    2.366    0.577
        53 -10.4545    222.3290     66.3238   3.5790226993e+02   2.4188564059e+01     0.487229    0.3660997  34.85  0.002867176    2.050    0.512
        54  -8.7962     72.7436    194.3473   5.5251768082e+01   2.4003929086e+01    0.3053602    0.2251481  -3.87   0.00126825    1.641    0.391
        55  -9.4076     49.2626    234.9158   6.4900829122e+01   1.7710598258e+01     0.216602    0.1953025 -31.80 0.0006354367    1.353    0.261
        56 -13.2879    208.1146    178.3669   2.2210920015e+01   8.7287281100e+00     1.505824     1.284508 -20.12   0.01062716    1.103    0.093
        57  -7.9490    102.8085     40.6270   9.1152700344e+00   5.4141761379e+01    0.2069872     0.129641  73.33 0.0006030625    1.733    0.423
        58  -8.2570     94.7978     37.1197   9.8485024831e+00   5.6592012044e+01    0.2127341    0.1834326 -83.38 0.0004714286    1.194    0.163
        59  -8.5258     78.9082     34.9309   1.3709943078e+01   6.0654444283e+01    0.2068644     0.193795  67.13 0.0003078305    1.027    0.027
        60 -12.4608    239.6826    162.9649   1.4746848897e+01   7.2627392200e+00     0.478143    0.2995648 -47.61  0.001057293    1.694    0.410
        61  -9.2373    209.8650     32.8576   3.5160161233e+02   3.0884493861e+01    0.2171417    0.1599176 -34.74 0.0005743239    1.364    0.267
        62 -12.3679    179.0601    175.7586   2.6938716078e+01   1.3010344457e+01     2.979057     1.519584 -22.57   0.01271023    2.730    0.634
        63 -12.3711    229.0940    169.7321   1.7425916025e+01   7.5092799049e+00      1.02719    0.5559612 -23.92  0.005830001    1.797    0.443
        64 -11.2181    232.5320     25.5177   3.4850651720e+02   2.7552573302e+01    0.4412043    0.1834747 -89.43  0.002276197    2.904    0.656
        65 -13.4424    241.6138    216.0572   2.3103644331e+01  -2.6130171042e-01     3.301385     1.323685 -34.51   0.01943691    1.966    0.491
        66  -9.6630    249.3382     28.5003   3.4817317043e+02   2.4360350301e+01     0.405664    0.1086687 -47.86  0.002019241    2.414    0.586
        67  -8.3738     94.9828     20.9038   3.1311372033e+00   5.8717114248e+01     0.202328    0.1837747  75.11  0.000368245    1.011    0.011
