#   1 NUMBER                 Running object number                                     
#   2 MAG_AUTO               Kron-like elliptical aperture magnitude                    [mag]
#   3 X_IMAGE                Object position along x                                    [pixel]
#   4 Y_IMAGE                Object position along y                                    [pixel]
#   5 X_WORLD                Barycenter position along world x axis                     [deg]
#   6 Y_WORLD                Barycenter position along world y axis                     [deg]
#   7 A_WORLD                Profile RMS along major axis (world units)                 [deg]
#   8 B_WORLD                Profile RMS along minor axis (world units)                 [deg]
#   9 THETA_WORLD            Position angle (CCW/world-x)                               [deg]
#  10 FWHM_WORLD             FWHM assuming a gaussian core                              [deg]
#  11 ELONGATION             A_IMAGE/B_IMAGE                                           
#  12 ELLIPTICITY            1 - B_IMAGE/A_IMAGE                                       
         1 -11.1187    238.3509      2.4196   3.4370904084e+01   2.5750781296e+01    0.4174305     0.367206  64.92  0.002587866    1.351    0.260
         2 -12.6051    239.0393     12.6971   3.6590228207e+01   2.4485293092e+01    0.8297948    0.5387216  79.61  0.004861892    1.484    0.326
         3 -11.9891    248.6483     11.2198   3.5543918432e+01   2.2576498404e+01     0.931404    0.4362961 -20.04  0.004148898    3.124    0.680
         4 -12.0063    243.9513      6.5920   3.4883430468e+01   2.4092038397e+01     0.604048    0.5135468 -20.03  0.004055121    1.494    0.331
         5 -10.0639    216.4195     17.1423   3.9600360904e+01   2.9125521797e+01    0.3257551   0.07269447 -38.09  0.001154639    3.391    0.705
         6 -11.9891    228.8013     11.3312   3.7105172230e+01   2.6919047037e+01    0.5993879    0.3690123 -24.04  0.002987923    1.874    0.466
         7 -12.0640    221.7003      3.7605   3.5921549861e+01   2.9340453830e+01    0.6318102    0.4444245 -41.28  0.003812109    1.363    0.267
         8 -10.4554    216.1718      5.8166   3.6866895466e+01   3.0406752453e+01    0.2061099    0.1789968 -46.90 0.0009147606    1.186    0.157
         9 -11.8106    210.2728      7.6310   3.7830157294e+01   3.1603624339e+01    0.6366646    0.3078795 -19.60  0.002881782    2.640    0.621
        10 -11.8603    157.3566      8.0677   4.3964970269e+01   4.4543065028e+01    0.5076945    0.2848692  50.52  0.001282248    1.682    0.405
        11 -11.3793    202.7403      4.8521   3.7828801880e+01   3.3676785133e+01    0.3735992    0.3442225 -35.25  0.002457666    1.234    0.190
        12 -11.5976    182.1674      2.1772   3.9175760774e+01   3.8927930491e+01    0.4756724    0.2866471  83.91  0.002457091    1.583    0.368
        13 -10.3775     75.7564      4.2918   5.9673856314e+01   6.3585677066e+01    0.2747549    0.2148348 -82.56  0.001294648    2.228    0.551
        14  -9.7389    130.4788      4.4875   4.6984192394e+01   5.1461581436e+01    0.1333119    0.1174685  51.64 0.0008101537    1.011    0.011
        15 -10.8959    113.9924      2.9193   4.9498112840e+01   5.5489118539e+01    0.3830481    0.2386605  42.60  0.002050638    1.436    0.303
        16 -10.9296    101.2745      2.6175   5.2122799519e+01   5.8397255483e+01    0.3682119    0.2188043  65.56  0.001902197    1.734    0.423
        17 -10.1186     32.9764      3.0061   7.5592641345e+01   7.0790072296e+01     0.182925     0.140674  -6.25   0.00071723    1.055    0.052
        18 -11.7875    194.1544      7.2611   3.9295349286e+01   3.5510725080e+01    0.5323615    0.3999391 -55.57  0.003090198    1.283    0.221
        19  -8.5637    138.4618    214.4976   1.0099020602e+02   1.0429685429e+01    0.1323741    0.1160212  50.10 0.0008090127    1.046    0.044
        20 -11.5487    234.2300    250.1637   8.8331707633e+01  -9.8509668407e+00    0.2712255      0.14764  33.49 0.0005748018    1.554    0.357
        21 -10.3122    169.3626    249.9674   9.9941104034e+01  -3.5231108200e-01    0.2667259    0.1424825  38.59 0.0005745569    1.514    0.340
        22  -9.1361    125.5004    250.4933   1.0817178940e+02   6.2904872082e+00     0.120384   0.09578186  49.01  0.000810504    1.027    0.027
        23 -10.6243    191.2187    211.4858   8.9834152064e+01   1.9516226614e+00    0.3018915    0.2076582  35.62 0.0005840538    1.307    0.235
        24 -12.8268    167.4512    204.7161   9.3437596026e+01   7.2034159914e+00    0.4007474     0.296031  21.31  0.002184519    1.413    0.292
        25 -10.4140    224.5748    204.7312   8.2298364563e+01  -2.5135607082e+00    0.2630943    0.1926337 -13.29 0.0009257677    1.293    0.227
        26  -9.7053     58.6602    205.8303   1.1653896466e+02   2.4262195423e+01     0.220896     0.150211  51.14 0.0005381992    1.317    0.240
        27 -11.6894    182.0655    198.0014   8.9262110280e+01   5.7975372614e+00    0.3691738    0.2734554  -9.01  0.001961366    1.583    0.368
        28 -10.2056    174.6725    197.1733   9.0625422813e+01   7.2672854859e+00    0.3502682    0.2435123  16.61 0.0007550154    1.664    0.399
        29 -12.3250    204.3546    151.6914   7.5286130793e+01   9.9842202992e+00     1.597584    0.7342727  40.47  0.004326861    2.272    0.560
        30 -12.3780    136.3211    165.1246   9.3037450245e+01   2.0856211755e+01     1.158634    0.8669276  81.20 0.0002724655    1.766    0.434
        31 -11.5097    126.9624    163.0897   9.4867436149e+01   2.3069644669e+01    0.6390474    0.5172549  40.03 0.0009334108    1.236    0.191
        32 -12.4650    164.1188    126.3698   7.7771996473e+01   2.3554132591e+01     2.528169     1.156474 -29.18  0.007597588    3.269    0.694
        33 -13.9786    143.4317    193.0648   9.6539791914e+01   1.3680700458e+01     3.473844     1.857499  22.76  0.003163316    2.944    0.660
        34 -12.8261    150.7033    129.7100   8.1741442676e+01   2.5762638800e+01     2.498509    0.9441142 -39.30  0.008030604    2.847    0.649
        35 -14.1488    181.5546    130.9267   7.5063996614e+01   1.8780653353e+01     1.907222     1.119193 -43.94  0.001240569    1.667    0.400
        36 -12.5738    175.3165    158.3026   8.2753831614e+01   1.4571765893e+01     0.405719    0.3539552 -39.43 0.0006190088    1.150    0.130
        37 -13.2681    169.8811    160.6628   8.4450561754e+01   1.5192597605e+01    0.4628144    0.3565705 -36.10 0.0004975857    1.313    0.239
        38 -16.1023    165.0602    153.7916   8.4023977006e+01   1.7583953720e+01     2.375024     1.838382  49.08  0.005136208    1.330    0.248
        39  -9.7017    128.9788    189.8440   9.9187248098e+01   1.6903839701e+01    0.3908291    0.1957312 -61.89  0.001625834    2.427    0.588
        40  -8.3108    118.3678    191.6706   1.0184766851e+02   1.8355484739e+01    0.1491119    0.1002513  70.22 0.0007034167    1.817    0.450
        41  -9.9028    165.5445    189.9957   9.1230112791e+01   1.0251563759e+01    0.3230105    0.2239614  24.22  0.001605938    1.565    0.361
        42  -9.7533    209.9708    184.7337   8.1193420552e+01   3.0878532334e+00    0.2738112     0.239204  70.39  0.001566476    1.629    0.386
        43 -10.6290    198.4689    183.1414   8.3124493522e+01   5.4319255341e+00    0.4151691    0.3168828   1.92 0.0007522755    1.413    0.292
        44  -9.4825    216.1633    182.9356   7.9654957494e+01   2.2925767067e+00    0.2405864     0.174069  32.05 0.0008891562    1.338    0.252
        45  -9.6700    130.2223    181.2714   9.7451503558e+01   1.8487776933e+01    0.3474592    0.2367542 -69.95   0.00166408    1.763    0.433
        46  -9.1596    137.8500    180.8227   9.5638597339e+01   1.7196923216e+01     0.206671    0.1891928  11.56 0.0003197083    1.200    0.167
        47  -8.9275     85.3603    180.9697   1.0777157034e+02   2.6018542851e+01    0.1850303    0.1585486 -86.54  0.001006117    1.084    0.077
        48  -9.0368     33.7253    179.7531   1.1933168398e+02   3.2913269166e+01    0.1654527    0.1140264  74.45 0.0003995611    1.275    0.216
        49 -10.6047    239.8047    177.6757   7.4299267308e+01  -9.0818121007e-01    0.2643216    0.2057332  10.63 0.0005397798    1.217    0.178
        50 -11.4830    208.7262    175.1517   7.9491705627e+01   4.9411383413e+00    0.4404522    0.3565239   4.66  0.001467621    1.224    0.183
        51  -9.5029    193.7984    178.1061   8.3049888288e+01   7.1890789799e+00     0.197311    0.1913055 -38.70 0.0003752961    1.187    0.158
        52  -8.6483     95.0480    177.9679   1.0507137938e+02   2.5204367043e+01    0.1598145    0.1446101  79.95 0.0003237992    1.007    0.007
        53 -10.3315    135.6684    175.1440   9.5101274984e+01   1.8804137879e+01    0.2563207    0.2285167  47.10 0.0002874992    1.079    0.074
        54  -9.4783    130.7074    171.1218   9.5506355986e+01   2.0593366144e+01    0.3177399    0.2059396  60.46  0.001159191    1.816    0.449
        55 -12.0491    210.0220    194.3129   8.3053300717e+01   1.5062271865e+00    0.3415427    0.2624143  13.43 0.0006089808    1.245    0.197
        56 -11.0745    233.7212    170.3410   7.3856862091e+01   1.2768269400e+00     0.355154    0.3017991 -69.97  0.001550548    1.808    0.447
        57 -10.5050    224.1727    167.3647   7.4951531709e+01   3.4532449948e+00    0.4955039    0.3580867 -66.03  0.002356183    2.370    0.578
        58  -9.8725    219.8268    165.1705   7.5287167089e+01   4.6163016133e+00    0.2935852    0.2470435 -61.06  0.000890598    1.586    0.370
        59 -11.0391    194.1910    166.5522   8.0571605737e+01   9.2291715882e+00    0.3610599    0.3169209 -10.20  0.002010655    1.104    0.094
        60  -9.3994    214.8811    167.5195   7.6715321587e+01   5.1256999197e+00    0.2589818    0.1899636 -33.13  0.001170848    1.300    0.231
        61  -8.7118    237.3602    160.7969   7.1204018324e+01   2.1859085859e+00    0.1800042    0.1148174 -24.89  0.000136589    1.469    0.319
        62 -10.0330    203.3836    159.2184   7.7147303493e+01   8.7911634642e+00    0.2940252    0.2501008  62.27  0.001039204    1.461    0.315
        63  -8.9455    219.1739    158.1478   7.3892046206e+01   5.9490981087e+00    0.1787234    0.1523749 -44.02            0    1.278    0.218
        64  -9.5342     78.6734    157.2903   1.0581760169e+02   3.2552927760e+01     0.229801     0.187245  79.71 0.0002856895    1.214    0.176
        65 -11.6884    188.6876    188.5761   8.6152624957e+01   6.2620059936e+00    0.4762105    0.3778756 -85.79  0.001488036    2.051    0.513
        66  -8.5104    102.4195    155.4838   9.9478536651e+01   2.9214162923e+01     0.144737    0.1357763 -79.41 7.926352e-05    1.020    0.019
        67  -8.9715    122.5051    154.4113   9.4236891372e+01   2.5873187504e+01    0.2353219    0.1787179  49.26 7.419275e-05    1.324    0.245
        68  -9.3295    117.5659    153.9306   9.5368521890e+01   2.6898362005e+01    0.3551392    0.2648042   3.93   0.00161054    1.991    0.498
        69 -10.5067     76.9726    152.9083   1.0553520043e+02   3.3857280780e+01    0.2194505    0.1833549 -70.31            0    1.097    0.089
        70 -11.2824    187.0817    180.5481   8.4909169867e+01   8.0038782473e+00    0.3243095    0.2758017   9.81 0.0003894764    1.164    0.141
        71 -10.3617     13.9455    146.1137   1.2066492804e+02   4.2563659487e+01    0.3026944    0.2407763 -64.57  0.002008674    1.231    0.187
        72  -9.9424    238.0163    145.2951   6.7716036821e+01   4.6254297269e+00    0.3195353     0.235927  20.87  0.001301417    1.501    0.334
        73  -9.5829    204.9038    142.9878   7.3193690508e+01   1.1489425408e+01    0.3004654    0.2020558  44.37  0.001040855    1.556    0.357
        74  -8.8312    218.1046    139.8557   6.9982234667e+01   9.3915464306e+00     0.203803    0.1612925 -11.66 0.0007909758    1.308    0.235
        75 -11.4522    197.4607    135.0758   7.2797480864e+01   1.4536726406e+01    0.6676206    0.4393744  23.65  0.002446749    1.938    0.484
        76 -11.5209    206.8934    135.1210   7.0970109409e+01   1.2544536401e+01    0.3922099    0.3062699 -52.35 0.0002825846    1.397    0.284
        77 -11.0816    205.4431    138.4665   7.2036206367e+01   1.2221992887e+01     0.307648    0.2478748  42.21 0.0005625341    1.303    0.233
        78 -11.0822    201.6739    137.7451   7.2599075675e+01   1.3141442022e+01    0.2679231     0.223351  -8.74 0.0002510862    1.260    0.206
        79 -11.7877    128.6777    135.6155   8.8612992167e+01   2.9012489397e+01    0.3353021    0.2986648 -64.60 0.0003473088    1.137    0.121
        80  -9.3302    135.3019    136.2656   8.7091554556e+01   2.7529054250e+01    0.2285433     0.197656 -45.45 0.0002420952    1.138    0.122
        81 -10.1678    136.5305    131.4321   8.5639777147e+01   2.8371558505e+01    0.4654633    0.2090108 -54.35  0.001169699    2.502    0.600
        82  -9.3078      4.4982    136.4726   1.2206816186e+02   4.5528718302e+01    0.1225214   0.09368007 -82.08 0.0002458295    1.006    0.006
        83  -9.9323    214.3342    134.3521   6.9393401644e+01   1.1148099061e+01    0.4133181    0.2284909  48.85  0.001797108    1.965    0.491
        84  -8.2312    111.2392    134.2649   9.2850943965e+01   3.2685870304e+01    0.1398473    0.1159236 -23.55 0.0006746773    1.422    0.297
        85  -9.1398     83.2796    133.9927   1.0040314192e+02   3.7517177751e+01    0.2133822    0.1822666 -62.81  0.001113358    1.077    0.072
        86  -8.8324    243.4497    133.4537   6.4175081049e+01   5.5908178326e+00    0.1394149     0.120843 -27.99 9.519248e-05    1.035    0.034
        87  -9.6226    236.9731    131.8018   6.4853196466e+01   7.0940170542e+00    0.2215602    0.1692345 -82.23  0.001088958    2.082    0.520
        88  -8.9870    227.6980    129.6264   6.5910211661e+01   9.2850843716e+00    0.1781502     0.140477  58.23 0.0008403177    1.516    0.340
        89  -9.3032    232.0520    128.7882   6.4977711022e+01   8.5668522767e+00    0.1751724    0.1172256  48.96 0.0005174906    1.674    0.403
        90 -12.9020    216.9496    126.2174   6.6990523050e+01   1.2082282171e+01    0.5637209    0.3994912  61.16  0.002721293    1.733    0.423
        91  -9.9205    192.4642    125.9643   7.1586016548e+01   1.7373685367e+01     0.273636    0.2393889   0.99 0.0008212584    1.228    0.186
        92 -11.1128    134.1981    124.9752   8.4652846942e+01   3.0315077458e+01    0.5052923    0.4231113  20.65  0.001862385    1.359    0.264
        93  -9.3948    113.8449    126.7164   9.0418821846e+01   3.3979418705e+01    0.2510374    0.1657654 -13.14 0.0007976275    2.688    0.628
        94  -9.3816    108.2079    124.7632   9.1489892016e+01   3.5499439837e+01    0.2158927    0.2014816 -79.35 0.0005657984    1.087    0.080
        95  -8.8203     44.4367    125.5359   1.0984214000e+02   4.4705491810e+01    0.1357211     0.114196 -71.73  3.17501e-05    1.012    0.012
        96  -9.3449    230.0789    121.4901   6.3602122792e+01   1.0222622723e+01    0.2432739    0.1910346 -51.62  0.001282784    1.343    0.255
        97 -10.0707    154.0048    121.0110   7.8766550218e+01   2.6928809327e+01     0.262951    0.2192827 -40.06            0    1.172    0.147
        98  -9.3588    153.5542    117.2957   7.7912021621e+01   2.7825099724e+01    0.3367583    0.2413514  65.84  0.001239481    1.726    0.421
        99  -8.4841    197.3111    120.6886   6.9315834087e+01   1.7324391970e+01    0.2161467    0.1646543  71.63  0.001004167    1.682    0.405
       100  -9.5210    194.3417    120.2734   6.9795779886e+01   1.8060448234e+01    0.2255106    0.1881412 -36.19 0.0003208496    1.136    0.120
       101  -9.1340     93.5042    119.9503   9.4484324745e+01   3.9263817701e+01     0.199562    0.1918143 -79.04 -5.080846e-05    1.054    0.051
       102  -8.0905     86.3293    120.3194   9.6635973465e+01   4.0363248641e+01    0.1510381     0.112481 -24.44  0.000704771    1.687    0.407
       103  -9.2189    161.1746    119.1212   7.6601477322e+01   2.5735180878e+01    0.2348386     0.207575 -17.91 0.0003302813    1.194    0.163
       104  -8.8736    206.2271    116.9316   6.6684285622e+01   1.6071761582e+01    0.2058165    0.1173345 -38.68 0.0004855937    1.630    0.387
       105  -9.8295    183.6247    116.4237   7.0990003570e+01   2.1213192612e+01    0.3237958    0.2576273  82.06 0.0007070994    1.630    0.386
       106 -12.0861    124.8839    115.2963   8.4622469171e+01   3.4436714686e+01    0.3113022    0.3045335 -28.65 0.0002742694    1.033    0.031
       107 -10.2239    130.8123    113.9505   8.2707979127e+01   3.3505732004e+01    0.3282096    0.2487253  43.14  0.000626571    1.364    0.267
       108  -9.0554    116.4630    116.5109   8.7205420776e+01   3.5853061904e+01    0.2695122    0.1506687  29.11  0.001018784    2.320    0.569
       109  -9.5228    194.9346    113.6509   6.8005575632e+01   1.9195987783e+01    0.2110326    0.1996653  45.68 0.0007267623    1.117    0.104
       110 -10.5827    142.2867    111.4238   7.9105175206e+01   3.1587330996e+01    0.5773346    0.3679834 -56.76  0.001282201    1.771    0.435
       111 -10.8132      5.3994    114.0338   1.1939782538e+02   5.0762177364e+01    0.1891572     0.183925 -62.21 0.0004198267    1.278    0.218
       112 -10.2599    172.4958    111.0840   7.1959791807e+01   2.4818676932e+01    0.3332685    0.2708435  16.68 0.0008510223    1.455    0.312
       113 -12.4867    192.1492    106.5610   6.6720743202e+01   2.1176167484e+01     0.437353    0.3936748   4.37 0.0004972932    1.211    0.174
       114 -10.4936    198.5273    104.9417   6.5081544734e+01   2.0019312875e+01    0.3889593    0.2888606  30.75  0.001126597    1.575    0.365
       115  -8.8286     86.7963    110.1518   9.4108905419e+01   4.2728161690e+01    0.1901727    0.1599819 -33.12 0.0002124679    1.231    0.188
       116 -11.4779    162.3521    111.1685   7.4241517142e+01   2.7127881733e+01    0.3097105    0.2881639  40.17 0.0003529363    1.106    0.096
       117 -11.8875    157.3969    111.2316   7.5402343654e+01   2.8243856809e+01    0.4616775    0.3355868 -27.16 0.0007950967    1.505    0.335
       118 -12.7486    125.4593    101.7081   8.0800991567e+01   3.7347953130e+01    0.3266684    0.3240988 -39.33 0.0004066118    1.033    0.032
       119  -8.7935    209.0286    103.4759   6.2797657452e+01   1.7910529712e+01    0.2211854    0.1507283  54.29 0.0007465083    1.588    0.370
       120  -9.9966    218.1177    101.9762   6.0863443853e+01   1.6159182846e+01      0.22164    0.2151108  80.13 0.0003172322    1.126    0.112
       121 -10.1593    238.3077     99.0225   5.6983095195e+01   1.2351688788e+01    0.3931069    0.2168223  61.86  0.001268337    2.218    0.549
       122  -9.9411    112.9562     99.0178   8.3497691174e+01   4.0519502155e+01    0.2260877    0.2156774 -45.53            0    1.026    0.026
       123  -9.9283    182.8137     97.4700   6.6148301298e+01   2.5072524247e+01    0.5469615    0.3065187  41.87  0.001253578    1.972    0.493
       124  -9.1678    246.0395     96.4986   5.5283459872e+01   1.1184944290e+01    0.1849321    0.1398345  56.65 0.0005311244    1.521    0.343
       125  -9.3018    119.7796     94.1394   8.0186384758e+01   4.0185959012e+01    0.2357611    0.2072708 -67.69 0.0005520424    1.257    0.205
       126  -9.1985    210.9129     92.3826   5.9639878087e+01   1.9449486596e+01    0.2783129    0.1473639  67.01    0.0010782    2.496    0.599
       127 -10.1668    184.5210     89.3600   6.3595650184e+01   2.6175802823e+01    0.3103045    0.2638928  60.60 0.0002908913    1.234    0.190
       128 -10.1121    143.2666     89.4473   7.2662387619e+01   3.5967748165e+01    0.2903136    0.2557023 -31.12 0.0007302137    1.125    0.111
       129 -10.0958    239.9040     85.4414   5.3521092404e+01   1.4230973269e+01    0.2209409    0.1738416 -36.92 0.0009937909    1.131    0.116
       130  -9.0161    200.3272     85.9641   5.9769454258e+01   2.3024179448e+01    0.2136629    0.1920108 -40.12 0.0008997543    1.053    0.050
       131  -9.3070    203.9202     82.3054   5.8183980613e+01   2.2809204404e+01    0.2257808    0.1913284 -76.03   0.00117067    1.285    0.222
       132  -8.6882    194.6967     82.6891   5.9880022511e+01   2.4931642375e+01    0.1502092    0.1193028  12.91 0.0003382515    1.610    0.379
       133 -10.6950    246.0879     78.2410   5.1005078921e+01   1.4069861924e+01    0.7225807    0.2131707  56.42   0.00260521    3.635    0.725
       134  -8.5670    210.7045     81.3921   5.6832642073e+01   2.1377595664e+01    0.1604685    0.1052789 -61.66 0.0002095236    1.788    0.441
       135  -9.1816     11.4650     80.4978   1.1233506296e+02   5.8227545778e+01    0.1264504   0.09591838 -55.98 0.0002053749    1.036    0.035
       136  -8.8317    177.7965     79.5852   6.2167545821e+01   2.9563254013e+01    0.2043999    0.1493979  72.23 0.0004229719    1.577    0.366
       137 -10.0244    115.9011     77.7077   7.6263069689e+01   4.4410137109e+01    0.2566455    0.2087182 -41.17 0.0003119815    1.198    0.165
       138  -9.0593    229.0311     76.5337   5.2860815408e+01   1.8006419040e+01    0.1969633    0.1410071  62.69 0.0005662384    1.528    0.346
       139  -8.5045    106.5515     72.5080   7.7282965508e+01   4.7382766651e+01    0.1485202     0.141481 -29.76 3.140545e-05    1.054    0.052
       140  -9.0085     12.4853     72.5631   1.1036722291e+02   5.9957512818e+01    0.1242407   0.09679119 -53.79 5.349552e-05    1.008    0.008
       141  -9.6633    235.6117     69.5848   5.0282084988e+01   1.7641932368e+01    0.3555143    0.1038476 -38.63  0.001247736    2.814    0.645
       142 -11.7842    247.8479     67.8866   4.8374321341e+01   1.5278650417e+01    0.6090185    0.3977227 -32.73  0.003143874    1.422    0.297
       143  -8.6158    129.2319     68.9716   6.9841128084e+01   4.3131187845e+01     0.203007    0.1246579 -37.32  0.000795573    1.604    0.377
       144  -9.5829      2.4077     64.2377   1.1245404881e+02   6.2354829040e+01    0.1697699   0.09676418 -73.79 0.0009548102    1.674    0.403
       145 -10.5423     11.6430     62.2535   1.0836970822e+02   6.2278883173e+01    0.2604704    0.1632046 -64.18  0.001546906    1.392    0.282
       146  -8.7293     54.0993     59.2198   9.0615291750e+01   5.8880056144e+01    0.1651635    0.1501293 -57.91   0.00039853    1.300    0.231
       147 -10.0398    222.1796     50.1026   4.7176172943e+01   2.3560078802e+01    0.2889764    0.1955142  75.61  0.001318877    1.561    0.359
       148  -9.0416     88.0543     47.5217   7.4195506459e+01   5.5573735498e+01    0.1926269     0.135258  42.21 -5.274165e-05    1.461    0.316
       149  -9.4156    165.0344     59.6334   5.8780880919e+01   3.6089687382e+01    0.2315719    0.2039999 -56.63 0.0004303215    1.163    0.140
       150 -10.5419    235.7606     44.0901   4.4143229467e+01   2.1308000822e+01     0.315621    0.1797799 -33.21   0.00156265    1.668    0.400
       151  -8.7261    153.3756     42.1538   5.5562642216e+01   4.1613840468e+01     0.199657    0.1289011 -42.73  0.000365938    1.605    0.377
       152  -9.7745    127.2639     37.6912   5.9594522555e+01   4.8594572245e+01    0.2320435    0.2174242 -83.44  0.000571297    1.209    0.173
       153  -8.5901    111.5226     36.5047   6.3061260539e+01   5.2380007427e+01    0.1402624    0.1314433  18.69 0.0008100803    1.028    0.027
       154 -11.5904    241.6929     32.8746   4.0928218215e+01   2.1478347024e+01    0.3810167    0.2384055 -57.84  0.002073058    1.456    0.313
       155 -10.1245    221.2894     33.4384   4.3123865370e+01   2.6018895023e+01    0.2604494    0.1343259 -50.99  0.001205735    1.841    0.457
       156  -9.3124     73.6761     33.3134   7.3392521804e+01   6.0452028145e+01    0.1216087    0.1084061 -69.48 0.0003522041    1.661    0.398
       157  -9.0927     86.9620     30.9564   6.7960553458e+01   5.8311567889e+01    0.2028254    0.1710988 -68.55  0.001131234    1.744    0.427
       158 -10.2525    107.6746     30.0486   6.1600098039e+01   5.4095514898e+01    0.2890801    0.1974357  56.06 0.0004887801    1.490    0.329
       159 -10.1722    245.9664     26.5305   3.9108733814e+01   2.1346806207e+01    0.2542203    0.1895697  87.46  0.001407044    1.312    0.238
       160 -11.7658    241.4569     24.3874   3.9017210782e+01   2.2587780686e+01    0.5066145    0.2689692 -53.67  0.002603572    1.686    0.407
       161 -10.1797    217.9989     26.5712   4.1772102864e+01   2.7646900576e+01    0.2759126     0.206077  40.01 0.0009770932    1.706    0.414
       162  -9.2228    151.6915     26.3212   5.0721191001e+01   4.4056003734e+01    0.1442896    0.1042628 -66.27 0.0007034531    1.643    0.391
       163  -9.3767     63.9855     25.3107   7.3463839790e+01   6.3269651075e+01    0.1838003     0.107863  63.63 0.0007039456    4.192    0.761
       164  -9.0268      2.2995     24.6638   1.0153013270e+02   7.0353135811e+01   0.09646684   0.08637114 -79.76 0.0003164613    1.657    0.397
       165  -9.0326     61.3075     23.2864   7.3570156281e+01   6.3992577214e+01    0.1304939   0.08698191   6.22 0.0003592731    1.570    0.363
       166 -11.0117      7.3065    248.6138   1.2865104978e+02   2.1716140435e+01    0.2298525    0.1254174  76.39  0.001634438    1.390    0.281
       167 -12.2079    177.4888    244.4915   9.7670700919e+01  -8.2699428564e-01    0.3718034    0.2367978  34.82 0.0008297134    1.289    0.224
       168 -10.7444    170.4922    244.4503   9.8974157993e+01   2.6703676657e-01    0.2325751    0.1502757  37.60 0.0007200451    1.271    0.213
       169  -9.5752    142.1057    245.0159   1.0440690947e+02   4.6160064161e+00    0.1864993    0.1553109  43.63 0.0007158646    1.026    0.025
       170 -10.1974    222.1251     17.8514   3.9231974083e+01   2.7715107580e+01    0.2382954    0.1662304  69.88  0.001356878    1.408    0.290
       171 -11.3809    207.7198    241.3072   9.1624559184e+01  -5.0023454559e+00    0.2990004    0.2545357  18.90 0.0006557181    1.128    0.114
       172  -9.9158    100.8830     17.6936   5.8447766043e+01   5.7050060080e+01    0.2939191     0.173936 -34.63  0.001471645    1.821    0.451
       173 -10.0657    243.1728    239.3784   8.5071640359e+01  -9.8122544837e+00    0.1721203     0.122178 -23.73 0.0005583548    1.433    0.302
       174 -10.0997    152.4796     15.5254   4.7074119601e+01   4.5035968228e+01    0.2653984    0.1372159 -23.37  0.001184867    2.122    0.529
       175 -10.3682    202.3081     12.9403   3.9944258432e+01   3.2948533646e+01    0.1833237    0.1666986 -69.37  0.000743723    1.067    0.063
       176  -9.3984    191.7964    239.1390   9.4215758666e+01  -2.2889531889e+00    0.1721122    0.1462186  32.89 0.0004180543    1.162    0.140
       177  -9.9368    184.7368    235.6282   9.5005456863e+01  -6.8392833857e-01    0.3231535    0.2227578   9.25  0.001874236    1.642    0.391
       178  -9.0596     68.8537    236.3498   1.1732312266e+02   1.6870434998e+01    0.1574127    0.1239611  59.58 0.0004658685    1.065    0.061
       179  -9.3006    189.9568    231.6829   9.3409793896e+01  -9.3498763309e-01    0.1756501     0.134979  29.49 0.0004770093    1.094    0.086
       180 -13.1289    232.6878    227.7251   8.4933844096e+01  -6.9159635150e+00    0.2828281    0.2309401  16.73 0.0006868439    1.134    0.118
       181  -8.5694    173.2757    228.6714   9.6140200561e+01   2.2086872422e+00    0.1168818   0.09634141  67.21 0.0006990614    1.592    0.372
       182  -8.7432    129.4551    222.5395   1.0396652450e+02   1.0444506249e+01    0.1290115    0.1106996  50.74 8.578029e-05    1.024    0.024
       183  -8.8004    209.6838    228.3158   8.9180483416e+01  -3.5482169652e+00    0.1101895    0.0970796  58.98 0.0003383582    1.648    0.393
       184 -11.2273    215.6381    216.1143   8.5998355674e+01  -2.7511256093e+00    0.2915497    0.2210035   6.97   0.00179577    1.208    0.172
       185 -10.1198    124.2772    216.0954   1.0414908334e+02   1.2482500553e+01    0.4068858    0.2452354  32.80  0.002087459    1.686    0.407
       186  -9.1719    124.0071    212.2917   1.0367802697e+02   1.3252327907e+01    0.1847056    0.1686253  26.67 0.0002919394    1.202    0.168
