#   1 NUMBER                 Running object number                                     
#   2 MAG_AUTO               Kron-like elliptical aperture magnitude                    [mag]
#   3 X_IMAGE                Object position along x                                    [pixel]
#   4 Y_IMAGE                Object position along y                                    [pixel]
#   5 X_WORLD                Barycenter position along world x axis                     [deg]
#   6 Y_WORLD                Barycenter position along world y axis                     [deg]
#   7 A_WORLD                Profile RMS along major axis (world units)                 [deg]
#   8 B_WORLD                Profile RMS along minor axis (world units)                 [deg]
#   9 THETA_WORLD            Position angle (CCW/world-x)                               [deg]
#  10 FWHM_WORLD             FWHM assuming a gaussian core                              [deg]
#  11 ELONGATION             A_IMAGE/B_IMAGE                                           
#  12 ELLIPTICITY            1 - B_IMAGE/A_IMAGE                                       
         1 -13.4487    212.5921     35.3685   4.0968396929e+01   2.8208275337e+01     1.038788    0.7912082 -57.73  0.003920795    1.208    0.172
         2 -12.8560    219.5570     28.3897   3.8515334505e+01   2.7497036258e+01    0.5993224    0.4938017  57.00  0.001498296    1.429    0.300
         3 -13.7465    232.0833     16.7507   3.4665847619e+01   2.6103651139e+01    0.8316539    0.7287173 -18.57  0.002701999    1.297    0.229
         4 -11.1028      2.4412      4.0731   9.5434532921e+01   7.8071721766e+01     0.338076     0.166487 -53.23  0.001821818    1.714    0.417
         5 -10.1701    249.7417      1.7911   3.0212883887e+01   2.4044111876e+01    0.2145131    0.1503966 -74.73  0.001424545    1.370    0.270
         6  -9.5353    120.0547      1.8171   4.1032583612e+01   5.4950189414e+01    0.2309625    0.1404374 -70.27 0.0007421548    1.931    0.482
         7 -15.5725     65.4704    247.0200   1.1194893004e+02   1.6560840111e+01     8.222312     2.365661  24.01   0.01377587    8.415    0.881
         8 -13.8968     86.1376    227.9194   1.0639054327e+02   1.7320044576e+01     1.162409     1.027177  76.74  0.008664385    1.238    0.193
         9 -16.1771     31.3671    184.1338   1.1520890857e+02   3.2264401153e+01     9.048613     3.034596  75.18    0.0311264    4.542    0.780
        10  -9.5979    209.6557    199.8659   7.8388204855e+01   4.6681602614e+00    0.1484158    0.1014949 -38.72 0.0003430308    1.684    0.406
        11 -10.8944    192.4378    193.6886   8.0424917388e+01   7.9511300788e+00     0.525013    0.2748294 -58.06    0.0019324    5.428    0.816
        12 -13.1986     29.2399    206.1171   1.1698972252e+02   2.7867476359e+01    0.4798659    0.3995192 -38.54   0.00105604    1.726    0.421
        13  -9.0550     99.4963    181.0085   9.8259257204e+01   2.4427811791e+01     0.179926    0.1312673 -62.19 0.0004473424    1.494    0.331
        14 -12.0145     58.0904    178.8672   1.0820370767e+02   3.0482545981e+01    0.3989728    0.2761339 -33.85  0.002125784    2.105    0.525
        15 -11.9423     63.6389    173.3050   1.0622416743e+02   3.1038777851e+01    0.2966253    0.2571415 -38.68  0.001117882    1.438    0.305
        16  -9.7414    150.2102    178.7591   8.6302541927e+01   1.6911463781e+01    0.3621053    0.2167887 -73.24  0.001401795    3.893    0.743
        17  -9.8385    144.1104    179.3116   8.7718046614e+01   1.7798266163e+01    0.2235466     0.181839 -23.40  0.001217012    1.341    0.254
        18 -11.6860     73.9681    163.5847   1.0237142955e+02   3.1891364046e+01     0.321286     0.283485  59.95 0.0003986303    1.026    0.025
        19 -13.2258     57.2994    129.4811   1.0232417552e+02   4.2384295673e+01     3.070617    0.9340655 -77.34  0.006328184    9.074    0.890
        20 -13.6771     79.5071    156.8144   9.9958363069e+01   3.2679423002e+01     2.878986     1.048695  54.44  0.009036661    4.096    0.756
        21 -12.0949     32.5031    156.3918   1.1283137088e+02   3.8515794443e+01    0.4037854    0.2718354  88.95  0.001300362    1.362    0.266
        22  -9.6583    124.0404    152.6901   8.7676025230e+01   2.6446776286e+01    0.2203843    0.1926424 -81.57 0.0004887688    1.298    0.230
        23  -9.4321    175.1731    149.2070   7.5469737394e+01   1.7934861043e+01    0.1776661    0.1679094 -81.31    0.0005704    1.332    0.249
        24 -10.3888    133.5771    143.6587   8.3565082466e+01   2.6643575277e+01    0.9772307    0.2347384 -54.76  0.002115654    7.945    0.874
        25  -9.0188    158.6572    162.2733   8.1520265089e+01   1.8493700288e+01    0.1309173    0.1073581  68.27 0.0006996908    1.617    0.381
        26  -9.6187     47.3167    146.3310   1.0762133912e+02   3.9382169957e+01    0.1346232   0.09982159 -39.52 0.0004219406    1.685    0.406
        27 -11.8871     29.9903    143.4038   1.1237556954e+02   4.1924417908e+01    0.3614645    0.3298811 -42.06  0.002301994    1.335    0.251
        28 -10.5111     96.2954    142.9954   9.3119065895e+01   3.3324839651e+01    0.3704799    0.2669609 -43.92  0.001064462    1.517    0.341
        29  -9.6986     99.3075    139.9974   9.1735667132e+01   3.3524271627e+01    0.3779781    0.2059833 -31.32   0.00109094    3.100    0.677
        30 -12.3465     84.3206    141.4452   9.6198969074e+01   3.5594796487e+01    0.3051964    0.2592996 -55.84 0.0005501579    1.212    0.175
        31 -11.6006     74.7025    135.9838   9.8065454041e+01   3.8366028873e+01    0.5590786    0.2568645  59.18   0.00194737    3.184    0.686
        32 -13.2746     68.2324    144.4956   1.0130645652e+02   3.7200262481e+01     0.892107    0.5831164  74.02  0.002977735    1.744    0.427
        33 -13.4059     60.8045    159.6973   1.0541606729e+02   3.4531524127e+01    0.5145175     0.321509 -43.41   0.00134173    2.023    0.506
        34  -9.6190    157.0032    132.5281   7.5705182731e+01   2.4449029805e+01    0.2109956     0.141097  43.97 0.0004702839    1.515    0.340
        35 -10.7977    107.1595    131.2681   8.7834749273e+01   3.4190312215e+01    0.4294638    0.3228819  43.60  0.001569734    1.313    0.239
        36 -11.4303     67.6494    128.9617   9.9010871849e+01   4.1122302357e+01    0.4008357    0.2274491  80.66  0.001574662    2.572    0.611
        37 -11.2221     47.6431    130.1009   1.0545411375e+02   4.3406786587e+01    0.2530768     0.178543  48.52  0.001329791    1.386    0.279
        38 -10.7496     95.2423    127.7836   9.0484322760e+01   3.7094286476e+01    0.2673397    0.2401287 -51.53 0.0003921461    1.135    0.119
        39  -9.8657    115.3404    125.3192   8.4307615155e+01   3.4051223615e+01    0.2360191    0.1820685 -11.72 0.0008709644    1.743    0.426
        40  -9.5895    105.8089    119.9088   8.5732674470e+01   3.7075497679e+01    0.2089375     0.194348 -27.53 0.0002878979    1.162    0.139
        41 -15.5327     10.6748    209.8812   1.2113432017e+02   2.8841821008e+01     2.456477     1.264585  78.21   0.01489146    1.728    0.421
        42  -9.4416    168.0434    113.0548   6.8701808533e+01   2.5948732941e+01    0.2374028    0.1829914 -76.61  0.001129642    1.803    0.445
        43  -9.3448    135.0000    112.9479   7.6211685063e+01   3.2878688401e+01    0.2572668   0.08502322 -45.13   0.00080762    2.978    0.664
        44 -10.6332     34.9238    111.5217   1.0704987365e+02   4.9567192753e+01    0.4294009     0.144737  46.05   0.00155107    3.138    0.681
        45  -9.9297    205.1657    110.6224   6.1249691996e+01   1.8857537371e+01    0.2968377    0.2260346  26.85  0.001160615    1.475    0.322
        46 -11.0010     53.0457     91.4243   9.6646479209e+01   5.2689686559e+01    0.3887708    0.2020707 -58.33  0.001680252    1.734    0.423
        47 -10.1634     41.8842     92.0729   1.0111965832e+02   5.3887121331e+01    0.2120445    0.1946165 -69.07 0.0005162275    1.031    0.030
        48  -9.2889    161.4414     82.4852   6.1849557203e+01   3.3047402036e+01    0.1510905    0.1414679 -48.27 0.0001333406    1.032    0.031
        49 -10.2048     30.7234     60.9195   9.8702470098e+01   6.2974223107e+01    0.5272887    0.1939147  44.23    0.0019165    3.458    0.711
        50 -11.0650     13.4673     60.2325   1.0720124749e+02   6.4570518828e+01    0.2407595    0.2115868 -67.38 0.0004976494    1.039    0.038
        51 -10.3284     34.4305     55.5678   9.5289938390e+01   6.3881004921e+01    0.2501551     0.219516  70.15 0.0006571998    1.325    0.245
        52 -11.0445     11.8504     52.9950   1.0646807404e+02   6.6469518573e+01    0.2148129    0.1960819   5.20  0.001198677    1.255    0.203
        53 -12.5016    196.9157     48.2547   4.6209959050e+01   3.0119743838e+01     1.454274     1.032852  76.72  0.007651584    1.547    0.354
        54 -12.8581    204.4772     40.3821   4.3150281889e+01   2.9415070788e+01    0.7333269    0.5484117 -78.09  0.001972592    1.420    0.296
        55  -9.2859    174.6435    248.3185   9.1506649239e+01   3.0446478508e+00    0.1028577   0.07453166  47.25 0.0007045338    1.754    0.430
        56 -15.3850      7.7788    239.9091   1.2261580916e+02   2.3553697410e+01     2.369809     1.284333  38.73   0.01649453    1.423    0.297
        57 -10.7502    132.6385     39.7593   5.3853398385e+01   4.7238303588e+01    0.3883672    0.2703341 -67.65   0.00176082    1.730    0.422
        58 -10.2929    132.4804     31.8038   5.0903957563e+01   4.8403273253e+01    0.2655684    0.2169832 -78.68 0.0006872685    1.318    0.241
        59 -11.1460    184.0709    216.1854   8.5499808685e+01   5.9650493663e+00    0.2603869    0.1374042  39.13   0.00141567    1.785    0.440
        60 -10.1104    189.5106     15.0274   3.7478156461e+01   3.5903351667e+01    0.2020494    0.1761493 -79.18 0.0006136762    1.093    0.085
        61 -10.0521    109.9797    201.4436   9.8494958949e+01   1.8896715625e+01    0.1758254    0.1649181 -73.03 0.0004576032    1.220    0.180
        62 -11.7388    166.6878    220.9645   8.9423441473e+01   7.6669201485e+00     0.250055    0.1883003  43.57  0.001657888    1.441    0.306
