#   1 NUMBER                 Running object number                                     
#   2 MAG_AUTO               Kron-like elliptical aperture magnitude                    [mag]
#   3 X_IMAGE                Object position along x                                    [pixel]
#   4 Y_IMAGE                Object position along y                                    [pixel]
#   5 X_WORLD                Barycenter position along world x axis                     [deg]
#   6 Y_WORLD                Barycenter position along world y axis                     [deg]
#   7 A_WORLD                Profile RMS along major axis (world units)                 [deg]
#   8 B_WORLD                Profile RMS along minor axis (world units)                 [deg]
#   9 THETA_WORLD            Position angle (CCW/world-x)                               [deg]
#  10 FWHM_WORLD             FWHM assuming a gaussian core                              [deg]
#  11 ELONGATION             A_IMAGE/B_IMAGE                                           
#  12 ELLIPTICITY            1 - B_IMAGE/A_IMAGE                                       
         1 -17.3155     84.8936    155.3915   5.5279894455e+01   3.1989188841e+01     4.408997      2.68143  53.54   0.01934609    1.732    0.423
         2 -18.4409    152.1790    151.1718   3.6581598631e+01   2.1093550230e+01     10.51434     5.151067  42.04   0.04410817    2.018    0.504
         3 -16.5470    111.4010    142.1812   4.5114856459e+01   3.0618278326e+01     4.320078     3.057516  39.75   0.02034602    1.350    0.259
         4 -15.4460    238.2754      7.7880   3.5065051548e+02   2.5816580128e+01     1.891613    0.9319621 -81.65   0.01078553    2.034    0.508
         5 -16.6629    183.8106      8.0548   3.5382644749e+02   3.7491373639e+01     5.093405     1.224044  81.64   0.01601359    4.721    0.788
         6 -12.9043    133.3305    204.0822   5.0176919436e+01   1.3966638927e+01     0.410124    0.1570438  38.36  0.001714883    2.277    0.561
         7 -13.2307    142.5244    201.4660   4.7715132059e+01   1.3086436590e+01    0.5031816     0.187573  41.63   0.00202479    2.615    0.618
         8 -15.3219    153.4894    199.2647   4.4965621619e+01   1.1854003754e+01     0.975809    0.4401229  32.45  0.004477338    1.979    0.495
         9 -15.2509    162.0217    190.9329   4.1784648822e+01   1.2021306504e+01    0.8899867    0.5245185  42.90  0.004536077    1.783    0.439
        10 -13.6767     89.3950    198.5221   6.0067992241e+01   2.1429540524e+01    0.4647007    0.2839102  46.55  0.002061721    1.499    0.333
        11 -13.6633    125.4764    198.1289   5.1134885616e+01   1.6244412082e+01    0.4325616    0.2637744  43.32  0.001893101    1.570    0.363
        12 -13.8873    114.1138    197.8106   5.3813949488e+01   1.8001713463e+01    0.5427629    0.2919512  41.02  0.002146946    1.664    0.399
        13 -13.0801     66.8673    194.1652   6.5437156095e+01   2.5412217829e+01    0.4517409    0.2539332  52.05  0.002184419    1.681    0.405
        14 -13.0514    103.1159    193.7533   5.5981431335e+01   2.0456549892e+01    0.3231433    0.2142908  50.27  0.001349758    1.515    0.340
        15 -15.1356     50.3177    140.1027   6.3976786215e+01   4.0869285419e+01     3.723558     1.694685  13.26    0.0126943    3.301    0.697
        16 -11.7913     96.9037    225.6360   6.1272692463e+01   1.5064795250e+01    0.3317364    0.1381567  43.01    0.0015218    2.074    0.518
        17 -13.3175    139.3775    113.1947   3.0961927006e+01   3.1493799473e+01     1.878985    0.4750345  42.31  0.005056844    4.308    0.768
        18 -13.8902    121.1506    119.7705   3.7363448540e+01   3.3900688836e+01      1.20867    0.5955809  37.09  0.003582153    2.136    0.532
        19 -14.3076     86.3711    123.7665   4.8859083250e+01   3.9676736788e+01     1.508501     0.884042  23.80  0.005949433    2.068    0.516
        20 -14.3088    101.7955    120.3805   4.3170712926e+01   3.7645127572e+01     1.248886    0.8108435  27.68  0.003612847    1.750    0.429
        21 -12.1092    117.9738    211.0265   5.4671704796e+01   1.4900471768e+01    0.3411772    0.1583202  38.12  0.001588445    1.822    0.451
        22 -12.3786     34.2288    186.4199   7.3565572356e+01   3.1019676408e+01    0.2787262    0.1922153  64.31  0.001464561    1.315    0.240
        23 -13.3610      8.1139    155.4127   7.9195846271e+01   4.0997921840e+01    0.4059733    0.3121017  87.45  0.002169994    1.183    0.155
        24 -13.8493     43.9681    169.4954   6.9393612013e+01   3.4052359709e+01    0.4780066    0.3491894 -84.89  0.002567439    1.378    0.275
        25 -13.0448    100.5497    206.5237   5.8256203862e+01   1.8226333976e+01    0.4925972    0.2291431  45.10  0.002206968    2.016    0.504
        26 -13.4986     44.0428    180.1337   7.0344937799e+01   3.1446245970e+01    0.4275281     0.312592 -56.09  0.002339703    1.561    0.360
        27 -12.8574      5.5640    135.3754   7.8903178136e+01   4.6365196029e+01    0.6878544    0.3696678  -8.18   0.00306035    2.602    0.616
        28 -13.3718     25.9563    130.9662   7.1381411969e+01   4.5968574799e+01    0.8952753    0.4889801  11.08  0.003896511    2.211    0.548
        29 -12.8716     41.8424    130.2572   6.5575414873e+01   4.4524418236e+01    0.7229828    0.4144637   4.55  0.002922694    2.468    0.595
        30 -13.0056     15.4147    140.6971   7.5921619547e+01   4.4260686890e+01    0.6383172    0.3850831 -12.54  0.002937569    2.335    0.572
        31 -11.9232     37.1702    177.9322   7.2106869168e+01   3.2734112591e+01    0.2959256    0.1915534  20.82  0.001446494    1.626    0.385
        32 -11.1495     55.9853    127.3069   6.0042135592e+01   4.3542747792e+01    0.2690788    0.1955961  17.24  0.001107852    1.555    0.357
        33 -11.5283     51.1949    129.7864   6.2155286261e+01   4.3512519728e+01    0.3795913    0.1995433  10.78  0.001262206    2.743    0.635
        34 -13.6762     88.6506    175.6792   5.7289437874e+01   2.6580615729e+01    0.3656842    0.3357356 -56.05  0.001332546    1.203    0.169
        35 -12.3055      3.7988    123.7383   7.8805178292e+01   4.9557383050e+01    0.5037609    0.2224735  35.68  0.002239552    2.125    0.529
        36 -13.4364     15.9360    120.1987   7.3998972512e+01   4.9712214148e+01    0.7535601    0.4842458 -14.37  0.003600359    2.017    0.504
        37 -14.7588     77.2402    174.5311   6.0314883237e+01   2.8522091787e+01    0.8621837    0.3725428  30.54  0.003438696    2.131    0.531
        38 -12.8025    160.9012    117.6273   2.7124126459e+01   2.6039506077e+01    0.6274874    0.3195121  43.13  0.002274214    2.048    0.512
        39 -13.2862     61.3794    115.8940   5.5977092470e+01   4.5826464245e+01    0.8577403    0.5246733  32.18  0.003458023    1.629    0.386
        40 -12.5819     73.0003    115.6828   5.1691594452e+01   4.4055010540e+01    0.7157821     0.361253  23.67  0.002584361    2.471    0.595
        41 -13.4366     31.5652    114.5043   6.7249823670e+01   4.9910916847e+01    0.9249046    0.3425166  29.87  0.003472328    2.518    0.603
        42 -13.3923     46.9637    112.0377   6.0763300884e+01   4.8846865091e+01     0.986555    0.4278955  46.35  0.003639277    2.417    0.586
        43 -12.6622     24.2881    172.6054   7.5406560263e+01   3.5331152639e+01    0.2980713     0.247633 -29.04  0.001744753    1.554    0.357
        44 -13.8368     31.5030    157.7498   7.2100644515e+01   3.8364495809e+01    0.7099761    0.3010821 -67.01  0.002968054    2.262    0.558
        45 -13.5569    111.5635    107.4521   3.6989991729e+01   3.8728904374e+01    0.8947677    0.6099862  45.16  0.003962208    1.445    0.308
        46 -13.1094      5.9740    109.7801   7.6955806392e+01   5.3180169202e+01     0.747583    0.3461956  32.43  0.003337453    2.117    0.528
        47 -13.4869     34.4717    170.7618   7.2305836284e+01   3.4775661091e+01    0.4408448    0.3151065 -69.02  0.002397687    1.455    0.312
        48 -14.0366     37.5478    162.7205   7.0684108415e+01   3.6465633968e+01    0.7070226    0.4408666 -41.01  0.003332955    2.067    0.516
        49 -13.8817     95.5621    104.4286   4.1188211914e+01   4.2748258128e+01     0.950972    0.6325613  24.35  0.003266544    1.860    0.462
        50 -13.2839     81.0296    105.4244   4.6425351267e+01   4.5293606369e+01    0.9112255    0.4715917  33.58  0.003491127    2.003    0.501
        51 -11.8404    135.2578    106.6881   3.0307415502e+01   3.3763587359e+01     0.473614    0.2237978  47.89  0.001775458    2.131    0.531
        52 -12.2665     46.8816    162.6931   6.7830470614e+01   3.5419913857e+01    0.3141756    0.2358083 -64.68  0.001552554    1.394    0.283
        53 -12.6697     68.4830    104.9239   5.0920624304e+01   4.7607090607e+01    0.6878621    0.3380221  30.00   0.00258821    2.161    0.537
        54 -11.2228     60.4756    106.1783   5.4286409193e+01   4.8544305697e+01    0.2992772    0.2114614  29.85  0.001252663    1.452    0.311
        55 -12.7387     17.1452    104.7585   7.1856887764e+01   5.3821853232e+01    0.6327958    0.3521444  11.09  0.002865811    2.062    0.515
        56 -12.5859    124.5029    107.6790   3.3380107997e+01   3.5902010803e+01    0.8265287    0.4490203  31.75  0.003050839    2.361    0.577
        57 -13.6753     74.3545    183.0209   6.2184451501e+01   2.6945444228e+01    0.4061307     0.252984  44.93  0.001625052    1.428    0.300
        58 -12.9726     77.6433    193.0319   6.2469122664e+01   2.4237106374e+01    0.3322957     0.187147  31.00  0.001559588    1.569    0.363
        59 -11.9159    142.1955     99.1109   2.6587301835e+01   3.3784227929e+01     0.498977     0.226387  46.43  0.001851107    2.242    0.554
        60 -13.4418     10.0941     96.6738   7.3958148429e+01   5.6486576942e+01    0.7845253    0.2991704  20.59  0.003133509    2.676    0.626
        61 -11.9724    152.1436     96.1125   2.3518590486e+01   3.2124795450e+01    0.4863763    0.2380556  42.26  0.001862065    2.283    0.562
        62 -13.6724     27.1737     91.5454   6.5495680527e+01   5.6584403653e+01     1.019461    0.3716424  41.50  0.003691857    2.813    0.645
        63 -13.5868    113.0053     91.7156   3.2191630213e+01   4.1970418803e+01     1.277223    0.5267242  47.18  0.003917806    2.402    0.584
        64 -13.5193    127.4896     85.0007   2.6202675530e+01   4.0049891620e+01     1.013945    0.5156608  41.27  0.003644658    2.183    0.542
        65 -12.3133     83.7765     93.9208   4.2390948076e+01   4.7638031366e+01    0.5891349    0.3380702  28.66  0.002279268    2.068    0.517
        66 -12.2678    132.0559     96.3906   2.8325107288e+01   3.6645122226e+01    0.5581688    0.2725885  42.00  0.002080493    2.184    0.542
        67 -12.9737     51.2094     92.6078   5.4976233663e+01   5.3488727175e+01     0.951866    0.2863389  41.38  0.002956405    3.322    0.699
        68 -12.6481     97.1329     90.5961   3.6809768367e+01   4.5703838379e+01    0.6085006    0.4285951   5.16  0.002391555    2.345    0.574
        69 -12.2352    140.8901     87.3955   2.3621590279e+01   3.6416552490e+01    0.6218688    0.2702838  47.55  0.002258116    2.347    0.574
        70 -13.6816     10.1901     85.1503   7.2509628665e+01   5.9585288848e+01     0.907046    0.2394154  23.60  0.003169448    3.483    0.713
        71 -11.9444     67.1340     85.7769   4.6475347881e+01   5.2730484863e+01    0.6604528    0.2216954  27.78  0.001718194    4.719    0.788
        72 -11.6427    152.2409     85.1449   2.0473293056e+01   3.4181348717e+01    0.6057256    0.4037534  62.03  0.002767044    1.598    0.374
        73 -11.5404    165.4850     83.5148   1.7399498144e+01   3.1400961376e+01    0.3340848    0.2738255  32.05  0.001726972    1.447    0.309
        74 -11.7607    160.2380     80.3452   1.7518012751e+01   3.3177665793e+01     1.404668    0.3298127  57.42  0.003768489    4.822    0.793
        75 -12.0750    143.3511     79.8293   2.0858863778e+01   3.7280130909e+01    0.5402376    0.2541971  52.19  0.002068208    2.126    0.530
        76 -12.2910     89.5552     79.2291   3.5895214897e+01   4.9922322438e+01    0.6636708    0.2815533  33.29  0.002050322    3.241    0.691
        77 -12.1948     38.5623     80.1685   5.7729732330e+01   5.8407203044e+01    0.3849387    0.2047789   9.29  0.001489156    2.551    0.608
        78 -12.0103    107.4600     76.0160   2.8987769022e+01   4.6611387501e+01    0.5639994    0.2217115  44.31  0.001875161    2.597    0.615
        79 -11.9340     12.7539    174.5353   7.8806049241e+01   3.5881138893e+01    0.2505859    0.1716844  89.71  0.001415941    1.375    0.273
        80 -12.9653      3.2666     73.3392   7.4446067905e+01   6.3066486731e+01    0.4483138    0.2235325  72.13  0.001924754    2.354    0.575
        81 -14.9238     95.8446    185.4064   5.6713849362e+01   2.3318892118e+01    0.8089944    0.5856833 -86.09  0.003678835    1.747    0.428
        82 -12.9324     86.9362    188.6301   5.9487966071e+01   2.3912095059e+01    0.3010268    0.2200194  51.29  0.001231382    1.301    0.232
        83 -14.0381    166.0578    203.4136   4.2968202605e+01   9.3355535117e+00    0.5757722    0.2192599  35.52  0.002530027    2.349    0.574
