#   1 NUMBER                 Running object number                                     
#   2 MAG_AUTO               Kron-like elliptical aperture magnitude                    [mag]
#   3 X_IMAGE                Object position along x                                    [pixel]
#   4 Y_IMAGE                Object position along y                                    [pixel]
#   5 X_WORLD                Barycenter position along world x axis                     [deg]
#   6 Y_WORLD                Barycenter position along world y axis                     [deg]
#   7 A_WORLD                Profile RMS along major axis (world units)                 [deg]
#   8 B_WORLD                Profile RMS along minor axis (world units)                 [deg]
#   9 THETA_WORLD            Position angle (CCW/world-x)                               [deg]
#  10 FWHM_WORLD             FWHM assuming a gaussian core                              [deg]
#  11 ELONGATION             A_IMAGE/B_IMAGE                                           
#  12 ELLIPTICITY            1 - B_IMAGE/A_IMAGE                                       
         1 -15.3888    100.8628     49.7900   2.5756689805e+01   5.2377760421e+01     5.245919    0.9850498  53.02   0.01345341    5.120    0.805
         2 -12.7888    120.5687     26.0404   1.2532975291e+01   5.0785366716e+01    0.6838064    0.5336819  40.62  0.003684196    1.299    0.230
         3 -13.1238    135.7505     51.2958   1.7723958763e+01   4.3835378479e+01     1.336842    0.4903669 -34.78   0.00492272    2.813    0.644
         4 -13.0778    140.3589     21.1486   7.4701002346e+00   4.6439655158e+01    0.6241819    0.3243498  66.83  0.001022363    1.686    0.407
         5 -14.6805    166.8563     29.4581   6.1343518318e+00   3.9071469494e+01     1.004047    0.7911648  74.65  0.003628575    1.155    0.134
         6 -13.9755    111.8558     40.0453   1.9350762177e+01   5.1195374316e+01    0.8856041    0.5043925  26.90   0.00306966    2.533    0.605
         7 -14.5206     61.1269     75.9287   4.8931584102e+01   5.5412620487e+01     2.694488     1.941251 -60.85  0.008306751    1.650    0.394
         8 -14.9898      6.8370     71.4054   7.2101592520e+01   6.2362120161e+01      1.19459    0.7346864 -50.88  0.005127431    1.332    0.249
         9 -15.4193    217.8415     16.9617   3.5810624135e+02   2.9004100964e+01     1.885504    0.9837177 -34.66   0.01062122    1.867    0.464
        10 -12.2807    232.5259      2.2084   3.5417571162e+02   2.7582541750e+01    0.3832107    0.2340619  60.51  0.002244275    1.968    0.492
        11 -14.9136    189.4364     20.6148   1.3296252189e+00   3.4783022325e+01     1.638559    0.7658362 -45.29  0.008200267    1.951    0.487
        12 -16.0116     11.7697     22.5155   5.3403359123e+01   7.2068114736e+01     2.035173     1.066275 -23.54   0.01054124    1.899    0.473
        13 -14.1751     26.9067     12.8491   3.9082232615e+01   7.1724537803e+01    0.8113468     0.474162   6.71  0.004318725    1.925    0.480
        14 -14.8596    147.6580     29.5711   8.8957335226e+00   4.3724119502e+01     1.581097    0.7616599  63.23  0.007022791    1.835    0.455
        15 -13.8179    242.4110     34.3892   3.5986188720e+02   2.2130008635e+01    0.7225389    0.5202171 -86.47  0.003174369    1.328    0.247
        16 -13.6392     58.2307     26.7481   3.0928248094e+01   6.4644469052e+01     1.090814    0.3509151  42.64  0.003040554    2.770    0.639
        17 -15.5434     99.4771     11.8862   1.1783667041e+01   5.7290093680e+01     1.643241    0.8629181  55.31  0.003384813    1.568    0.362
        18 -11.9066     70.9994     16.5176   2.1474654066e+01   6.3294234485e+01    0.3342302    0.2478734 -16.36 0.0007992432    1.468    0.319
        19 -12.7230     74.5262     10.0927   1.7437883789e+01   6.3166510032e+01     0.454614    0.3019944 -12.06  0.002554278    1.709    0.415
        20 -12.5162     60.0936     15.5142   2.4860673312e+01   6.5650242858e+01    0.5441806    0.2923808  34.19  0.002724627    1.740    0.425
        21 -15.1525    124.3643     35.9614   1.5124956949e+01   4.8691486291e+01     6.709358    0.3143935  49.87    0.0119195   11.424    0.912
        22 -12.2148     46.8185     12.9612   2.9025291963e+01   6.8464913803e+01    0.3234815    0.2384839  49.53   0.00125632    1.470    0.320
        23 -12.0502    153.1863      8.2485   1.9270000460e+00   4.4552462148e+01    0.2895004    0.2225027  53.07  0.001183016    1.353    0.261
        24 -12.7646     85.4845     13.8076   1.5965102708e+01   6.0370742490e+01    0.4210445    0.3421143  10.86  0.001973982    1.322    0.244
        25 -12.5272    120.1312      3.1831   4.7818396083e+00   5.3029097066e+01    0.5636638    0.2690979 -89.21  0.002349409    2.756    0.637
        26 -14.2297     41.4617      5.1711   2.7234313798e+01   7.0273255978e+01    0.9870245    0.5748906  11.89   0.00455789    1.936    0.483
        27 -11.4654     67.8647      2.5915   1.5946803806e+01   6.5258303769e+01    0.3139934    0.1598596  37.36   0.00158769    1.786    0.440
        28 -12.9540      7.6826      2.5381   4.5475581431e+01   7.5562846663e+01    0.5591013    0.4073743  25.57  0.003843973    1.425    0.298
        29 -12.3948     80.1120      1.7475   1.2159717627e+01   6.2616668975e+01    0.7018166   0.09718376  59.03  0.002206785    4.195    0.762
        30 -11.6168     61.3225      1.5054   1.7488909469e+01   6.6733548534e+01    0.4202106    0.1009947  56.85  0.001521148    3.406    0.706
        31 -14.3348     30.0703    169.1048   7.8215290041e+01   3.5803597761e+01      1.06846    0.8319644  16.64  0.005028046    1.478    0.323
        32 -12.9081    107.9429    245.6713   6.7325103267e+01   8.6813949268e+00    0.6652833    0.5252646 -72.87  0.004140398    1.605    0.377
        33 -14.7423     95.1708    234.9363   6.8962332817e+01   1.2484086504e+01     1.300389    0.8333767  68.98  0.006633169    2.071    0.517
        34 -13.1339     57.1318    246.9220   7.8596901195e+01   1.5071229223e+01    0.5697199    0.3029772  30.08  0.003065921    1.703    0.413
        35 -12.0962     41.1863    249.3727   8.2155467772e+01   1.6447176719e+01    0.2795124    0.1915013  73.87  0.001786294    1.411    0.291
        36 -13.5924     28.1585    246.5243   8.4683983266e+01   1.8418091264e+01    0.5881395    0.4925573  24.08  0.004162793    1.398    0.285
        37 -12.1892      2.7476    249.5332   8.9899043223e+01   2.0327231528e+01    0.3863792    0.2014281  44.94  0.001894854    1.466    0.318
        38 -14.1224      9.3824    245.5592   8.8437971086e+01   2.0482238307e+01    0.9438218    0.3862494  49.43  0.003689976    1.847    0.459
        39 -12.5937     48.5728    181.3533   7.4416018454e+01   3.0707132358e+01    0.5590019    0.3179629 -50.38  0.002609695    1.900    0.474
        40 -11.6516    109.4924    183.4914   5.8174803442e+01   2.1372968567e+01    0.2756426    0.1429329  22.05  0.001040882    2.386    0.581
        41 -13.4866    197.3823    179.2825   3.6960997717e+01   7.2283641379e+00    0.6866603    0.4708067 -70.20  0.002969215    3.092    0.677
        42 -11.3730    122.0195    180.7912   5.4443079095e+01   1.9875124486e+01    0.4241573    0.2583877  78.06  0.001385582    4.015    0.751
        43 -12.6146     89.5240    169.7518   6.1254224441e+01   2.7898932747e+01    0.3991267    0.2482176  21.98  0.001698738    1.815    0.449
        44 -13.4590     84.9091    179.7290   6.4171326432e+01   2.6175528753e+01    0.4900155    0.3445353  80.40  0.002275219    1.808    0.447
        45 -13.6424    124.3173    166.1913   5.1068680580e+01   2.2797402109e+01    0.7402661    0.4926687 -67.37  0.003200438    1.936    0.483
        46 -13.8847     22.2948    180.9594   8.1472122658e+01   3.3595100876e+01    0.9039289    0.4816918 -55.18  0.003833674    1.944    0.486
        47 -12.7581     77.3370    156.9125   6.2562671282e+01   3.3008338051e+01    0.6053861    0.5136455  17.46  0.001963938    1.268    0.211
        48 -13.8195     74.0210    153.4960   6.2958813613e+01   3.4378809172e+01    0.7695053    0.6506374  26.40  0.002546567    1.223    0.182
        49 -11.0720    155.6572    157.3246   4.1394334721e+01   1.8905018344e+01    0.1502645    0.1225885  82.59 0.0007050823    1.734    0.423
        50 -12.7236    111.8486    155.6511   5.2306374847e+01   2.7534794748e+01    0.5613395    0.3843278  75.74  0.002264425    2.286    0.563
        51 -12.9331    208.5111    154.0042   2.9724073763e+01   9.8954558941e+00    0.6438695    0.4625359  32.71  0.003518369    1.505    0.335
        52 -11.1748    101.6858    160.8431   5.6192634766e+01   2.8073333616e+01     0.224263    0.1944307  22.27  0.001141871    1.177    0.150
        53 -12.3234     85.5841    152.8617   5.9350183549e+01   3.2743443983e+01    0.6087495    0.3357862 -39.81  0.002411998    2.107    0.525
        54 -12.1384     55.6010    155.4991   6.8920901139e+01   3.6413883669e+01    0.4448086    0.2819828 -24.30  0.001905585    2.238    0.553
        55 -12.8603      8.6764    149.3539   8.2487588742e+01   4.2668811955e+01    0.6691558    0.4100632  63.60  0.003463326    1.681    0.405
        56 -11.2199     12.6603    148.6742   8.1223578997e+01   4.2549994779e+01    0.2195516    0.1908775 -22.76  0.001236114    1.356    0.263
        57 -12.0276    103.6292    149.6325   5.3389623092e+01   3.0471893777e+01    0.4199128    0.3131709 -24.72  0.001566393    1.604    0.377
        58 -12.3307     62.6734    145.9940   6.5158783559e+01   3.7942426581e+01    0.2916101    0.2007932  56.49  0.001349065    1.619    0.382
        59 -10.6963     38.1864    145.8079   7.2927999538e+01   4.0979933747e+01    0.1964286    0.1570789 -40.09 0.0004646194    1.337    0.252
        60 -12.5518     42.2406    138.5446   7.0528857042e+01   4.2439271449e+01    0.4436291    0.2339766  38.33  0.001945564    1.930    0.482
        61 -12.9479    246.6364    132.9632   1.9360872171e+01   7.1916061169e+00    0.4655717    0.3229529 -42.63  0.002796115    1.247    0.198
        62 -14.7458    232.7434    127.8411   2.0287623330e+01   1.0257991050e+01     1.317043    0.6859208 -47.20   0.00645217    1.821    0.451
        63 -11.7673     47.2374    132.4773   6.7850859710e+01   4.3451931475e+01    0.4786666    0.2124725 -68.67  0.001823384    2.310    0.567
        64 -10.5137     10.9615    133.9916   8.0214061114e+01   4.6454169554e+01     0.150249    0.1444455 -83.82 0.0003715339    1.102    0.093
        65 -12.7630    136.6351    131.8334   4.0251528340e+01   2.8246305505e+01    0.7203647    0.3583491  40.98  0.002750606    2.025    0.506
        66 -14.8884    105.7118    121.0238   4.6199736983e+01   3.7000599145e+01     1.893219     1.327411  33.46  0.008488483    1.459    0.314
        67 -14.9461    105.8178    105.3083   4.2020417198e+01   4.0609812523e+01     1.564236     1.221686  41.66   0.00748237    1.276    0.216
        68 -12.3459    176.8375    121.1715   2.8422051508e+01   2.2040769341e+01    0.3353062    0.2178393  41.26  0.001553124    1.644    0.392
        69 -12.4774    180.9073    120.1546   2.7369023611e+01   2.1391606384e+01    0.2680182    0.2454113 -85.29  0.001144542    1.236    0.191
        70 -12.6361      4.9372    118.7696   8.0500825890e+01   5.0752347699e+01    0.6612478    0.3970363 -27.61  0.003365162    1.927    0.481
        71 -11.9870     42.6912     90.1810   6.0623600173e+01   5.4721708519e+01    0.3918473    0.2512601 -58.90 0.0004344636    1.517    0.341
        72 -13.0468     21.4590     86.1778   6.8683780174e+01   5.7828905517e+01    0.7760677    0.4703667  -1.46  0.003416223    1.919    0.479
        73 -14.3123     18.3129    110.6737   7.4526208909e+01   5.1939758250e+01    0.9579968     0.681178 -45.39  0.003385463    1.313    0.239
        74 -14.1609     10.9352    102.8378   7.6114786670e+01   5.4446626182e+01    0.7859088    0.7240519 -86.99  0.004661395    1.141    0.124
        75 -13.7352      2.3364     96.9691   7.8615960544e+01   5.6404968711e+01    0.9234245    0.3699128 -70.83   0.00356072    2.126    0.530
        76 -14.6456     25.3883     93.8428   6.8655383101e+01   5.5616412625e+01      1.56415    0.9142005   0.46  0.007313585    2.078    0.519
        77 -13.2262     84.8654    115.0251   5.1291594361e+01   4.2338197116e+01     1.061002    0.5859051  21.72  0.003476086    2.358    0.576
        78 -12.1334     88.2348    109.3509   4.8713854816e+01   4.3097206097e+01    0.5079424    0.3069947 -61.60  0.002063817    1.943    0.485
        79 -11.8145    186.1226    115.9175   2.5358851555e+01   2.1110774380e+01    0.2239029    0.1940146 -70.87 0.0005934536    1.294    0.227
        80 -12.8220    121.3769    111.9236   3.9283334543e+01   3.5879883261e+01    0.3913041    0.3162327  73.16  0.001178353    1.525    0.344
        81 -12.2660    177.1572    110.4686   2.5758032684e+01   2.4015607021e+01    0.3756501    0.3151108  -1.79  0.001953724    1.419    0.295
        82 -11.9091     63.1595    110.8667   5.7810268233e+01   4.6894123929e+01     0.934441    0.3990315 -67.02  0.003017599    3.294    0.696
        83 -12.3926     62.0318     98.5985   5.5160568884e+01   5.0075348993e+01    0.5500382    0.3925776  65.95  0.002009451    1.974    0.493
        84 -11.3963     45.9266    110.1776   6.4011746375e+01   4.9374604747e+01    0.3061032    0.1953257 -49.06  0.001337511    1.451    0.311
        85 -10.9532     43.1217    106.8765   6.4365913288e+01   5.0542831251e+01     0.210824    0.1838575 -55.76 0.0005046741    1.076    0.070
        86 -13.0800    223.3642    128.0152   2.1735369542e+01   1.1837913463e+01    0.7276671    0.4527855 -59.46   0.00353084    2.106    0.525
        87 -12.1660     36.8292     92.8207   6.3691632434e+01   5.4748953008e+01    0.4329953       0.2828   1.79  0.001491069    1.803    0.445
        88 -12.8695    136.0272    102.7718   3.2908687653e+01   3.4632262192e+01    0.6361414    0.3848954  44.69  0.001729227    1.656    0.396
        89 -13.2426    137.3199     95.1980   3.0486032236e+01   3.5868575816e+01    0.5400978    0.4555202  84.51  0.001388317    1.393    0.282
        90 -13.6785    120.2050    102.3336   3.6990793532e+01   3.8220586572e+01    0.7282299    0.3637725  41.81  0.002773137    2.012    0.503
        91 -12.0545     48.8880     92.8359   5.8780549727e+01   5.3308595923e+01    0.7743233    0.5284222 -39.63  0.002385569    1.407    0.289
        92 -10.8157     48.6071    101.1885   6.0962155513e+01   5.1302553593e+01     0.419679    0.3451036  73.80  0.001636533    1.503    0.335
        93 -12.0012     52.2954     98.0071   5.8748662621e+01   5.1604383146e+01    0.4539287    0.2843251 -19.82  0.001445253    2.073    0.518
        94 -13.5307    248.3826     94.8902   1.1477784346e+01   1.2783025125e+01    0.8815213    0.3082817 -47.30  0.003782406    2.559    0.609
        95 -10.5824     75.2553    100.6206   5.0841370404e+01   4.7469876339e+01    0.1981726    0.1447782  22.18  0.000396853    1.467    0.318
        96 -12.5670    163.4550     97.6254   2.5249218443e+01   2.9444096772e+01    0.4300151    0.3208358  56.10 0.0007566684    1.386    0.279
        97 -11.7317     89.5983     98.1425   4.5185342227e+01   4.5448729344e+01    0.3869469    0.2289014 -30.58  0.001531448    2.072    0.517
        98 -11.6508    129.3076     95.9081   3.2718071423e+01   3.7543740876e+01     0.281354    0.2163116  59.21  0.001323679    1.390    0.281
        99 -13.4481     32.5286    112.1868   6.9445379752e+01   5.0319296422e+01    0.8071492    0.3395413 -52.70   0.00329404    2.056    0.514
       100 -14.5941    188.5452     82.6086   1.6814439605e+01   2.6460202186e+01     2.073883     1.204808  87.19  0.008225618    2.898    0.655
       101 -14.5752    198.6762     70.0403   1.2228445679e+01   2.6228605332e+01     1.385984    0.8600703  44.23  0.006854261    1.984    0.496
       102 -15.1837    160.5105     80.8756   2.1358646548e+01   3.3142932635e+01     2.270663     1.572192   0.29   0.00554804    2.399    0.583
       103 -14.6320    169.4658     76.9334   1.8603910572e+01   3.1724644960e+01    0.9217697    0.7466908  22.34  0.003288836    1.578    0.366
       104 -12.8983     28.6433    121.8033   7.2524610371e+01   4.8200390049e+01      0.57659    0.3111604 -53.22   0.00265822    1.657    0.397
       105 -14.9163    214.2734     76.8687   1.1743903526e+01   2.1900090359e+01     3.749583     1.360949  71.02   0.01200149    5.099    0.804
       106 -12.4980    132.3609     85.8976   2.9049428802e+01   3.8816562133e+01    0.2684309    0.2153609  63.38 0.0008697395    1.318    0.241
       107 -12.2114     78.8008    110.5927   5.2221713650e+01   4.4470466918e+01    0.3248647    0.2421106 -50.60  0.001318256    1.316    0.240
       108 -13.8628    239.6132     81.4430   9.7082774440e+00   1.6323612604e+01    0.7339895     0.443678 -84.47  0.003761492    2.389    0.581
       109 -10.8627     59.0082    125.0239   6.2403397970e+01   4.3884369096e+01    0.1842997    0.1636962 -57.77 0.0004247108    1.079    0.073
       110 -14.5984    170.1289    242.0569   5.3446119070e+01   6.0810610420e-01     1.116908    0.7173737  16.96  0.006416984    1.389    0.280
       111 -13.9757     20.8307    224.3991   8.4949881754e+01   2.3714962275e+01    0.5293148    0.4663811 -69.67  0.001938243    1.322    0.243
       112 -14.7222    119.6875     54.3409   2.2336828212e+01   4.7270565759e+01      1.02564       0.6933  44.97  0.002064324    1.427    0.299
       113 -12.8191     27.8129    235.6072   8.4111881625e+01   2.0648900798e+01    0.9623393    0.6226889   7.02  0.005324001    2.311    0.567
       114 -13.2796    148.4460    239.6111   5.7662680736e+01   4.0341887188e+00    0.5284079    0.3439406  65.63  0.002384635    3.140    0.682
       115 -14.3322     57.5875    201.7812   7.4326113623e+01   2.4683120148e+01     3.138591    0.7764784 -72.83  0.008368124    6.254    0.840
       116 -13.8065     74.6086     73.6598   4.2945235763e+01   5.3569448526e+01     1.514718    0.7571917  19.87  0.004948242    3.573    0.720
       117 -13.8324     87.7684     64.7591   3.5206976274e+01   5.2721196194e+01     1.122875    0.6889614 -11.23  0.004393761    2.645    0.622
       118 -14.0762     68.5257    221.1445   7.3682517881e+01   1.8932260248e+01    0.7805133     0.584896 -48.95  0.004496449    1.567    0.362
       119 -13.3656     55.4353     80.7201   5.2734241842e+01   5.5229865299e+01    0.5836334    0.5178195  30.49  0.002093882    1.182    0.154
       120 -13.3805    237.3101    231.0544   3.8954545294e+01  -6.2827742253e+00     0.561668    0.4128484 -37.83  0.003808693    1.686    0.407
       121 -12.2268    114.2095     80.0645   3.2103463084e+01   4.4089629590e+01    0.4301831    0.3723432 -49.83 0.0007459464    1.216    0.177
       122 -13.0296    135.3241     79.2052   2.6354026106e+01   3.9370400615e+01    0.8269868    0.3979842  53.41   0.00314716    2.059    0.514
       123 -11.6237     42.5153     79.4927   5.7822122309e+01   5.7260084214e+01    0.3385321    0.2580558 -60.94  0.001225421    1.393    0.282
       124 -11.4973     41.6834     75.9007   5.7147722996e+01   5.8182319866e+01    0.3219594    0.1918172 -53.14 0.0007752487    1.603    0.376
       125 -13.8379     95.3055    218.3899   6.6934885836e+01   1.5832714515e+01    0.6699215     0.293011  31.35  0.002843577    2.073    0.518
       126 -14.2242      5.5075     63.4564   7.0948305170e+01   6.4267545622e+01    0.6597297     0.596717 -34.49  0.003493143    1.107    0.097
       127 -11.4895     27.5385     76.3602   6.3624819500e+01   5.9628010901e+01    0.2710992    0.2276286  60.23  0.001080319    1.525    0.344
       128 -12.7616    242.0761     71.2090   7.3321873202e+00   1.7352302502e+01    0.4421949    0.2441208 -67.15  0.002263424    2.185    0.542
       129 -13.2714    133.9621     65.8953   2.2651015005e+01   4.2003904026e+01    0.8864754    0.6858876  23.72  0.003266337    1.575    0.365
       130 -12.2420    100.4164     64.1985   3.0961455266e+01   5.0105273130e+01    0.4389053    0.3518862  -4.62  0.002215822    1.452    0.311
       131 -13.1980     78.9412     59.8400   3.6529828726e+01   5.5410049269e+01    0.9107355    0.5856209 -31.10  0.004309458    1.647    0.393
       132 -14.1755    177.9812     56.6929   1.1848517423e+01   3.2882195442e+01    0.9249462    0.5775306 -50.41  0.002843893    1.563    0.360
       133 -11.7540     38.7997     59.8155   5.3360864485e+01   6.2031721230e+01    0.3387933    0.2400768  62.12   0.00162819    2.366    0.577
       134 -11.3132     34.4465     60.5097   5.5678665877e+01   6.2418237526e+01    0.3928722    0.1846965 -41.66   0.00174862    1.960    0.490
       135 -12.4248     35.9784     54.4925   5.2855829898e+01   6.3471917361e+01    0.6095828    0.3080049 -24.12  0.002516306    2.592    0.614
       136 -12.0640     24.6388     59.4644   6.0175507019e+01   6.3693093561e+01    0.4216507    0.2347709 -41.93  0.001554814    1.578    0.366
       137 -13.2817    248.2545     52.1067   2.9056314951e+00   1.8822519790e+01    0.6541029     0.337235 -37.49  0.003692657    1.676    0.403
       138 -11.3965     17.5623     54.9949   6.2417143561e+01   6.5292491977e+01    0.3058739    0.2067884 -64.50  0.001675396    1.662    0.398
       139 -12.1151    230.9331     54.9583   5.0564781915e+00   2.1710661461e+01    0.3681828    0.1825143  71.68  0.001891783    2.235    0.552
       140 -10.5709     23.5395     49.9499   5.7592588258e+01   6.5790427234e+01    0.1850303    0.1157187 -47.59 0.0004129446    1.473    0.321
       141 -11.7907    201.8381     46.8284   6.2928663865e+00   2.8838797818e+01    0.1860552    0.1773271 -87.33 0.0008848315    1.177    0.151
       142 -12.6498    154.6297     46.2276   1.2662449114e+01   3.9929730616e+01     0.431054    0.2897085  53.98  0.001958723    1.450    0.310
       143 -13.3843    158.2330     43.0238   1.1153961375e+01   3.9480774806e+01    0.5826794    0.5619094   4.17  0.002429643    1.225    0.184
       144 -11.5744     38.5327     46.4234   4.8555193704e+01   6.4703498953e+01    0.2344086    0.1968252  -8.26 0.0005853833    1.035    0.034
       145 -14.2507     64.0080    214.3723   7.4066615972e+01   2.0999161299e+01     0.573504    0.5133641 -78.59  0.002777719    1.186    0.157
       146 -10.5374      5.4994    219.4997   8.8037980442e+01   2.6205823677e+01     0.119647   0.09585983  66.56 -0.0005630697    1.008    0.008
       147 -14.9319    212.4004     40.7858   3.7845537431e+00   2.7345606459e+01     2.081455    0.6448528  74.38  0.007559123    4.055    0.753
       148 -12.4616     85.6128    215.6008   6.8936383264e+01   1.7812184465e+01    0.2767479    0.2223161  53.48  0.001513197    1.185    0.156
       149 -11.8529    181.5039    215.5074   4.6852133870e+01   3.3401240000e+00    0.1339363    0.1115523   3.64 9.209204e-05    1.009    0.009
       150 -13.9233     26.7298    225.8145   8.3732879555e+01   2.2814567714e+01     0.788345    0.3918587 -53.29  0.003972155    2.495    0.599
       151 -11.2682    136.5128    210.9923   5.6031797481e+01   1.1079669857e+01    0.1995073    0.1389431 -49.35  0.001031378    1.589    0.371
       152 -12.8956     46.2108     33.2168   3.9207465087e+01   6.5823741031e+01    0.5478811    0.4080056  -7.21  0.003153202    1.318    0.241
       153 -12.6154     36.5501     34.2719   4.4454424555e+01   6.7125588175e+01    0.6383025    0.2902119  14.59  0.002236282    4.024    0.751
       154 -12.2975     40.3494     40.2239   4.5118939766e+01   6.5566635926e+01    0.5379774    0.2678364  34.04  0.002556871    1.944    0.486
       155 -13.0741     32.8114     40.2611   4.8976835997e+01   6.6590764298e+01    0.3750606    0.2710496  10.16 0.0006133288    1.306    0.234
       156 -12.8693     76.1053     37.0644   2.8678867917e+01   5.9672980021e+01    0.5545166    0.3191288  44.19   0.00142994    1.570    0.363
       157 -11.7375     70.9619     36.0000   3.0078465483e+01   6.0878064402e+01    0.3331819    0.2004127  48.57  0.001122548    1.594    0.373
       158 -13.1234     24.6966    216.9080   8.3605406138e+01   2.4956953812e+01    0.7994863    0.3977981  42.96  0.004212928    1.692    0.409
       159 -12.8998     46.6706    208.8543   7.7757652959e+01   2.4374186225e+01     0.542578    0.2532456  71.49  0.002186893    2.914    0.657
       160 -13.2990      6.4100     42.8966   6.4735489043e+01   6.8660622936e+01    0.9055026    0.3685551  16.79  0.004271615    2.510    0.602
       161 -11.1603     98.2665     26.9554   1.7916853545e+01   5.6037937781e+01    0.3108723    0.1700714  53.60 0.0008832711    1.581    0.368
       162 -12.3410     30.7483     25.2037   4.3321885065e+01   6.9396985757e+01     0.363458    0.2205042  21.60  0.001663751    1.547    0.354
       163 -12.1181     35.6884     23.2558   3.9714772486e+01   6.8976592670e+01    0.3238178    0.2221739   1.12   0.00143584    1.452    0.311
       164 -12.1709      5.3009    209.6078   8.7579437388e+01   2.8392312250e+01    0.2439778    0.1793694 -26.55  0.001472024    2.023    0.506
       165 -12.7149     48.6589     19.8386   3.1711250554e+01   6.7303323403e+01    0.7549965     0.210587  45.81  0.002782725    3.311    0.698
       166 -12.5822    104.5055     36.5734   1.9937796664e+01   5.3397022233e+01    0.3811792    0.1443942 -28.42  0.001423461    3.034    0.670
       167 -11.9630     80.6007    208.4456   6.9294357984e+01   2.0090604647e+01    0.3019297    0.2161016  64.56  0.001461597    1.513    0.339
       168 -13.4194     59.4684    212.5467   7.4985634466e+01   2.1984190896e+01    0.5731612    0.3390102 -22.92  0.001561269    3.268    0.694
       169 -11.0298    151.6855    206.0149   5.1707257813e+01   9.6441556675e+00     0.293746    0.1663241   8.91  0.001171707    2.645    0.622
       170 -13.4708     16.3769    197.1615   8.4226333367e+01   3.0255174986e+01    0.7383711    0.2564536 -57.00  0.002993388    3.018    0.669
       171 -10.6140     80.6801    201.3348   6.8372332136e+01   2.1689614895e+01    0.1494619   0.09849256  62.10 0.0007049459    1.702    0.412
       172 -14.0178     40.7417    196.3519   7.8068284414e+01   2.7966858214e+01     0.901054    0.4736884  58.29  0.004215526    1.949    0.487
       173 -13.3450    164.4511    194.5081   4.6791717220e+01   9.7912383044e+00    0.6673532    0.4163285 -63.63  0.002885079    2.620    0.618
       174 -15.2397      8.3338    183.2603   8.5274147674e+01   3.4254847267e+01     1.228774     1.094373  85.85  0.008216315    1.082    0.076
       175 -15.3903     15.5938    175.0717   8.2764850780e+01   3.5647360690e+01     2.356863     1.013088  57.15   0.01014109    2.446    0.591
       176 -12.0341    201.0256    191.3111   3.8565070386e+01   4.5521326183e+00    0.3134353    0.2350987  -1.18  0.001314892    1.286    0.222
       177 -10.9710     81.2386    192.6394   6.7058883212e+01   2.3630544178e+01    0.2034213    0.1321476  21.65 0.0009496423    1.678    0.404
       178 -12.9884     98.5537    186.5393   6.1564506869e+01   2.2436441010e+01    0.5423406    0.3409646 -24.95  0.002266986    2.338    0.572
