#   1 NUMBER                 Running object number                                     
#   2 MAG_AUTO               Kron-like elliptical aperture magnitude                    [mag]
#   3 X_IMAGE                Object position along x                                    [pixel]
#   4 Y_IMAGE                Object position along y                                    [pixel]
#   5 X_WORLD                Barycenter position along world x axis                     [deg]
#   6 Y_WORLD                Barycenter position along world y axis                     [deg]
#   7 A_WORLD                Profile RMS along major axis (world units)                 [deg]
#   8 B_WORLD                Profile RMS along minor axis (world units)                 [deg]
#   9 THETA_WORLD            Position angle (CCW/world-x)                               [deg]
#  10 FWHM_WORLD             FWHM assuming a gaussian core                              [deg]
#  11 ELONGATION             A_IMAGE/B_IMAGE                                           
#  12 ELLIPTICITY            1 - B_IMAGE/A_IMAGE                                       
         1 -15.3107    139.8951     10.7423   1.7083788189e+00   4.7735041555e+01     2.337204     1.790758 -16.22   0.01352792    1.616    0.381
         2 -14.2139    173.6149     12.5771   3.5850532706e+02   3.9276760833e+01     1.633508     1.275735 -74.30   0.01017322    1.098    0.089
         3 -13.6795    155.1221     16.4578   1.5499040132e+00   4.3363230520e+01     2.084679    0.6276982 -25.96  0.007574417    3.769    0.735
         4 -13.8216    156.8863     43.2792   9.1576176037e+00   3.9707298273e+01     1.705571     1.066158 -31.20  0.008345261    1.724    0.420
         5 -15.8281    147.6875     18.7538   3.1735812764e+00   4.4972640250e+01     13.93155     3.445259 -19.72   0.02791446   12.712    0.921
         6 -13.7114    157.6600     76.4721   1.8499174322e+01   3.4375488666e+01     2.987421    0.4973199 -45.82  0.006212187    7.798    0.872
         7 -12.8612      6.9560     11.8979   5.2294958828e+01   7.5690537922e+01    0.4616068    0.2236733 -27.91  0.002315692    2.094    0.523
         8 -11.9731    161.9953     25.6254   3.3535236935e+00   4.0667028173e+01     1.372877   0.09569556 -36.64   0.00387369    5.465    0.817
         9 -11.7302     15.8374      4.1265   4.0366298858e+01   7.5922470185e+01     0.265458    0.1468282  -2.39  0.001288958    2.401    0.584
        10 -11.0745      1.5420      6.7537   5.4079199293e+01   7.7054492259e+01    0.3053665     0.137356 -31.15  0.001181565    2.118    0.528
        11 -11.2990      2.2900      1.9240   5.0435496285e+01   7.7792179687e+01    0.2850906    0.2436742 -23.48  0.001659091    1.248    0.199
        12  -9.8829    236.0000      3.9427   3.5227964123e+02   2.6761782026e+01    0.1673692   0.05346886 -31.96 0.0006838304    2.832    0.647
        13 -11.6738      9.3484      2.0750   4.4236455176e+01   7.7029325951e+01    0.3190249    0.1525901  24.48   0.00168055    1.931    0.482
        14 -15.8432    151.0306     79.7853   2.0761886041e+01   3.5359210630e+01     6.853486     2.977131 -52.90   0.02363461    2.894    0.654
        15 -10.3569    175.9869    237.7852   4.8456777210e+01   1.1789368089e+00    0.2159255    0.1347343 -21.38 0.0008695828    1.662    0.398
        16 -14.7048    246.7919     15.9568   3.5407282358e+02   2.3488636023e+01     2.223078    0.7934839 -29.59   0.01065243    2.966    0.663
        17 -15.8104    196.2016     40.4569   3.3079282364e+00   3.0832949224e+01     3.121866       1.9742  70.85   0.01720472    1.576    0.366
        18 -16.4772    223.0799    106.2815   1.5102780761e+01   1.5654521101e+01     4.235178     2.501927 -46.35   0.02249507    1.509    0.337
        19 -15.6343    223.3770     44.9499   1.6873648653e+00   2.4529319475e+01     2.726857     1.079588 -64.48   0.01056676    3.643    0.726
        20 -17.3771    240.2397    102.2516   1.2054921316e+01   1.3317073086e+01     6.938079     1.839956 -48.20     0.022733    4.536    0.780
        21 -16.8723    241.0534     63.2618   3.9543489388e+00   1.8756763373e+01     5.008539     2.723146  60.41   0.02860412    2.152    0.535
        22 -17.7618    244.6027    201.3905   3.0192323872e+01  -1.9754858847e+00     6.857799     2.847038 -39.46   0.03600409    2.242    0.554
        23 -11.3699    168.5142    249.5037   5.1609190018e+01   3.8840933431e-01    0.4993181    0.2240067   7.92  0.001828948    4.323    0.769
        24 -11.5887    151.6784    249.9034   5.5105050275e+01   2.4487767380e+00    0.3114866    0.1361676  23.17  0.001480647    2.092    0.522
        25 -11.5152     50.7480    249.8861   7.7137781181e+01   1.5133061680e+01    0.4619999    0.1523924  33.78  0.002121545    2.203    0.546
        26 -12.5543     30.0426    239.6600   8.1069207559e+01   1.9354864924e+01    0.6019775    0.3519867  83.49  0.002951767    1.795    0.443
        27 -10.8206     39.8175    250.6455   7.9551530877e+01   1.6193476928e+01    0.2938937   0.09448092  27.56  0.001030203    2.702    0.630
        28 -11.8019     35.7893    246.8690   8.0207577637e+01   1.7343150200e+01    0.4043655    0.2441021  52.45  0.001334745    1.347    0.258
        29 -12.3991      3.8645    196.3769   8.5022971778e+01   3.1164057055e+01    0.6987031     0.297848  73.55   0.00321223    2.288    0.563
        30 -15.0202      5.5603    190.9377   8.4336452141e+01   3.2300301060e+01     2.121138    0.8708624  84.23  0.009374876    2.442    0.591
        31 -12.5077      2.3179    208.8088   8.5928152873e+01   2.8468643803e+01     1.010543    0.2468626 -86.07  0.003603969    4.286    0.767
        32 -12.5826      7.6993    207.9299   8.4614760770e+01   2.8213683417e+01    0.7957777    0.2943037  83.02  0.003329104    2.879    0.653
        33 -12.1157     21.5341    234.2706   8.2674023242e+01   2.1296441929e+01    0.6420798    0.1561626  43.57   0.00272787    2.684    0.627
        34 -13.0063     10.0302    223.4642   8.4755221368e+01   2.4624868934e+01     1.155045    0.3643681  65.04  0.004664929    3.307    0.698
        35 -12.4540     20.2825    248.5997   8.3600718190e+01   1.8590323957e+01     0.436668     0.261212  48.43  0.001616756    1.262    0.208
        36 -11.7508     11.8417    232.3510   8.4724195931e+01   2.2610282488e+01    0.4076706    0.2139059  74.46  0.001554896    1.799    0.444
        37 -12.6894     11.7510    248.2322   8.5363448664e+01   1.9475999535e+01    0.5723643    0.2431844  51.42  0.002459452    1.767    0.434
        38 -12.3055      4.6775    227.6325   8.6112057855e+01   2.4224663887e+01    0.5896135    0.2640101  57.89  0.002344351    1.826    0.452
        39 -11.6903      1.9191    220.5012   8.6464386986e+01   2.5959548422e+01    0.3953968    0.1839765  81.95  0.001561773    2.044    0.511
        40 -12.5365     17.2265    240.5937   8.3904088371e+01   2.0444614105e+01    0.5805002    0.2016858  42.95  0.001902072    2.020    0.505
        41 -12.8565      8.2102    236.8148   8.5685268500e+01   2.2037767111e+01    0.8739465    0.1801312  43.13  0.003767598    2.790    0.642
        42 -12.2322      4.3536    249.6336   8.6924985292e+01   1.9885246338e+01    0.3770994    0.2030765  41.72  0.001420785    1.376    0.274
        43 -12.7403      3.3218    242.7834   8.6919876553e+01   2.1294206036e+01     0.524313    0.2753311  63.13  0.002467773    1.569    0.363
        44 -11.2397     45.1378    236.8286   7.7518303041e+01   1.8301316215e+01    0.3539906    0.1615653  51.70  0.001197636    1.915    0.478
        45 -11.1841     36.8821    234.1582   7.9221984325e+01   1.9744047254e+01    0.3605461    0.1583204  48.95  0.001114684    1.861    0.463
        46 -10.8027     32.4903    229.0927   7.9918106002e+01   2.1252815992e+01    0.2790954     0.145365  55.21 0.0009911215    1.671    0.401
        47 -10.0247    170.3818    233.8159   4.9011427281e+01   2.5084439958e+00      0.16952    0.1037193 -27.46 0.0009475061    1.717    0.418
        48 -10.1624    176.8451    232.6363   4.7523305151e+01   1.8474314887e+00    0.2409765    0.1420436 -15.62  0.001285059    1.917    0.478
        49 -10.5584     58.9913    232.4977   7.4004465515e+01   1.7576425776e+01    0.3149545    0.1222927  42.96  0.001427112    2.050    0.512
        50 -10.4982     48.7335    230.2228   7.6225217319e+01   1.9239969666e+01    0.3065082     0.143077  64.06  0.001398286    2.456    0.593
        51 -12.1757     26.4919    228.0231   8.1233096711e+01   2.2092701978e+01    0.5233938    0.2284769  77.36  0.002423832    2.620    0.618
        52 -10.6567     40.6294    229.2552   7.8045945479e+01   2.0347141381e+01    0.2804017    0.1517452  55.35    0.0010029    1.652    0.395
        53 -10.3235    184.2355    227.4701   4.5259386995e+01   1.6768035721e+00    0.2170205    0.1540927 -27.35 0.0007105946    1.383    0.277
        54 -11.0728     32.2078    222.6118   7.9586710659e+01   2.2651045194e+01    0.3144376    0.1409717  48.63  0.001299118    1.841    0.457
        55 -10.4067    185.5151    220.6438   4.3931927408e+01   2.5606833936e+00    0.2332025    0.1148233 -39.48  0.001182859    2.075    0.518
        56 -11.2617     24.5932    217.3409   8.1072026073e+01   2.4566597397e+01    0.2235444    0.1123218 -88.58  0.001120495    2.080    0.519
        57  -9.5026    185.6786    215.3313   4.3040988807e+01   3.3751808310e+00    0.1125998    0.1011273  55.08 0.0007049321    1.697    0.411
        58 -10.8622     27.7840    212.9228   8.0037494440e+01   2.5220532362e+01    0.2708603     0.109109  49.27  0.001232559    2.092    0.522
        59 -10.0658    192.6361    209.7495   4.0743901626e+01   3.3159138407e+00    0.2231452    0.1082598 -36.86   0.00109377    2.007    0.502
        60 -11.6836     22.0206    210.4564   8.1290180811e+01   2.6341233175e+01    0.2531011    0.1487598  70.49  0.001368905    1.608    0.378
        61 -12.5107     14.3038    204.3352   8.2835784899e+01   2.8445497488e+01    0.4288409    0.1939257  58.03  0.001840133    1.985    0.496
        62 -10.4404    196.9790    203.6909   3.8872204901e+01   3.6844045512e+00    0.3711234    0.1368775 -30.76  0.001452433    3.197    0.687
        63 -10.0828    202.2474    204.0062   3.7925718130e+01   2.9176972973e+00    0.1782361    0.1277163 -28.02 0.0007712058    1.284    0.221
        64  -9.7912    186.6739    203.8005   4.0910131227e+01   5.1063846967e+00    0.1675635    0.1143614 -46.47 0.0005179215    1.721    0.419
        65 -10.4511    202.0517    197.5247   3.6832720942e+01   3.9668394810e+00    0.2133852    0.1655268 -46.44 0.0007626042    1.609    0.378
        66 -13.2263     18.3341    221.6856   8.2775001153e+01   2.4235130960e+01    0.7353801    0.3016463 -73.37   0.00357289    2.480    0.597
        67 -16.3555    245.5281    151.2225   2.1026325871e+01   5.1122756228e+00     2.656907     0.769735 -43.27   0.01049509    3.258    0.693
        68 -10.5206    198.5473    191.1430   3.6356797020e+01   5.4952988445e+00    0.2128174    0.1175013 -42.96  0.001073711    1.859    0.462
        69 -10.4233    204.7169    190.3160   3.5047193493e+01   4.7494740466e+00    0.2827991    0.2222121 -67.09  0.001567298    2.283    0.562
        70 -13.0504     13.4400    216.4057   8.3653346475e+01   2.5832583344e+01     0.590656    0.3420438  89.54  0.003346477    1.683    0.406
        71 -10.8933    203.6138    184.1095   3.4117087473e+01   5.9183116327e+00    0.3488292    0.2678609 -65.37  0.001897607    2.231    0.552
        72  -9.6509    197.3437    182.2484   3.4952657588e+01   7.1558548297e+00    0.1710351    0.1138588 -44.21  0.000629355    1.596    0.373
        73 -11.4527     26.9575    248.2615   8.2175153130e+01   1.7990500827e+01    0.3167422    0.1811624  48.01  0.001076671    1.335    0.251
        74  -9.7722    190.4624    179.2679   3.5727317038e+01   8.7193218269e+00    0.1726039    0.1233258 -47.97 0.0009277891    1.593    0.372
        75 -10.9397    204.9835    176.8083   3.2498218761e+01   6.9241526321e+00    0.2890476    0.1629642 -40.87  0.000864863    1.695    0.410
        76 -11.4197    205.4110    169.7851   3.1075999730e+01   8.0351778205e+00    0.4188853    0.2074034 -48.07  0.001897251    2.302    0.566
        77 -13.7453      2.7381    165.7977   8.3750243462e+01   3.8640786232e+01    0.9776084    0.2962424 -74.35  0.003803394    2.841    0.648
        78 -10.3274    200.7263    171.6868   3.2306991296e+01   8.4351650775e+00    0.1580354    0.1452968 -39.78 0.0005507176    1.292    0.226
        79  -9.3933    187.3086    172.6308   3.5079453760e+01   1.0393078416e+01    0.1281454    0.1107102 -79.62 0.0007035459    1.761    0.432
        80 -10.3830    197.5956    176.6209   3.3843469850e+01   8.0746730346e+00    0.2426284    0.1751592 -46.57  0.001112169    1.545    0.353
        81  -9.9173    197.2377    169.6377   3.2565332936e+01   9.3341758274e+00    0.1233532    0.1018176 -57.68 0.0004043327    1.594    0.372
        82 -10.7085    191.3384    165.6156   3.2906170319e+01   1.0993045228e+01     0.290508    0.1604875 -42.83   0.00138201    1.755    0.430
        83 -11.1210    199.4337    164.7210   3.1186215998e+01   9.8383706356e+00    0.3250155    0.1900253 -47.58  0.001035182    1.846    0.458
        84  -9.5046    184.3279    165.6908   3.4309782151e+01   1.2141487644e+01    0.1282284    0.1129013 -89.42 0.0007039682    1.660    0.398
        85 -11.5603    205.1548    161.4938   2.9497252414e+01   9.4814300196e+00    0.3808131    0.2264384 -47.43   0.00191136    1.801    0.445
        86 -11.0843    196.9322    157.3587   3.0177598513e+01   1.1537419497e+01    0.3233981    0.1817567 -42.71  0.001109552    1.695    0.410
        87 -10.2498    187.4844    155.8623   3.1684578722e+01   1.3408929477e+01    0.3485948     0.127813 -41.56  0.001320346    2.565    0.610
        88  -9.5640    192.4822    173.0391   3.4139627900e+01   9.4932313267e+00    0.1966773    0.1223636 -38.03 0.0004827304    1.513    0.339
        89  -9.9840    192.4271    154.2225   3.0387753796e+01   1.2858006052e+01    0.1856546     0.122666 -49.63 0.0006394256    1.648    0.393
        90 -10.4597    196.6767    150.2645   2.8767696301e+01   1.2840620597e+01    0.2397128     0.145107 -45.40 0.0007090485    1.633    0.388
        91  -9.4304    181.6672    150.2666   3.1673558267e+01   1.5473963362e+01    0.1306744    0.1137752  87.03 0.0006974575    1.583    0.368
        92 -10.0063    191.0887    148.3054   2.9409681613e+01   1.4163280781e+01    0.1874029    0.1652596 -35.40 0.0006252169    1.107    0.096
        93 -10.5237    200.6442    145.4642   2.7041425135e+01   1.3010301242e+01    0.2499255    0.1809015 -56.59 0.0008917706    1.685    0.406
        94 -10.3244    194.4854    143.5017   2.7753004072e+01   1.4434592279e+01    0.2188585    0.1216193 -49.16 0.0009866285    1.918    0.479
        95 -11.6821      2.4440    143.2496   8.2388240042e+01   4.4425365014e+01    0.2689244    0.1108588 -74.32  0.001151898    2.100    0.524
        96 -10.1580    182.0020    142.3219   2.9901206062e+01   1.6911948855e+01    0.2768149    0.1780691 -58.48  0.001252522    2.020    0.505
        97 -10.2278    203.6421    140.9161   2.5553856638e+01   1.3290437487e+01    0.1866709    0.1129451 -47.47 0.0009114954    1.668    0.401
        98 -11.4603    208.4824    137.6219   2.4027898589e+01   1.3025836501e+01    0.4032081    0.3022732 -65.59  0.002163986    1.830    0.453
        99 -11.4870    205.8888    130.0019   2.2841808655e+01   1.4790981239e+01    0.6468515    0.1997587 -46.26  0.002206648    3.393    0.705
       100 -10.1901    172.6773    138.1507   3.0885498889e+01   1.9471327896e+01    0.2295177    0.1736162 -58.06  0.001139796    1.528    0.345
       101 -11.8685      4.5022    136.9872   8.1244074475e+01   4.5932989801e+01    0.3118205    0.1206884 -87.54  0.001207857    2.581    0.613
       102 -10.5988    199.0115    136.5603   2.5444252816e+01   1.4870787046e+01    0.2619396    0.1701895 -50.64   0.00105461    1.637    0.389
       103 -10.2085    192.7300    136.8353   2.6644860496e+01   1.5956136532e+01     0.266033    0.1654495 -46.26  0.001064204    1.574    0.364
       104 -10.3176    187.6088    135.2996   2.7270236704e+01   1.7182503525e+01    0.2539371    0.1252349 -44.19  0.001080218    1.927    0.481
       105 -10.7641    179.4035    132.6519   2.8277834273e+01   1.9235892505e+01    0.2995705    0.2305878 -63.24  0.001096168    1.586    0.370
       106 -10.1726    197.9438    131.7940   2.4601421323e+01   1.5910113824e+01    0.2417752    0.1672784 -36.79 0.0006155308    1.307    0.235
       107 -11.0616    192.2858    129.2063   2.5049084179e+01   1.7422056653e+01    0.3554311     0.215263 -46.20   0.00106884    1.594    0.373
       108 -10.5908    186.4109    129.3398   2.6170988787e+01   1.8511113371e+01    0.2708199    0.1522643 -44.11  0.001227633    1.681    0.405
       109  -9.9266    171.6762    129.3651   2.9099583396e+01   2.1382598863e+01    0.2103218    0.1700538 -80.00 0.0007267295    1.647    0.393
       110 -11.5115      2.5720    127.2613   8.1099605659e+01   4.8601013613e+01    0.2703251    0.1196531 -85.28  0.001143438    2.134    0.531
       111 -10.6948    199.7867    126.5079   2.3120086722e+01   1.6507174829e+01    0.2486539    0.2185192 -34.83  0.001052227    1.026    0.025
       112 -13.2343    147.2953    118.2853   3.1864757841e+01   2.8665243956e+01    0.5333337    0.3191068 -42.35  0.002282444    1.653    0.395
       113 -11.1285    179.4093    124.1980   2.6346145833e+01   2.0837134830e+01    0.3464074    0.2419653 -51.80 0.0009758141    1.488    0.328
       114 -11.1445    188.1122    123.2653   2.4478164824e+01   1.9300743692e+01    0.3443557    0.2110825 -50.40 0.0009721895    1.685    0.406
       115 -10.1075    169.5462    124.1241   2.8320784444e+01   2.2834387532e+01    0.2201255    0.1389123 -41.29 0.0008198427    1.514    0.340
       116 -11.0002    138.4546    250.0000   5.7898822091e+01   4.1350426416e+00    0.2802781   0.05749494  31.14  0.000931523    3.909    0.744
       117 -10.3410    128.6572    248.6774   5.9840003580e+01   5.6242339205e+00    0.1276725   0.08576591  -0.61  0.000705046    1.729    0.422
       118 -12.3316    163.7464     55.0675   1.1431567792e+01   3.6358167505e+01     1.177938    0.2158903 -40.79  0.003376355    4.468    0.776
       119  -9.8470    191.4986    114.4676   2.1849727239e+01   2.0227255248e+01     0.140536     0.127741 -47.23 0.0001008837    1.059    0.056
       120 -11.8622    176.0906    244.9951   4.9470893060e+01   1.0388281364e-01    0.3934491    0.2226229 -19.71  0.002056304    1.988    0.497
       121 -10.6711    182.8731    108.7662   2.2056457783e+01   2.2996461028e+01    0.3116659    0.1788704 -44.57 0.0007541804    1.636    0.389
       122 -10.4166    189.9214    108.7671   2.0798475219e+01   2.1556886356e+01     0.301883    0.1790141 -45.28  0.000762256    1.574    0.365
       123 -10.4921    189.7201    104.0501   1.9720091495e+01   2.2430558975e+01    0.2032645    0.1558176 -39.23 0.0006864613    1.203    0.169
       124 -11.6457     65.6163    248.8937   7.3796746486e+01   1.3596243024e+01    0.3965818    0.1864539  45.13  0.001708933    1.732    0.423
       125 -10.8315    174.8088    101.8801   2.1878330602e+01   2.5952564834e+01    0.4261739    0.3057581 -61.54  0.001829049    1.573    0.364
       126  -9.8584    185.1767    102.1750   2.0059874129e+01   2.3701055472e+01    0.1938383    0.1495084 -56.70 0.0005195374    1.321    0.243
       127 -11.6986    166.8142    100.1504   2.2995913889e+01   2.8011976891e+01     0.368334    0.2006404 -43.09   0.00109642    1.755    0.430
       128  -9.9429    188.9682     98.5763   1.8541143801e+01   2.3541250568e+01    0.2391648    0.1619819 -47.20 0.0005899155    1.381    0.276
       129  -9.2631    190.5666    118.4632   2.2934433777e+01   1.9693970444e+01    0.1404323    0.1273355 -43.93 0.0002213153    1.053    0.050
       130 -10.8018    194.2788    121.1745   2.2891870457e+01   1.8488843132e+01    0.2975551    0.1587427 -45.71   0.00122937    1.780    0.438
       131 -10.8139    188.4398     92.5405   1.7170222835e+01   2.4690126592e+01      0.27242    0.1875073 -46.56 0.0008886763    1.345    0.256
       132 -10.4537    176.8676     92.7221   1.9205937229e+01   2.7152313368e+01    0.2884056    0.1885377 -47.57   0.00106044    1.463    0.316
       133 -10.6706    183.4873     95.6919   1.8776781692e+01   2.5199248483e+01    0.2725486    0.1309295 -39.82 0.0008506872    1.928    0.481
       134 -10.1547    192.8797     88.4526   1.5468499103e+01   2.4439763591e+01    0.2135208    0.1557232 -42.85 0.0006622252    1.246    0.198
       135 -10.2092    183.3530     89.3418   1.7230904573e+01   2.6326134234e+01    0.1901587    0.1208965 -46.53 0.0003695156    1.474    0.321
       136 -11.0571    163.8383     86.2529   1.9959423718e+01   3.1220922382e+01    0.3222709    0.2278053 -41.84 0.0009610858    1.368    0.269
       137 -11.3074    174.4113     77.6504   1.5767736948e+01   3.0288599965e+01    0.4091511    0.2249621 -46.10  0.001316349    1.734    0.423
       138 -10.7671    187.4960     68.1622   1.1278706808e+01   2.8859296711e+01    0.3046793    0.1242149 -37.42  0.001047562    2.263    0.558
       139 -10.6125    170.8947    106.3219   2.3738011505e+01   2.5969700422e+01    0.4306303      0.24007 -55.33  0.001401066    2.106    0.525
       140 -11.6217    157.8247     62.0475   1.4410408563e+01   3.6719338832e+01    0.4323189    0.2504095 -44.46  0.001207739    1.687    0.407
       141 -10.3077    182.1776     67.9906   1.2019537328e+01   3.0079529478e+01    0.2210599    0.1612986 -58.72 0.0008494824    1.335    0.251
       142 -10.2774    197.9915     54.9342   6.6246317264e+00   2.8489224716e+01    0.1632747    0.1200648 -42.91  0.000543892    1.248    0.199
       143 -16.6761    227.4866    225.1407   3.6913698799e+01  -3.2349425103e+00     4.165167     1.804233 -41.44   0.02192903    2.513    0.602
       144 -11.3193    176.0245    110.3564   2.3726008506e+01   2.4127808298e+01    0.3905947    0.3081493  58.83  0.002040399    1.385    0.278
       145 -11.0345    238.8959     41.9274   3.5975712197e+02   2.1922341125e+01    0.1763279    0.1520426  49.03 0.0005764816    1.599    0.374
       146  -9.4625    234.5015     39.3535   3.5956673887e+02   2.3068441635e+01     0.113044   0.09573937 -62.96 0.0001881361    1.102    0.092
       147 -10.5607    173.4778    119.5006   2.6421986305e+01   2.2926547281e+01     0.333367    0.1954224 -47.57 0.0008726924    1.688    0.408
       148 -12.1795      2.3343     31.1791   6.4451428028e+01   7.2319732236e+01    0.4411052    0.1908661 -69.91  0.001922446    2.901    0.655
       149 -10.5524     90.4471    249.2802   6.8313133914e+01   1.0469266728e+01    0.2359837    0.1128614  44.07  0.001187552    1.806    0.446
       150 -10.7274    181.1833     31.9267   2.8020408116e+00   3.5325552091e+01    0.2964393    0.1799975 -49.99  0.001561221    1.511    0.338
       151 -10.6217    179.7651     25.7971   1.3624463896e+00   3.6385688946e+01    0.2994038    0.1615338 -28.04  0.001384492    2.048    0.512
       152 -11.1052    163.1817    245.8289   5.2189678885e+01   1.6010631582e+00     0.174755    0.1232725  -1.06  0.001003386    1.353    0.261
       153 -11.6018     45.5083    244.3910   7.7931813864e+01   1.6768500967e+01    0.4453852    0.1857644  38.48  0.001956811    1.780    0.438
       154 -11.9105      1.8386     22.6862   6.1607353946e+01   7.4078889700e+01    0.3248987    0.1362862 -54.50  0.001552689    2.101    0.524
       155 -10.4651     97.5848    244.3879   6.6231330108e+01   1.0434815882e+01    0.2724153   0.06287172  40.32 0.0009597472    3.368    0.703
       156  -9.8381    184.0098    119.0249   2.4265246997e+01   2.0886986962e+01    0.2124155    0.1801593 -60.08 0.0005455723    1.266    0.210
       157 -10.3107    180.8597    115.5055   2.4033922120e+01   2.2172306148e+01    0.2604051    0.1834964 -40.68 0.0005904211    1.326    0.246
       158 -10.7780    185.8655    115.3387   2.3062472219e+01   2.1191643680e+01    0.3178478    0.1818758 -46.30 0.0008753552    1.674    0.403
       159 -10.4709     84.2186    244.3997   6.9247391304e+01   1.2147490894e+01     0.195703   0.08894151  38.84 0.0009560997    1.726    0.421
       160 -11.4140     57.1880    241.6161   7.5127908736e+01   1.5977506990e+01    0.4800979    0.1501598  43.50  0.002043729    2.445    0.591
       161 -11.5172    183.4793    238.6826   4.7101419572e+01   1.0332451105e-01    0.4080135    0.2179763 -38.55  0.002228894    1.987    0.497
       162 -11.1620    169.6608    240.4723   5.0121557804e+01   1.5823572842e+00    0.2791561    0.1509487 -10.83  0.001324641    2.578    0.612
       163 -11.1564     13.4933     12.9820   4.7672196994e+01   7.4835591482e+01    0.1829339    0.1098651 -39.87  0.001036365    1.606    0.377
       164 -12.2716    167.7890    111.4646   2.5634055026e+01   2.5655840962e+01    0.4301465    0.2659498 -47.84   0.00110657    1.598    0.374
       165 -11.2233     38.3043    240.2359   7.9272023774e+01   1.8370186454e+01    0.3039385    0.1686409  50.39  0.001020288    1.471    0.320
