#   1 NUMBER                 Running object number                                     
#   2 MAG_AUTO               Kron-like elliptical aperture magnitude                    [mag]
#   3 X_IMAGE                Object position along x                                    [pixel]
#   4 Y_IMAGE                Object position along y                                    [pixel]
#   5 X_WORLD                Barycenter position along world x axis                     [deg]
#   6 Y_WORLD                Barycenter position along world y axis                     [deg]
#   7 A_WORLD                Profile RMS along major axis (world units)                 [deg]
#   8 B_WORLD                Profile RMS along minor axis (world units)                 [deg]
#   9 THETA_WORLD            Position angle (CCW/world-x)                               [deg]
#  10 FWHM_WORLD             FWHM assuming a gaussian core                              [deg]
#  11 ELONGATION             A_IMAGE/B_IMAGE                                           
#  12 ELLIPTICITY            1 - B_IMAGE/A_IMAGE                                       
         1 -12.7286     28.6556     64.9350   7.6547957426e+01   5.9844087940e+01    0.8973365     0.626816  28.36  0.005644532    1.709    0.415
         2 -10.0147    214.3958     10.6594   1.2950343714e+01   2.9945179205e+01    0.2098505    0.1318141 -66.49 0.0005746961    1.575    0.365
         3 -10.2427     54.8037     10.9808   4.6696984019e+01   6.6234932083e+01    0.2145065     0.160468  25.97  0.001397571    1.261    0.207
         4 -12.3027    179.0829      9.0508   1.6572681153e+01   3.9031667775e+01    0.9179927   0.07571921  58.55  0.002463415    5.092    0.804
         5 -11.2815     84.5755      8.2482   3.5230036378e+01   6.1389173290e+01    0.2404934    0.2041323  -1.75 0.0003868854    1.122    0.109
         6 -12.9851     19.7916      5.1037   5.9463693829e+01   7.1345507346e+01    0.7594878    0.3291808  27.16  0.004304136    2.437    0.590
         7 -12.4042    201.3304      3.3264   1.2416446784e+01   3.3972574474e+01    0.4712938    0.4325961  79.26  0.002995368    1.122    0.108
         8 -11.1333     88.8211      4.1661   3.2230961849e+01   6.0957612530e+01    0.2282752    0.2079436  51.36 0.0009825409    1.248    0.198
         9 -11.6774    161.6526      3.2592   1.7211241043e+01   4.4037961438e+01     0.702899    0.1982464  62.40  0.002558395    2.759    0.638
        10 -12.4593    196.1898      5.3223   1.3490169978e+01   3.5061227341e+01    0.4185155    0.2484871  60.14  0.002119106    1.568    0.362
        11 -11.0121    190.1379      1.9949   1.3262208256e+01   3.6921548779e+01    0.6060768    0.1254081  64.42  0.002001677    3.509    0.715
        12  -9.5352    109.0138    237.9718   8.3641512941e+01   1.1512686775e+01    0.1833161    0.1251048 -35.99  0.001020967    2.584    0.613
        13 -13.8990     10.1955    186.8265   9.7745286480e+01   3.4312050064e+01     1.894676    0.8811437  40.29    0.0113421    2.139    0.533
        14 -13.8047     65.0377    230.9459   9.0943809510e+01   1.9219131619e+01    0.9486853    0.7616596 -80.01  0.005296389    1.349    0.259
        15 -14.4431     52.5757    229.1794   9.3010088303e+01   2.1182707679e+01      2.01243    0.9860257  82.77  0.002670534    2.102    0.524
        16 -14.8409     95.0234    195.0835   8.1388294301e+01   2.1882139422e+01     1.921897     1.123864 -70.22  0.009948571    1.779    0.438
        17 -10.6641    125.3793    222.0336   7.8702327390e+01   1.1645562019e+01    0.2595848    0.1991658  77.88 0.0004733298    1.362    0.266
        18 -15.6949     22.6922    238.9626   9.8644179064e+01   2.2930854321e+01    0.7969449    0.6182299  65.39  0.004090973    1.248    0.199
        19 -10.9950    223.6151    220.6092   5.9860165500e+01  -5.1064134946e+00    0.2179992    0.1898302  28.12 0.0005483879    1.167    0.143
        20  -9.3751    159.6683    221.7350   7.2004661320e+01   5.7646141031e+00      0.12503    0.0930683  21.20 0.0002980423    1.578    0.366
        21 -16.2825     68.0797    187.9253   8.6196082371e+01   2.7424271792e+01     3.486076       2.9141 -60.47   0.02247811    1.410    0.291
        22  -9.8629    173.5318    220.0076   6.9074491673e+01   3.5933734592e+00    0.1780104    0.1302411 -46.94  0.001040327    1.626    0.385
        23 -10.8215    215.4836    226.4659   6.2292309473e+01  -4.5520754482e+00    0.2076952    0.1435888  52.87  0.001205289    1.740    0.425
        24  -9.4776    184.2821    213.6704   6.6002577429e+01   2.6802747026e+00     0.122625   0.09993425  73.16 0.0002528984    1.606    0.377
        25 -10.2537    135.6838    212.4801   7.5392574127e+01   1.1600008994e+01    0.2730066    0.1823571 -61.64  0.001501036    1.728    0.421
        26  -9.8397    125.2306    212.4214   7.7475977973e+01   1.3425953625e+01    0.2198532    0.1587928 -45.51 0.0008257316    1.737    0.424
        27  -9.3427    246.5032    212.4569   5.4434842354e+01  -7.7070964850e+00    0.1206016    0.1008869  12.45 6.652868e-05    1.075    0.070
        28 -11.2490    228.8730    208.8729   5.6876850943e+01  -4.3877427565e+00    0.3918405    0.2130752 -25.33  0.002005904    2.042    0.510
        29 -10.0025    141.6066    211.3770   7.4049486837e+01   1.0754047125e+01    0.2004094    0.1410098  67.99  0.000510869    1.573    0.364
        30 -12.4567     55.3754    249.4623   9.3979550177e+01   1.7190988931e+01    0.4125911    0.3020933  50.73 0.0005826207    1.326    0.246
        31 -14.2806     35.5469    247.0140   9.7036739094e+01   2.0050922720e+01      1.07522    0.6296133  34.87  0.007013733    2.182    0.542
        32 -11.0244    153.2989    210.1024   7.1519950231e+01   8.8835685763e+00     0.379448    0.2070352  26.31  0.001611584    2.636    0.621
        33 -11.0383    147.8227    201.6058   7.1312766416e+01   1.1419541690e+01    0.3288388    0.2164503  76.23  0.001553076    2.174    0.540
        34 -14.6538     73.1783    209.6452   8.7483025367e+01   2.2192261061e+01     2.224514     0.479324  47.91  0.008054713    3.759    0.734
        35 -10.0474    212.3774    200.1726   5.8320627913e+01  -2.7506364954e-01     0.171096    0.1226926 -46.76 0.0006697847    1.692    0.409
        36 -11.1226     34.4242    199.8961   9.4084908606e+01   2.9124311695e+01    0.1903588    0.1612469  13.43  0.001313708    1.976    0.494
        37  -9.7054    123.9591    205.7149   7.6814866045e+01   1.4914920491e+01    0.1839109    0.1489635  54.60 0.0003270376    1.063    0.059
        38 -10.8198    189.3843    195.1971   6.1831651387e+01   4.7544930607e+00    0.3251062    0.2890182  -9.95  0.001267094    1.200    0.167
        39 -10.6756    124.3630    195.1939   7.5213652684e+01   1.6906900528e+01    0.3292298    0.2677988 -18.66  0.001803903    1.846    0.458
        40  -9.2580    172.7176    195.6782   6.5247384333e+01   7.8300614809e+00    0.1336011    0.1047547   6.95 0.0002363254    1.590    0.371
        41 -11.0702     37.8547    184.1707   9.2090676925e+01   3.2041285610e+01    0.4129253    0.1881822  85.68  0.001960033    2.398    0.583
        42 -12.1314     40.6434    190.8701   9.2126182848e+01   3.0292374783e+01     0.387251    0.2937364  43.73  0.001760287    1.465    0.317
        43 -12.4510     35.6680    191.0693   9.3130451029e+01   3.0819750735e+01    0.5363464     0.313016 -64.55  0.002263183    1.700    0.412
        44  -9.7645    217.7698    194.0022   5.6173729745e+01  -3.0206299579e-01     0.164536    0.1073787 -34.09 0.0005190227    1.608    0.378
        45 -10.5805    212.1025    223.3390   6.2389913827e+01  -3.5713538765e+00    0.2690034    0.1942125  -2.03  0.001611847    1.551    0.355
        46  -9.7738    212.4866    192.9796   5.6968835875e+01   8.1457386747e-01    0.1709695    0.1179212 -63.61 0.0006522455    2.451    0.592
        47  -9.7896    164.2013    193.3872   6.6587465775e+01   9.8646910394e+00    0.2022355    0.1181982  51.60 0.0009428057    1.660    0.398
        48 -15.5508     20.3556    213.5390   9.7590181508e+01   2.7928497210e+01     2.651497     1.151881  78.70   0.01215338    2.128    0.530
        49 -10.3678    248.1942    185.9344   4.9193470471e+01  -4.4149539509e+00    0.2160108    0.1698659  28.31 0.0006228395    1.207    0.172
        50  -9.8738    123.3815    187.9122   7.4313897223e+01   1.8558142925e+01     0.251324     0.169975  54.17 0.0008240153    1.360    0.265
        51 -13.0990     64.2916    219.9565   9.0144786462e+01   2.1395757303e+01    0.6546909    0.5684046 -72.49  0.001239122    1.429    0.300
        52 -10.1282     24.4281    179.3409   9.4404132279e+01   3.4518208595e+01    0.2257062   0.08656394 -69.26  0.001131693    2.165    0.538
        53 -10.2433     87.0864    229.7178   8.6833667922e+01   1.6323269428e+01    0.3812058    0.1152769  46.53  0.001659777    2.590    0.614
        54 -10.0421    193.3041    194.3518   6.0908147023e+01   4.1573329774e+00    0.2625314    0.1994118  -9.19 0.0008140767    1.575    0.365
        55 -11.0879     45.6689    176.4431   8.9712504626e+01   3.2818451159e+01    0.3276722     0.224637  86.41  0.002006476    1.247    0.198
        56 -12.3717     47.9486    168.6444   8.8379925202e+01   3.4281800697e+01    0.5631071    0.3403974 -63.82  0.002100205    1.541    0.351
        57  -9.4112     38.4655    176.4751   9.1245928806e+01   3.3642905058e+01    0.1223507   0.09671979  86.18 0.0003263054    1.027    0.026
        58 -15.4559      8.7912    227.3142   1.0028262987e+02   2.6504369882e+01     1.758862    0.8550356  41.69  0.009156948    1.979    0.495
        59 -10.4729     22.0509    174.0032   9.4449234314e+01   3.5906547327e+01    0.2820469    0.1394533 -85.98  0.001550534    1.736    0.424
        60 -10.0148      7.0676    175.1372   9.7561868063e+01   3.7043719990e+01    0.1569489    0.1209871 -79.39  0.000257563    1.228    0.186
        61 -12.1978     91.9261    169.4695   7.8498394428e+01   2.7927575396e+01    0.6984997    0.3931566  86.86  0.002907415    2.580    0.612
        62 -11.0110      3.0138    170.3014   9.8034935434e+01   3.8412111420e+01    0.2042771    0.1259156 -79.88 0.0003351325    1.266    0.210
        63 -11.5189    105.4888    169.6312   7.5400043990e+01   2.5630886189e+01     0.323698    0.2477115  61.28  0.001269099    1.235    0.191
        64  -9.9077    152.5025    168.4982   6.4538577458e+01   1.6998955984e+01    0.1464131    0.1368046  57.41 0.0008106863    1.005    0.005
        65 -11.1125    131.5023    168.6443   6.9272148369e+01   2.1101351772e+01    0.2636908    0.1298943  43.55  0.001090671    1.926    0.481
        66 -10.3211     10.3821    167.5920   9.6342934714e+01   3.8372046083e+01    0.2446066    0.1436246  66.34 0.0009063154    1.511    0.338
        67 -10.0254     27.1499    166.2396   9.2688898762e+01   3.7102391638e+01    0.1712132    0.1102633  69.12 0.0009360482    1.396    0.284
        68 -10.5069    205.4825    164.9784   5.2753542359e+01   6.8284765344e+00    0.2193491    0.1884257  34.99 0.0004313183    1.117    0.104
        69 -15.5532     15.3795    236.7344   9.9692500719e+01   2.4115222340e+01     1.118615    0.7520261 -44.76  0.006269522    3.230    0.690
        70 -10.1883     14.4016    156.2692   9.4557124857e+01   4.0502614807e+01    0.2359729   0.09311744 -75.57  0.000768019    2.020    0.505
        71 -13.2184     21.5308    153.8401   9.2745423302e+01   4.0408464659e+01    0.6999726    0.5698173  58.80  0.004504785    1.287    0.223
        72 -10.7993    128.1713    176.8286   7.1458967688e+01   1.9990399320e+01    0.2158432     0.176602  71.92 0.0004383693    1.217    0.178
        73 -11.3759     22.4117    149.1030   9.2070766817e+01   4.1394831913e+01    0.4095573    0.1712942  39.93  0.001683156    2.448    0.591
        74 -11.1795     28.1758    160.3720   9.1899900709e+01   3.8306682213e+01    0.2516438    0.1679572 -85.44 0.0004439597    1.215    0.177
        75 -10.5652     46.2975    158.8304   8.7623063176e+01   3.6699620461e+01    0.2099486    0.1623297 -26.11  0.001218619    2.048    0.512
        76 -10.2039     50.8859    154.1064   8.5963546843e+01   3.7241305108e+01    0.1969878    0.1482685  79.47 0.0003898567    1.211    0.174
        77  -9.7997    126.1373    151.8619   6.7342908112e+01   2.5813114874e+01    0.1913054    0.1783515  -8.62            0    1.302    0.232
        78 -10.6115    130.0054    151.2566   6.6299730696e+01   2.5190700081e+01    0.2140738    0.1900443  58.34 0.0004244031    1.083    0.077
        79 -10.8203     27.3629    172.4309   9.3208493072e+01   3.5718090038e+01    0.1883099    0.1689275 -61.96  0.001260217    1.433    0.302
        80 -10.0494    171.6780    150.3509   5.6584782622e+01   1.6696524909e+01    0.1559485    0.1202609 -89.07 0.0003097988    1.749    0.428
        81 -12.2667    108.8275    148.3591   7.0863261019e+01   2.9855464413e+01    0.4057824    0.3128199 -55.36  0.001536123    1.294    0.227
        82  -9.8488      4.9236    147.1547   9.5867628926e+01   4.3287577343e+01    0.1698996    0.1177334  77.05 0.0003848456    1.246    0.197
        83  -9.5050    189.6656    145.2939   5.1647196823e+01   1.3791145868e+01    0.1496167    0.1204831  89.63 0.0006932313    1.641    0.390
        84 -12.5963    102.2394    142.4159   7.1365235083e+01   3.2401561326e+01    0.5762178    0.4094292  54.61   0.00132736    1.424    0.298
        85 -10.1354     50.4809    244.5684   9.4457748532e+01   1.8662386333e+01    0.2532419    0.1386544  51.86  0.001344059    1.412    0.292
        86 -10.0393     91.2213    236.3291   8.6716305778e+01   1.4519542468e+01    0.1964936     0.153338  80.10  0.001354377    1.181    0.153
        87  -9.9352     24.9131    144.8415   9.1034176530e+01   4.2132113433e+01     0.177177     0.140731 -66.91 0.0003364198    1.220    0.181
        88  -9.3127     81.2496    233.9512   8.8296460923e+01   1.6405960981e+01    0.1363696    0.0913727 -79.36   0.00038662    1.522    0.343
        89 -11.9457    220.0796    230.7709   6.2171427548e+01  -5.8580456334e+00    0.2317585    0.2029206  14.76 0.0007248584    1.133    0.117
        90 -12.2255    136.5384    130.7671   6.0294048108e+01   2.8423142757e+01     0.660679    0.3202094  52.28  0.002101683    2.211    0.548
        91 -13.3862    142.6865    132.9737   5.9310704667e+01   2.6631994162e+01    0.9555252    0.6465585 -11.50  0.003656991    2.698    0.629
        92 -13.6177    154.0238    130.3178   5.6002494204e+01   2.4741907201e+01      1.15264    0.6533903  37.47  0.004612251    1.951    0.487
        93  -9.7914    113.0358    227.6648   8.1754675348e+01   1.2674512363e+01    0.1835147     0.134311  51.57  0.000633697    1.124    0.110
        94  -9.8826     11.3623    133.4251   9.3074183479e+01   4.5868256925e+01    0.1664805    0.1206131  16.93 0.0006056851    1.935    0.483
        95  -9.5193    126.4746    131.9938   6.3067794163e+01   3.0222865158e+01    0.2214277    0.1474945 -51.12 0.0003767355    1.489    0.328
        96  -9.2494     38.7727    130.9976   8.5862331187e+01   4.3974838213e+01    0.1658105   0.08913501 -68.82 0.0003639118    1.552    0.356
        97 -10.2000     31.1133    129.0178   8.7580260132e+01   4.5194036805e+01    0.2870165    0.2049079 -55.05  0.001452225    1.364    0.267
        98  -9.6881     14.3027    126.9924   9.1643487254e+01   4.7100779167e+01    0.1701103    0.1211208 -75.71 0.0004608518    1.093    0.085
        99  -9.8249    245.4214    123.0317   3.6295908042e+01   5.8932217575e+00    0.1983874    0.1843496  33.70 0.0003102596    1.157    0.135
       100  -9.3954     67.5132    122.4865   7.6723882803e+01   4.2545069815e+01    0.1386516     0.120954 -79.15 0.0008098888    1.050    0.047
       101 -10.1417    189.0822    121.0244   4.6032030754e+01   1.8645354036e+01    0.2234284    0.2201277 -51.89 -0.001320134    1.014    0.014
       102 -10.7586     42.9790    120.7711   8.3197144482e+01   4.5926843546e+01    0.2275109    0.2197258  55.72 0.0008208461    1.232    0.188
       103 -10.8179    100.9336    119.6138   6.6932398755e+01   3.7946600564e+01    0.4596659    0.2032138  51.89  0.001675415    2.706    0.630
       104 -10.2139     35.9493    120.0956   8.5018818713e+01   4.6803278300e+01    0.1937162    0.1614233 -77.07 0.0005475444    1.025    0.025
       105 -12.8716    155.1267    118.2391   5.2793546858e+01   2.7070094175e+01    0.7241439    0.3420165  48.55   0.00268228    2.117    0.528
       106 -10.9329     48.3983    115.7042   8.0834280546e+01   4.6522280014e+01    0.2275017    0.2230835 -76.54  0.001370449    1.183    0.155
       107  -9.8023     23.8202    116.0221   8.7742815845e+01   4.8848852946e+01     0.186996    0.1373985 -85.28 0.0005882927    1.214    0.176
       108 -10.7259    188.9979    114.5144   4.4425270162e+01   1.9930890138e+01    0.2441485    0.1524908  50.09  0.001039379    1.613    0.380
       109  -9.5321    230.5151    112.5541   3.6279766458e+01   1.0797188428e+01    0.1443641    0.1359478 -32.72 0.0001305368    1.006    0.006
       110 -10.1484    192.9580    112.0000   4.2992821181e+01   1.9482115477e+01    0.2561899   0.08817992  51.57 0.0008030876    2.947    0.661
       111 -11.9954     53.8762    110.3457   7.8277572346e+01   4.7144298840e+01    0.4170761    0.2751873 -47.78  0.002124849    1.455    0.313
       112 -13.4175    150.6681    105.7304   5.0611848433e+01   3.0728894498e+01    0.9762904    0.6130053 -70.11  0.003654556    2.458    0.593
       113 -10.4434     91.9856    108.1058   6.6744241684e+01   4.2168977892e+01    0.2129337    0.1993643 -60.35 0.0003143923    1.014    0.014
       114 -10.0517    116.7473    103.6003   5.8706892587e+01   3.8577500034e+01    0.2142427     0.143857  54.31 0.0009537474    1.613    0.380
       115 -12.0378     57.1216     99.6079   7.5120177584e+01   4.9244242495e+01    0.6112145    0.3944248 -24.70   0.00298012    2.166    0.538
       116 -10.2490     10.1721    100.7766   8.9441610844e+01   5.3333919444e+01    0.1623347    0.1287921 -85.84 0.0003346926    1.169    0.145
       117 -10.4889    237.7971     98.8450   3.1842786364e+01   1.1530849136e+01    0.2324488    0.2086668 -59.23 0.0003521743    1.119    0.106
       118 -10.4491     21.0690     98.0877   8.5816188202e+01   5.3168394802e+01    0.3260418    0.1787842 -47.86  0.001673278    1.680    0.405
       119 -11.5170     54.4633     93.0815   7.4501932897e+01   5.1057903726e+01     0.246436    0.2006021  79.90 0.0008093537    1.452    0.311
       120 -10.4524    160.5965    107.5866   4.8778508807e+01   2.8030130317e+01    0.2899593    0.2317718 -37.54 0.0007569835    1.275    0.216
       121  -9.7350     79.4816    101.0325   6.8691139143e+01   4.5819314953e+01    0.2224047    0.1287609 -53.50  0.001025154    1.571    0.363
       122  -9.6501    232.2084     89.4014   3.0415261405e+01   1.4354297001e+01    0.1839308    0.1400812  76.36 0.0002523523    1.503    0.335
       123 -11.3811    130.8803     88.8740   5.0874958937e+01   3.8727142809e+01    0.2430378    0.2178438   2.69   0.00124055    1.256    0.204
       124 -12.3798     53.5133     85.5230   7.3042064962e+01   5.2869422469e+01    0.4633242    0.2687724 -72.83   0.00216208    2.144    0.534
       125 -12.6360     50.9986     79.7795   7.2460297324e+01   5.4430376329e+01    0.6515889    0.5028347  40.56  0.003895903    1.510    0.338
       126 -11.0504    125.5001     86.5172   5.1607449481e+01   4.0392872551e+01    0.3612069    0.2459715   2.69  0.001409513    2.520    0.603
       127  -9.4006     11.6208     86.8605   8.6875174679e+01   5.6344293297e+01    0.1660144   0.09383763 -77.40 0.0004683121    1.632    0.387
       128 -11.1192    115.8601     85.7647   5.4009726069e+01   4.2593200933e+01    0.2531191    0.2392714 -60.29 0.0002338726    1.076    0.071
       129 -10.2229     58.7683     87.4013   7.1796439061e+01   5.1807861468e+01    0.3025961    0.2219135  71.56  0.001374321    1.856    0.461
       130 -11.4603     21.8820     80.7822   8.2447068413e+01   5.6973584615e+01    0.2082346    0.1606373 -61.88  0.001376361    1.058    0.055
       131  -9.1320    214.2930     78.6838   3.0532751736e+01   2.0358727396e+01    0.1545023    0.1101483 -66.40 0.0003174175    1.600    0.375
       132  -9.5897     88.4809     78.5281   5.9932168319e+01   4.9307206286e+01     0.141489    0.1329954 -46.06 0.0008091561    1.052    0.050
       133 -10.0816    112.0079     76.6596   5.2368034176e+01   4.5243206579e+01    0.2563693      0.22334  21.56 0.0009247626    1.228    0.185
       134 -10.0099    116.3357     74.1265   5.0370520733e+01   4.4842853887e+01    0.3471672    0.2331649  23.51  0.001441403    1.930    0.482
       135  -9.2811     65.9538     74.0198   6.5895878868e+01   5.3765640479e+01    0.1554886    0.1374412 -40.45            0    1.005    0.005
       136 -10.6432    238.1443    248.7535   6.1889053669e+01  -1.0730456660e+01    0.1737841    0.1469051 -16.87  0.001313902    1.397    0.284
       137 -10.2348     74.9410     75.7932   6.3438604313e+01   5.2080545355e+01    0.2050375    0.1749428 -19.95 0.0004545178    1.208    0.172
       138 -10.1206    199.0503     65.2545   2.9470303044e+01   2.6352390156e+01    0.2060377     0.191228  85.00 0.0003700378    1.051    0.049
       139 -10.5658    178.1394     64.5932   3.3010742430e+01   3.1776327250e+01    0.2737392    0.2438062  -1.24 0.0009132887    1.301    0.231
       140 -11.1324    166.0016     58.5079   3.3580026642e+01   3.5869408599e+01    0.2614038    0.2191041 -37.29 0.0002455453    1.219    0.180
       141 -11.7060     51.1203     56.0265   6.5716837520e+01   5.9359047460e+01    0.7666083    0.4772124  65.12  0.003271932    3.703    0.730
       142 -10.1662      4.7471     59.1166   8.4022054827e+01   6.2689047494e+01    0.1928282    0.1471465 -20.91 0.0008537769    1.435    0.303
       143 -10.1430    194.0735     57.3792   2.8127532936e+01   2.8868706645e+01     0.232468    0.2111296 -16.97  0.000421152    1.237    0.191
       144  -9.5363    115.6508     54.2978   4.4085405979e+01   4.8620474250e+01    0.1444234    0.1168964 -81.98 0.0005274828    1.684    0.406
       145  -9.1075    167.2275     51.9865   3.1361612739e+01   3.6589848478e+01    0.1849054    0.1249898 -34.02 0.0003041613    1.525    0.344
       146 -11.5707    100.1571     69.2373   5.3507758551e+01   4.9063294176e+01    0.5476647    0.2929263 -28.18  0.001951758    2.363    0.577
       147 -10.0220     94.5465     71.1028   5.5801328329e+01   4.9747827594e+01     0.407993    0.1339331 -43.55  0.001283657    2.898    0.655
       148 -10.6865     84.8174     47.2208   5.0835670144e+01   5.5938392712e+01    0.2181041    0.1570389 -82.19 0.0009587514    2.861    0.650
       149 -12.4608     57.7513     40.8010   5.8005535428e+01   6.1322467025e+01    0.6808208    0.3491472   6.84  0.002369202    4.722    0.788
       150  -9.6344     36.4887     39.4743   6.5919146854e+01   6.4123654228e+01    0.1216499   0.09922227 -29.88 0.0001757328    1.019    0.019
       151 -12.0134     71.5713     35.9937   5.1113819623e+01   6.0045933589e+01    0.3268807    0.2116829  19.16  0.001714243    1.735    0.424
       152  -9.6525    219.5479     72.5057   2.8119482445e+01   2.0108543163e+01     0.148265    0.1358981 -61.78 0.0002521355    1.023    0.023
       153 -10.7973    106.5701     31.4111   3.8338445434e+01   5.4097650797e+01     0.257394    0.2435583   4.06 0.0006662691    1.067    0.063
       154 -11.4344     77.9811     31.0905   4.6957238011e+01   5.9718083433e+01    0.2854765    0.2397838 -60.78 0.0009742917    1.679    0.404
       155 -10.3016    122.0545     41.6816   3.8001890015e+01   4.9206079552e+01    0.2089968     0.175494  47.58 0.0007723477    1.152    0.132
       156 -10.5636     84.3662     24.1408   4.2034846388e+01   5.9538200491e+01    0.2411835     0.187463  47.18 0.0007434169    1.366    0.268
       157  -9.6013    134.5759     22.4690   2.8300252468e+01   4.8804818627e+01     0.138106    0.1290243  47.51 0.0001171846    1.019    0.019
       158 -10.3294     30.8065     15.7340   5.9074660909e+01   6.8673997798e+01    0.2057289    0.1258979 -27.55 0.0007101651    1.363    0.267
       159  -9.4286    172.3059    249.3663   7.3480166943e+01  -5.4475825810e-01    0.1177518    0.0840256  14.71 0.0005193891    1.746    0.427
       160  -9.6305     93.3377    248.8389   8.7501572209e+01   1.2057139346e+01    0.1329365    0.1008725 -64.16 0.0003984472    1.627    0.385
       161  -9.3175    125.0508    248.0137   8.1812865292e+01   7.3255093268e+00    0.1357305    0.1102443  57.85            0    1.065    0.061
       162  -9.9532     83.7624    246.1834   8.8931796372e+01   1.3896287057e+01    0.2138418    0.1137766  53.92  0.001281301    1.449    0.310
       163 -11.0183    180.6197    244.4050   7.1315119901e+01  -1.2251116284e+00    0.3638793    0.1450519  42.19  0.001066222    1.994    0.499
       164 -11.2333    116.2031    240.2433   8.2570264862e+01   9.9946047675e+00    0.2028077    0.1551316  61.36 0.0002503734    1.090    0.082
       165  -9.2069     83.2707    241.6447   8.8623927294e+01   1.4749704946e+01     0.120796   0.06951991  69.89  0.000699716    1.638    0.390
       166 -10.0689    173.0629    238.4770   7.1868763618e+01   8.6823542210e-01    0.1886538    0.1002267  41.63  0.000456377    1.517    0.341
       167 -10.0075    166.9854    237.4806   7.2851842905e+01   2.0383496625e+00    0.1672586    0.1582666  36.46 0.0004699014    1.174    0.148
