#   1 NUMBER                 Running object number                                     
#   2 MAG_AUTO               Kron-like elliptical aperture magnitude                    [mag]
#   3 X_IMAGE                Object position along x                                    [pixel]
#   4 Y_IMAGE                Object position along y                                    [pixel]
#   5 X_WORLD                Barycenter position along world x axis                     [deg]
#   6 Y_WORLD                Barycenter position along world y axis                     [deg]
#   7 A_WORLD                Profile RMS along major axis (world units)                 [deg]
#   8 B_WORLD                Profile RMS along minor axis (world units)                 [deg]
#   9 THETA_WORLD            Position angle (CCW/world-x)                               [deg]
#  10 FWHM_WORLD             FWHM assuming a gaussian core                              [deg]
#  11 ELONGATION             A_IMAGE/B_IMAGE                                           
#  12 ELLIPTICITY            1 - B_IMAGE/A_IMAGE                                       
         1  -9.7874     40.9076     14.1272   7.4257035942e+01   6.8791153544e+01     0.236347    0.1605288  13.38 0.0002855632    1.316    0.240
         2  -9.7103     97.4009     12.5197   5.3346430924e+01   5.8622075694e+01    0.2340751    0.1553699 -12.34  0.001057074    1.640    0.390
         3  -9.1965    107.5002    248.9080   1.0781747588e+02   9.1429102210e+00    0.1799855    0.1413917  46.13 0.0006055975    1.042    0.041
         4 -11.3178    236.5250    240.1521   8.1495786108e+01  -8.4320702408e+00    0.8937731    0.5784987  49.18  0.004392988    2.595    0.615
         5 -10.4768    249.1545    223.2315   7.6401537517e+01  -7.8904200156e+00     0.331204    0.1990959 -31.35  0.001999069    1.582    0.368
         6 -11.6470    247.1423    229.8344   7.7895404947e+01  -8.4913573572e+00    0.6108152    0.4089757  17.97   0.00392758    1.282    0.220
         7 -10.8905    246.8576    248.5222   8.1055385083e+01  -1.0769988847e+01    0.4578907    0.3083543  25.93  0.002121313    1.357    0.263
         8 -11.0395    249.6816    239.8979   7.9157889657e+01  -1.0080258870e+01     0.668574    0.2914486 -38.35  0.003536751    2.528    0.604
         9  -8.9723    214.5064    250.0046   8.7059311554e+01  -6.7516820570e+00     0.160651    0.1076464 -27.14 0.0007095765    1.552    0.356
        10 -10.4839    159.8643    244.3276   9.6755391121e+01   2.0568051840e+00    0.4608679    0.2357224  30.12  0.002324284    1.777    0.437
        11  -9.5205    161.5035    249.9883   9.7208303189e+01   9.2427352687e-01    0.2042792     0.182972  80.41  0.001386259    1.524    0.344
        12 -10.8049    166.1432    248.6043   9.6103502556e+01   4.3936603344e-01     0.443686    0.3086143  24.50  0.001882176    1.270    0.213
        13 -10.9015    167.6515    242.5166   9.4942858175e+01   1.1523872168e+00    0.4467205    0.2503989  40.46  0.001594184    1.565    0.361
        14  -9.3553    154.1535    250.0827   9.8673180369e+01   2.0143908714e+00    0.1898217    0.1503176  15.63  0.001097139    1.258    0.205
        15 -10.7029    174.4339    245.0593   9.3965779413e+01  -2.6914693181e-01    0.4258337    0.3924285 -17.27  0.002846712    1.249    0.200
        16  -8.3316     98.1247    242.6580   1.0903151052e+02   1.1608269419e+01    0.2604449   0.08142673  42.85  0.001089106    2.545    0.607
        17 -10.2419    108.3288    238.4266   1.0649539186e+02   1.0905193487e+01    0.3928394    0.2814559  83.85  0.002306593    1.698    0.411
        18  -8.5140    155.2980    238.3186   9.6833869692e+01   3.7359987213e+00    0.1252232   0.09234908   3.64 0.0002885017    1.615    0.381
        19  -9.2918    160.8843    234.6995   9.5172026864e+01   3.4626200142e+00    0.2214312    0.1720035 -15.89 0.0003777263    1.488    0.328
        20  -9.7067    164.9949    234.0399   9.4235283830e+01   2.9257409673e+00    0.2908626    0.2152924  53.74  0.001684546    1.577    0.366
        21 -10.5251    169.2756    232.2172   9.3088029593e+01   2.5516093262e+00    0.3837491    0.3320973 -86.44   0.00196652    1.685    0.407
        22  -9.7512    171.0376    225.6673   9.1708628439e+01   3.3588132989e+00    0.2192424    0.1990352  18.66 0.0003409183    1.078    0.073
        23 -11.3314    164.7393    226.5312   9.3144980859e+01   4.2246916516e+00    0.5056025     0.364929  13.48    0.0028353    1.475    0.322
        24 -10.5289    160.5392    227.4843   9.4163230632e+01   4.7364665203e+00    0.4198854    0.2707761  27.46   0.00176964    1.447    0.309
        25  -9.4774    128.0286    235.4714   1.0206525717e+02   8.4672809725e+00    0.1802899    0.1458132 -20.23  0.001002645    1.591    0.372
        26  -9.1278    103.4966    233.9847   1.0698666888e+02   1.2446358764e+01    0.2136922     0.155661  56.31  0.001281766    1.259    0.206
        27  -8.3137    100.3577    233.8050   1.0761799058e+02   1.2940156124e+01    0.1961293    0.1519049  45.56  0.001219932    1.104    0.094
        28 -10.2648    237.3457    231.7039   7.9935264703e+01  -7.4440449940e+00    0.2832535    0.2171114 -30.08  0.001329616    1.454    0.312
        29  -9.5486    114.8614    221.2044   1.0300529085e+02   1.3194776947e+01     0.251831    0.2137978   2.60 0.0004778423    1.466    0.318
        30 -10.9777     99.2778    226.6718   1.0703064096e+02   1.4479018923e+01    0.4057575    0.3789798  -2.24  0.001276147    1.341    0.254
        31 -10.9491    128.4773    225.5155   1.0065017689e+02   1.0227374871e+01    0.4025105    0.3246683 -73.11  0.002414896    1.477    0.323
        32 -11.3527    125.5845    221.2724   1.0068894141e+02   1.1493763908e+01    0.5940956    0.4329637 -47.17 0.0007684239    1.562    0.360
        33 -10.2727    132.6838    220.7856   9.9083570410e+01   1.0449846228e+01    0.4210007    0.3231408  80.66  0.001555941    1.696    0.410
        34  -9.3870    131.1369    215.0607   9.8589792851e+01   1.1804489567e+01    0.3150665     0.282097  83.16  0.001330037    1.255    0.203
        35  -9.9104    117.2235    227.3729   1.0329798878e+02   1.1634499505e+01    0.3750828      0.25953  38.16  0.001300834    1.274    0.215
        36  -7.8346     72.7023    229.3165   1.1287052403e+02   1.7680852786e+01    0.1293719   0.07852419  64.54 0.0007016959    1.610    0.379
        37  -9.4104    185.1880    226.9292   8.9033686484e+01   9.0183266545e-01    0.2572252    0.2110388  37.53  0.000849955    1.242    0.195
        38  -8.8593    181.5031    227.0055   8.9788222560e+01   1.4703295428e+00    0.2321871    0.1738824  51.57  0.001327387    1.618    0.382
        39 -10.0759    107.6891    223.5448   1.0485533956e+02   1.3836574831e+01    0.4546444    0.3226418   3.07  0.002319413    2.230    0.552
        40  -9.9171     88.5882    224.4070   1.0904502093e+02   1.6478869984e+01    0.5498716    0.1802765 -59.64  0.002259755    3.174    0.685
        41  -9.1362     89.9556    218.2928   1.0806017554e+02   1.7527682791e+01    0.2980469    0.1668517  59.68  0.001035991    1.903    0.475
        42  -9.2893    157.5114    222.0150   9.3955263597e+01   6.1828415908e+00    0.2458699    0.1959972  27.83 0.0005868389    1.120    0.107
        43  -9.1513    148.8135    220.8936   9.5630192962e+01   7.8073679818e+00     0.325864    0.1774339 -45.92  0.001227262    2.056    0.514
        44  -8.9264     19.9099    222.8285   1.2288181402e+02   2.5145365171e+01    0.1592588    0.1426206  84.53  0.001214237    1.273    0.215
        45  -9.8141    192.1047    216.9010   8.5962448623e+01   1.4264094742e+00    0.4832482    0.2074681 -43.92  0.001540638    2.565    0.610
        46  -8.9533    192.9839    208.6109   8.4327768092e+01   2.6614586874e+00    0.3989735    0.1694055 -27.98  0.001454502    3.481    0.713
        47 -10.1233     99.1960    217.9928   1.0600998796e+02   1.6230766616e+01    0.5109703    0.3266296  85.04  0.002468121    2.043    0.511
        48  -8.0709    183.4263    219.5170   8.8165170096e+01   2.3918699229e+00    0.1326013    0.1132314  13.06 9.713451e-05    1.029    0.028
        49 -10.3754    234.5240    216.5087   7.7789725617e+01  -4.9663648682e+00    0.2385763    0.1588621  19.40  0.001044192    1.359    0.264
        50  -8.3855    175.9601    216.4488   8.9186537261e+01   4.1287143067e+00    0.2506197    0.1729733 -65.46 0.0008733143    2.312    0.567
        51  -9.1310    143.7359    216.4730   9.6048579949e+01   9.4631405935e+00    0.2676131    0.1746444 -48.23 0.0009399871    1.705    0.414
        52  -9.0484    118.5931    215.8402   1.0146494849e+02   1.3671596395e+01    0.2844343    0.1331729 -68.02  0.001132326    3.123    0.680
        53 -10.0580    250.1913    213.8983   7.4562473762e+01  -6.7713857448e+00    0.2210836    0.1399335 -22.51  0.001330376    1.376    0.273
        54  -9.8204     80.1148    211.5693   1.0944577116e+02   2.0336688391e+01    0.4088551    0.1778316  46.89  0.001321914    2.075    0.518
        55 -10.5775    233.9596    210.8057   7.6861270315e+01  -4.0616828336e+00    0.2622301    0.1536424  20.85  0.001410646    1.686    0.407
        56  -8.2498    223.3206    211.6487   7.8968674435e+01  -2.6144914807e+00    0.1123485    0.1058643 -88.98  0.000704791    1.746    0.427
        57  -9.1037    229.0391    214.7759   7.8475930459e+01  -3.9260603232e+00    0.2166463      0.12607   8.05  0.001086508    1.999    0.500
        58 -11.2636    244.8643    209.5583   7.4696054351e+01  -5.4355799740e+00    0.3467375    0.2091436  27.66  0.001997594    1.586    0.369
        59  -9.8050    202.7444    209.6674   8.2563697901e+01   8.9872750782e-01    0.2744997    0.2203553  32.97   0.00110924    1.245    0.197
        60 -10.1043    212.7052    207.6630   8.0254998244e+01  -3.6349643181e-01    0.2814941    0.2098719 -25.11  0.001243106    1.285    0.222
        61  -8.1154     99.3294    206.6448   1.0453068725e+02   1.8579586102e+01    0.1452897    0.0944595  67.67  0.000704537    1.781    0.438
        62  -9.1186    215.9766    204.0069   7.8952275591e+01  -2.9782351402e-01    0.1869237    0.1363584  -1.44 0.0003842386    1.337    0.252
        63  -9.0361    135.7490    208.8326   9.6625812956e+01   1.2269436334e+01    0.2492018    0.1743067  43.60 0.0004286678    1.315    0.239
        64 -11.7827    247.4113    198.2758   7.2155935913e+01  -4.1686378789e+00    0.5781507    0.4864258  21.56  0.003849641    1.288    0.223
        65  -8.7242     89.5166    199.9587   1.0590165862e+02   2.1506294381e+01    0.2235189    0.1627747  59.33 0.0005348218    1.327    0.247
        66  -8.0611    149.2837    198.9619   9.1976312447e+01   1.1920174189e+01     0.206805    0.1161608 -73.10  0.000699952    4.004    0.750
        67 -10.9346    173.3839    195.1061   8.5968470763e+01   8.4243934598e+00    0.5406392    0.4018731 -45.57  0.001890084    1.452    0.311
        68  -8.9142    164.9470    198.3522   8.8394653296e+01   9.2942165657e+00    0.2527106    0.1865855 -12.22 0.0009129372    1.626    0.385
        69  -8.5950     49.9553    203.0000   1.1521165300e+02   2.6105698775e+01    0.1964616   0.06699818  32.36 0.0008031477    2.947    0.661
        70  -8.8826     68.3784    195.8781   1.1030180172e+02   2.5390104476e+01    0.2794277     0.150633  32.81 0.0009907556    1.917    0.478
        71  -8.5202    131.7211    195.6134   9.5419144574e+01   1.5652789665e+01    0.2003737    0.1228649  45.91 0.0007683381    1.567    0.362
        72  -8.5474    180.8698    193.8960   8.4139096351e+01   7.3296807895e+00    0.2113295    0.1772105   0.48 0.0004504177    1.180    0.152
        73  -8.4823    135.4888    193.2489   9.4148167107e+01   1.5497341102e+01    0.3387299    0.1919066  64.40  0.001273515    2.995    0.666
        74  -9.3110     44.6275    194.3166   1.1557563632e+02   2.8668008499e+01    0.2298239    0.1284347  47.33 0.0009912758    1.654    0.395
        75  -8.3633    124.4139    192.2535   9.6571333414e+01   1.7618893305e+01    0.1774379    0.1372815 -72.47 0.0003686099    1.484    0.326
        76  -9.2772    250.5979    190.2899   7.0088559701e+01  -3.4483547003e+00    0.2388496    0.1061537 -38.30  0.001130613    2.092    0.522
        77  -9.2352    203.4554    188.2855   7.8396544900e+01   4.3977057811e+00     0.442158    0.4115168  85.99  0.002516516    1.516    0.340
        78  -8.6436    198.3794    185.7617   7.8922408466e+01   5.7282256972e+00     0.235569    0.1751633  22.50 0.0005703373    1.317    0.241
        79  -8.6389    197.4854    181.9838   7.8351773946e+01   6.5689125830e+00    0.2925901    0.1685135 -39.76  0.001137071    1.722    0.419
        80  -9.4715    126.7389    197.1264   9.6821277425e+01   1.6184279289e+01    0.2570005    0.2316623 -30.58   0.00123757    1.234    0.190
        81  -8.9739     49.4951    189.4890   1.1398185324e+02   2.9210684329e+01     0.130231    0.1097096  78.91 0.0001553683    1.018    0.017
        82  -8.2437    156.4266    188.1949   8.8438024411e+01   1.2813781377e+01    0.1878424    0.1405605 -61.15 0.0009326062    1.605    0.377
        83  -9.7245     95.5590    187.5155   1.0273726696e+02   2.3386779281e+01    0.6937273    0.2263687  49.71  0.002221471    3.723    0.731
        84  -9.6654     56.6633    188.2302   1.1216979947e+02   2.8641227066e+01    0.3166596    0.1317768  47.65  0.001380784    2.300    0.565
        85  -8.8888     34.9071    188.1612   1.1720532292e+02   3.1130880720e+01    0.2065771    0.1414382  67.41 0.0008607886    1.329    0.248
        86 -10.8776    230.3790    185.0991   7.2623702210e+01   4.4733782273e-01    0.4926903    0.3849253 -49.44  0.002827631    1.631    0.387
        87 -10.1400    245.8724    185.9060   7.0043546596e+01  -2.0874018219e+00    0.2895567    0.1674724  -2.05  0.001359973    2.303    0.566
        88  -8.3239    148.2573    186.4110   8.9977532684e+01   1.4658617167e+01    0.2071926    0.1295667  47.27  0.000945142    1.618    0.382
        89 -10.1071     14.8729    184.2607   1.2137847803e+02   3.3939392556e+01    0.4218722    0.2528499 -33.41  0.001945853    2.801    0.643
        90  -8.6165    139.9879    185.0249   9.1651773139e+01   1.6441337799e+01    0.2292348    0.1770204  -3.73  0.001075787    1.656    0.396
        91  -8.2090     75.9709    185.2135   1.0717400227e+02   2.6806612907e+01     0.183602    0.1054251  36.47 0.0008760152    1.726    0.421
        92  -8.7824    218.8276    183.1482   7.4381861037e+01   2.6653945182e+00    0.1945469    0.1852306  -1.37 0.0007274314    1.215    0.177
        93  -9.6868    174.5896    181.1764   8.3037359136e+01   1.0886704506e+01    0.5129363    0.2307065 -33.30  0.001893653    2.742    0.635
        94  -8.4038    165.1699    182.8616   8.5454785926e+01   1.2291100319e+01    0.1969241    0.1645605  -1.54 0.0004172082    1.281    0.219
        95  -9.1537     44.8515    183.1389   1.1441037370e+02   3.1216580838e+01    0.2036206    0.1515641  67.91 0.0007590476    1.239    0.193
        96  -8.6482    148.0591    181.4906   8.9106803046e+01   1.5725251466e+01    0.2525158    0.2055505 -74.44 0.0006950129    1.522    0.343
        97  -9.4599    183.2156    180.7529   8.1086702260e+01   9.3809764776e+00    0.2574979    0.2170577  61.93 0.0009330059    1.501    0.334
        98  -8.2503    156.8547    181.3611   8.7048431468e+01   1.4131808649e+01    0.2004343    0.1313671  27.54  0.000361658    1.609    0.379
        99  -8.8146      8.8313    179.8883   1.2240091138e+02   3.5440598116e+01    0.1819583    0.1382878 -66.74  0.001214083    1.322    0.244
       100 -10.7740    205.2818    175.9626   7.5556704271e+01   6.2666769591e+00    0.5546787    0.4011448  13.37  0.002638648    1.496    0.331
       101  -9.4381    214.1131    168.1032   7.2196546570e+01   6.0934465572e+00    0.2917361    0.2181593   6.38   0.00112622    1.449    0.310
       102  -9.6868    219.0605    166.2198   7.0861438721e+01   5.5446197619e+00    0.3431404    0.2782191  56.78  0.001226623    1.609    0.379
       103  -9.1123     60.5400    177.8316   1.1000663330e+02   3.0599661014e+01    0.2650738    0.1217368  51.69  0.001134885    2.284    0.562
       104  -8.6333    250.2310    177.5891   6.7666202544e+01  -1.4654978106e+00    0.1746386    0.1125169  22.95  0.000954263    1.656    0.396
       105 -10.7070    101.0005    176.0328   9.9599593713e+01   2.5179087654e+01    0.2059213    0.1939867 -86.83  0.001183188    1.039    0.038
       106  -9.0888    183.0542    174.3193   7.9816161686e+01   1.0649934209e+01    0.4503889     0.213997 -28.98  0.001636586    2.815    0.645
       107  -8.9481    149.1003    175.4503   8.7702023582e+01   1.6814309661e+01    0.3038034    0.2340755  10.25  0.001035813    1.538    0.350
       108  -8.9119     76.8437    176.2048   1.0571809027e+02   2.8806523758e+01    0.4044533    0.1422011  45.63   0.00148678    2.848    0.649
       109 -10.4187    211.1923    182.9614   7.5812681131e+01   3.9942454133e+00    0.4920766    0.3332119  -2.92  0.001863267    1.731    0.422
       110 -10.1928    208.7917    168.9752   7.3411472447e+01   6.8955426727e+00    0.5441703     0.345168  -5.01  0.002290429    2.187    0.543
       111  -8.1943     93.4554    174.5479   1.0126486486e+02   2.6728136763e+01    0.1407606    0.1334271  79.75 0.0001242699    1.015    0.015
       112  -8.9851    193.5107    173.0011   7.7336379064e+01   8.9541703907e+00    0.2563758    0.1879561  18.01 0.0006029366    1.459    0.314
       113  -8.1174     34.3727    173.6708   1.1594656069e+02   3.4566525380e+01    0.1418698   0.08012361  65.47 0.0007028513    1.831    0.454
       114  -8.8189     45.0281    172.5183   1.1321362295e+02   3.3710080760e+01    0.1854417    0.1245426  36.95 0.0009485982    1.562    0.360
       115  -9.3514    177.8266    168.7428   7.9791295211e+01   1.2738374898e+01    0.5767862    0.2823207 -23.91  0.001840469    3.731    0.732
       116  -9.3238     55.6293    170.2897   1.1028671564e+02   3.3015411640e+01    0.2959884    0.1836624  67.16 0.0009763572    1.758    0.431
       117  -9.7493    247.5095    169.0065   6.6397212426e+01   3.0217429509e-01    0.2042276    0.1128421 -34.70 0.0008000442    1.579    0.367
       118  -9.0390     80.9066    165.2088   1.0301419394e+02   3.0868789610e+01    0.4504679    0.2125289  60.29  0.001581648    3.248    0.692
       119  -9.1306    149.1254    164.3996   8.5469803049e+01   1.9195355840e+01    0.3536748    0.2290563  55.03  0.001130133    1.799    0.444
       120  -8.9417     47.8452    164.8160   1.1158866591e+02   3.5253822790e+01     0.193536    0.1407011  70.22 0.0007325619    1.370    0.270
       121  -8.6936     37.9907    165.0192   1.1412904928e+02   3.6268488538e+01    0.2113165    0.1338217  68.54 0.0005584765    1.627    0.385
       122  -8.4308    229.0000    163.9589   6.8560261398e+01   4.1953782941e+00     0.232645   0.07112854 -38.47 0.0008084319    2.984    0.665
       123  -8.7196     70.7729    163.8161   1.0546716597e+02   3.2641227510e+01    0.2004306    0.1513237  65.85  0.001056235    1.372    0.271
       124  -7.8486    185.6872    163.6657   7.7011205426e+01   1.2231088903e+01    0.1539792    0.1122344  -2.91 0.0007045318    1.683    0.406
       125  -8.7042    111.7403    166.2541   9.5157555007e+01   2.5673655250e+01    0.3462265    0.1226432 -53.04  0.001187206    2.777    0.640
       126  -8.3512      9.7307    162.1216   1.2084354226e+02   3.9483508449e+01    0.2182716   0.08954012  64.47 0.0009448215    2.814    0.645
       127  -8.5475     93.8888    161.2907   9.8925043884e+01   2.9833331502e+01    0.2381589    0.1702476  54.46  0.001002203    1.463    0.317
       128  -8.4849     62.5091    161.4344   1.0730159457e+02   3.4316645844e+01    0.1386441    0.1232206  86.48 0.0001634086    1.041    0.039
       129  -7.8895    205.6425    159.7216   7.2055449207e+01   9.1719131434e+00    0.1485616    0.1071464   4.63 0.0004715172    1.659    0.397
       130  -8.5890    144.6980    159.4622   8.5507541380e+01   2.1139658883e+01    0.1960401     0.146505  28.05 0.0005015186    1.415    0.293
       131 -10.2918    219.1588    156.0077   6.8661001116e+01   7.3352304925e+00    0.2832111    0.2404369 -29.26 0.0003557973    1.088    0.081
       132  -9.7152    213.2973    155.3867   6.9627684084e+01   8.5320820828e+00     0.327573    0.3012039  87.22  0.001220112    1.436    0.303
       133 -10.2322     49.9719    155.8455   1.0986384900e+02   3.7210491983e+01     0.356263    0.2515791  62.82  0.001466103    1.478    0.323
       134  -9.1565     83.2006    155.8577   1.0084746632e+02   3.2814727628e+01     0.377971    0.1514575  49.49  0.001325403    2.971    0.663
       135  -8.2089    249.6783    155.0118   6.3162701869e+01   2.2014879671e+00    0.2159979   0.08916624 -51.36 0.0007049975    4.309    0.768
       136  -9.4631     68.4267    154.1538   1.0460011524e+02   3.5337234076e+01    0.2746022    0.1916375  47.57 0.0007421094    1.474    0.322
       137  -9.1176     29.0375    150.1816   1.1476125826e+02   4.0749151995e+01    0.4404266    0.1762774  73.00  0.001340767    5.258    0.810
       138  -8.7870    189.5658    148.2264   7.2773068886e+01   1.4510388570e+01    0.4655354    0.1400943 -43.11  0.001452008    3.230    0.690
       139  -8.7464    221.1248    148.2995   6.6615023532e+01   8.3481746624e+00    0.2481876    0.1784247 -22.72 0.0008329688    1.364    0.267
       140 -10.5845     56.8479    146.3869   1.0659058326e+02   3.8749073976e+01    0.6072906    0.2950907  61.90  0.002286811    3.088    0.676
       141  -9.3999     39.8498    147.9399   1.1155165797e+02   4.0258740844e+01    0.4005672    0.1936937  55.97  0.001738627    2.480    0.597
       142  -8.2202    230.3463    148.6856   6.5057313799e+01   6.5881643998e+00     0.134034    0.1094096 -69.30 0.0007047374    1.717    0.418
       143  -8.9653    108.0854    145.8654   9.2121091270e+01   3.1176438124e+01    0.5412653    0.2779182  62.71  0.001699083    3.731    0.732
       144 -10.9323    197.0589    143.1346   7.0066400519e+01   1.3992780479e+01    0.3716721    0.2967119 -33.72 0.0005588052    1.185    0.156
       145  -8.7993    149.1989    145.4851   8.1329409482e+01   2.3347802641e+01     0.363249     0.237739 -87.47  0.001255965    3.226    0.690
       146  -8.3843     13.4619    146.5592   1.1849782243e+02   4.2913644476e+01     0.126293    0.1015189 -88.31 0.0002553961    1.057    0.054
       147  -8.2840    240.6467    144.9545   6.2505325965e+01   5.3933860746e+00    0.2265473   0.09352981 -52.56 0.0007042812    4.395    0.772
       148  -8.7886     89.1479    144.6924   9.7147808489e+01   3.4648300993e+01    0.2928325    0.2127943  65.03  0.001390951    1.614    0.380
       149 -10.3091     70.4345    141.4647   1.0188615647e+02   3.8222094025e+01    0.4191832    0.2354988  81.31  0.001525839    3.147    0.682
       150  -8.5088      2.7707    142.2776   1.2089210595e+02   4.4670972411e+01    0.2448093   0.09787238  63.62  0.001027528    3.148    0.682
       151  -8.1285    214.4005    141.2073   6.6266990183e+01   1.0912947938e+01    0.2112172    0.1259789 -46.94 0.0009474253    1.711    0.416
       152  -9.4891     23.6420    138.4717   1.1484648667e+02   4.4087101192e+01    0.4766625    0.2089072  70.46  0.001777268    3.639    0.725
       153  -8.7843    243.6605    139.6884   6.0881485618e+01   5.7483000958e+00     0.138333   0.09897139  -1.71 0.0002973875    1.693    0.409
       154 -10.4855     59.7576    136.2548   1.0407993176e+02   4.0923554449e+01    0.5093442    0.2372725  28.69  0.002137805    2.411    0.585
       155  -9.7701     39.1594    136.4945   1.1015495619e+02   4.3168561314e+01    0.2673941     0.187258  74.15 0.0008981599    1.571    0.363
       156  -8.9187    192.5043    133.0781   6.8638639893e+01   1.6886746895e+01    0.2069877    0.1991699   0.09 0.0003692094    1.045    0.043
       157 -10.1540     83.7700    132.3211   9.6211544420e+01   3.8548054541e+01    0.4479804     0.282686  52.54  0.001469894    1.820    0.450
       158 -11.0859     65.9020    128.4212   1.0079527518e+02   4.2090118539e+01    0.4774613    0.3818334 -52.25   0.00258537    1.162    0.139
       159 -10.7451     60.0578    124.9431   1.0191806715e+02   4.3710674020e+01    0.8591055    0.4412312  89.03   0.00265994    4.539    0.780
       160  -8.6163    249.2646    131.7214   5.8288476324e+01   6.0868961960e+00    0.2234885    0.1015933 -27.50 0.0009041363    2.407    0.584
       161  -9.1941     23.7611    130.5049   1.1380790086e+02   4.6034935225e+01    0.4805974    0.2189482 -33.27  0.001952102    3.322    0.699
       162  -8.4381    227.4966    131.5024   6.1741305689e+01   1.0124976460e+01     0.142595    0.1260032 -24.50 0.0008105007    1.030    0.029
       163  -9.2307     13.0636    129.8897   1.1682293008e+02   4.6981241731e+01    0.3593946       0.1739  67.76  0.001610951    2.670    0.626
       164  -9.5260    100.4037    129.1733   9.0642601008e+01   3.6569885022e+01    0.5065619    0.2931859  63.46  0.001852335    2.769    0.639
       165 -10.2531     73.4785    129.7890   9.8768335122e+01   4.0706797859e+01    0.2863105    0.2190169  70.15 0.0007719216    1.547    0.353
       166  -9.2322     42.7527    129.1487   1.0796377491e+02   4.4634157110e+01     0.251753    0.1630694 -24.54  0.001151226    2.075    0.518
       167 -10.7127     45.0903    124.0667   1.0640020558e+02   4.5655676392e+01    0.8045806    0.4078361  65.78  0.003007659    3.395    0.705
       168  -8.5648    118.8074    126.1179   8.4685235166e+01   3.3883671566e+01    0.3971657    0.2049537  62.23  0.001202071    3.796    0.737
       169 -10.2617     28.7683    122.7140   1.1121940487e+02   4.7541166456e+01    0.7962917    0.3546227  72.38   0.00252707    5.070    0.803
       170  -9.4524     14.1436    120.1506   1.1531759562e+02   4.9275938044e+01    0.5006568    0.1788029 -41.32  0.001976999    3.341    0.701
       171  -8.5053    142.7344    120.6298   7.6919237504e+01   3.0212937800e+01    0.2642144    0.1959869 -68.79 0.0007051074    1.709    0.415
       172  -8.8169    107.8705    120.8710   8.6503939430e+01   3.7205605165e+01    0.2431113    0.2134169  -9.96 0.0007603749    1.265    0.209
       173  -9.2475     71.3279    120.3380   9.7465242862e+01   4.3351823187e+01    0.2890325    0.2002248  73.96  0.001092644    1.994    0.499
       174  -9.2323      3.4349    117.8828   1.1825606773e+02   5.0473635707e+01    0.3527867     0.174172  78.82  0.001654082    2.426    0.588
       175  -8.2826    248.6964    118.3031   5.5457685726e+01   8.3993641567e+00    0.1320234   0.09707434 -60.34 0.0003464219    1.595    0.373
       176  -9.0930    110.5034    115.3522   8.4351416877e+01   3.8001283036e+01    0.4160956    0.2754374  83.06  0.001488306    2.882    0.653
       177  -9.7623     79.7790    113.5224   9.3259524168e+01   4.3770136707e+01    0.4575393    0.3177807  85.76  0.001922719    2.177    0.541
       178  -9.6074     93.3691    113.1755   8.8926893879e+01   4.1634854544e+01    0.3614991    0.2874846  84.00  0.001174666    1.635    0.388
       179  -9.3997     59.7721    114.1502   9.9831552112e+01   4.6416934861e+01    0.3527054    0.1745404  15.38  0.001350717    3.037    0.671
       180 -10.0345     21.6639     92.4593   1.0849481981e+02   5.5424706498e+01    0.7024857    0.2116902 -39.00  0.002420078    4.003    0.750
       181 -10.5975     14.5803    108.9724   1.1365111348e+02   5.1955631545e+01    0.6792624    0.2809147 -63.33  0.003212025    1.841    0.457
       182 -10.8056     23.1913    103.0630   1.0987159839e+02   5.2782478774e+01    0.6794977    0.3554029  67.68  0.002854816    3.164    0.684
       183  -9.7944     66.7608    110.9461   9.6853535569e+01   4.6285071305e+01     0.323883    0.2242095  59.42  0.001541184    1.849    0.459
       184 -10.0672     59.5120    109.5392   9.8922822522e+01   4.7577491174e+01    0.2294772    0.2075154 -50.53 0.0007692465    1.012    0.011
       185  -9.9327     61.4887    106.4696   9.7576528141e+01   4.8070016414e+01    0.2654259    0.2112586 -46.70 0.0008144084    1.139    0.122
       186  -8.9156      2.8410    109.4392   1.1743856616e+02   5.2523873205e+01    0.2395059    0.1033864 -46.71  0.001014998    2.127    0.530
       187 -10.8471     46.3474    103.0753   1.0196001834e+02   5.0680827440e+01    0.7680562    0.3932948  62.38  0.002724995    4.004    0.750
       188  -8.9446    250.0000    103.9917   5.2133531097e+01   1.0488315752e+01    0.2301428    0.0663283 -36.81 0.0008045465    2.957    0.662
       189  -8.8513     80.5017    103.6888   9.0601523659e+01   4.6004850701e+01    0.2628326    0.1782877  56.04  0.001193886    1.874    0.466
       190 -10.0134    110.4654    100.0327   8.0241019815e+01   4.1487759528e+01    0.8215994    0.4312727  63.38  0.002485289    4.092    0.756
       191  -8.8384      6.5299    103.0769   1.1542664415e+02   5.3845689631e+01    0.2166121    0.1467655  73.42 0.0009157114    1.701    0.412
       192  -8.7824     82.3300    100.3182   8.9123772263e+01   4.6501071395e+01    0.2857535    0.2129331  82.94  0.001303189    2.002    0.501
       193 -10.5648     64.3807     96.5493   9.4199215967e+01   5.0050072951e+01    0.5646409     0.357539  71.29  0.001964397    2.951    0.661
       194  -8.5096     95.4405     97.3239   8.4079429616e+01   4.4941037769e+01    0.2533403    0.1857973  61.18  0.000992545    1.755    0.430
       195 -10.3814     44.9583     91.9272   9.9954323392e+01   5.3485206567e+01    0.5094565    0.2791202   6.89  0.002248328    2.568    0.611
       196  -9.5673      4.9486     91.7562   1.1430319158e+02   5.6599329356e+01    0.3386087    0.1784051  76.49  0.001356303    2.750    0.636
       197  -8.8516    125.1007     91.6071   7.3609139434e+01   4.0253540069e+01    0.3169476    0.2305238  83.55  0.001321665    2.157    0.536
       198 -10.2371     34.9653     90.0004   1.0315769152e+02   5.4923455529e+01    0.4629036    0.2743972 -86.22  0.001716349    2.515    0.602
       199 -10.3844     36.6099     81.3516   1.0052122973e+02   5.6771182779e+01     0.535134    0.2785489 -19.16  0.002059016    2.751    0.637
       200  -9.6273     65.9322     86.7086   9.1034667694e+01   5.2098681594e+01    0.5276355    0.2764426  10.25  0.001917661    3.366    0.703
       201  -9.6004     86.2143     86.6927   8.4009562902e+01   4.8923304523e+01     0.286994    0.2503583 -82.88 0.0007764277    1.449    0.310
       202 -10.2553     49.1151     85.0193   9.6720845047e+01   5.4627637346e+01    0.5648951    0.3065386  58.86  0.002130362    3.714    0.731
       203  -8.6194     99.9561     85.7360   7.9265178645e+01   4.6627414368e+01    0.1991034     0.190229  20.35 0.0002018961    1.070    0.065
       204 -10.0286      8.6106     83.3578   1.1158579515e+02   5.8362493060e+01    0.4940191    0.2740432 -42.83  0.001248706    1.573    0.364
       205  -9.0722    104.6642     83.3180   7.7059541429e+01   4.6213084722e+01    0.3101433    0.2492935  88.51  0.001262942    1.781    0.439
       206  -9.9282     24.6201     80.9244   1.0503151070e+02   5.7892247822e+01    0.3499629    0.2427965  85.31  0.001198295    1.982    0.495
       207  -8.6230     74.9683     81.0029   8.6166890022e+01   5.2010438389e+01    0.2209533    0.1803158  88.03 0.0008326774    1.769    0.435
       208 -10.3532     49.7432     77.2171   9.4378098078e+01   5.6308107653e+01    0.4778292    0.2669133   0.78  0.002028786    2.712    0.631
       209  -8.6850     61.7324     77.7645   8.9997110746e+01   5.4662075284e+01    0.2803588    0.1740173 -72.68  0.001170795    2.654    0.623
       210  -8.2651    128.4687     76.0057   6.7940883249e+01   4.2578181908e+01    0.2122087    0.1285692 -60.70 0.0008069857    2.421    0.587
       211  -8.8811     10.1493     74.8283   1.0937281964e+02   6.0224916890e+01     0.209731    0.1534129 -33.90 0.0002976979    1.279    0.218
       212  -8.5324     13.4970     74.5105   1.0798450217e+02   6.0104567019e+01    0.1721752    0.1098926 -13.06 0.0009797292    1.779    0.438
       213  -9.2470     82.6243     73.1248   8.1019829734e+01   5.2396909704e+01    0.3410561    0.2583706  89.76  0.001512068    2.293    0.564
       214  -9.9878     27.8247     71.1944   1.0144411149e+02   5.9828686946e+01    0.5923085    0.2629691 -15.92  0.002184531    4.039    0.752
       215  -8.5223     95.3718     71.6096   7.6250429839e+01   5.0373664593e+01    0.2714669    0.1269876 -54.47 0.0009402627    3.053    0.672
       216 -10.0915     52.3228     70.9207   9.1540820011e+01   5.7363308399e+01    0.4172322     0.294612 -76.23  0.001790603    2.144    0.534
       217  -8.4457      1.4510     69.0550   1.1169402432e+02   6.1939827869e+01      0.18932   0.09226014 -62.50 0.0008424026    1.573    0.364
       218  -8.9675     16.4116     69.9841   1.0580871622e+02   6.0934960309e+01    0.3314743    0.1914307 -80.20  0.001651319    2.252    0.556
       219  -9.1328     84.0214     64.2785   7.7575236013e+01   5.3886884697e+01    0.4088221    0.2123975  18.83  0.001440217    3.317    0.698
       220  -9.6823     37.5425     64.4140   9.5561840531e+01   6.0405230214e+01    0.2751005     0.217837 -77.21 0.0009815218    1.692    0.409
       221  -9.0259      9.6933     64.5358   1.0734304580e+02   6.2533868909e+01    0.2307528   0.09299956 -63.23  0.001087667    2.069    0.517
       222  -9.5927     18.3886     62.0611   1.0303418663e+02   6.2531577249e+01    0.3641766    0.1405619 -39.85  0.001355981    2.253    0.556
       223  -8.0554    110.2882     63.6928   6.8986571355e+01   4.8816131523e+01     0.140437    0.1186669 -77.38 0.0003044302    1.572    0.364
       224  -9.6935     73.4515     60.2133   7.9931784253e+01   5.6471662984e+01    0.3116206    0.2451241 -58.97  0.001055476    1.620    0.383
       225  -9.0085     51.4874     61.5090   8.8901057293e+01   5.9420431890e+01    0.1952409    0.1249293  11.79 0.0009870954    1.777    0.437
       226  -7.8525    170.2854     60.6956   5.3880896422e+01   3.5217839718e+01     0.147748    0.1101321 -69.28  0.000264287    1.562    0.360
       227  -9.2722     24.8205     59.0034   9.9408876523e+01   6.2698941228e+01    0.2236547    0.1653925 -85.39  0.001186191    2.005    0.501
       228  -9.2690     26.2046     54.9203   9.7590370167e+01   6.3430588724e+01    0.2781873    0.1664135 -22.32  0.001511156    1.698    0.411
       229  -9.6203     39.2097     57.7761   9.2801852042e+01   6.1606095480e+01    0.2384432    0.1979776 -30.12  0.001495795    1.014    0.014
       230 -10.0752      7.0427     57.7187   1.0687967787e+02   6.4144262666e+01    0.2478211    0.2066788  24.67  0.001551185    1.497    0.332
       231  -9.8481     63.2485     55.4259   8.2100583926e+01   5.8976502127e+01    0.2530399    0.2342359 -69.92 0.0008047761    1.459    0.314
       232  -9.3465     54.9513     54.7749   8.5184680765e+01   6.0286973938e+01     0.338831    0.2330926 -72.93  0.001546984    2.808    0.644
       233  -9.2193     44.1912     55.8612   9.0045784890e+01   6.1434364170e+01    0.2348813    0.1466051 -54.63    0.0011785    1.701    0.412
       234  -9.3997    100.5186     54.3149   6.8642747908e+01   5.2475012736e+01    0.2433621    0.2311906  30.24 0.0002214262    1.106    0.096
       235  -9.8096     31.2750     51.7432   9.4315545843e+01   6.3616202307e+01     0.266937    0.2164985  68.60 0.0008788409    2.012    0.503
       236  -8.8010     20.4036     53.1604   9.9669782637e+01   6.4254394187e+01    0.1653065    0.1084024 -64.53  0.000453746    1.669    0.401
       237  -8.6624     92.4406     51.1832   7.0054590198e+01   5.4623353996e+01    0.1959961    0.1302005 -46.30 0.0009440848    1.712    0.416
       238  -9.4933     76.2152     49.4479   7.4982584254e+01   5.7936458758e+01    0.4421089    0.2516236   4.81  0.001688926    3.138    0.681
       239  -9.5262     45.9245     49.0806   8.6926581103e+01   6.2532525150e+01    0.2851491    0.1761095  15.97  0.001134101    1.742    0.426
       240  -9.4992     22.7439     47.0769   9.6698819915e+01   6.5293785484e+01     0.325102    0.1826337  -0.47  0.001293303    2.053    0.513
       241  -9.1817     64.5071     46.7532   7.8374585217e+01   6.0342394924e+01    0.3241302    0.1701005  19.25  0.001372035    2.535    0.605
       242  -8.4159    130.6033     45.8149   5.7509272702e+01   4.7070191803e+01    0.1829912    0.1341216 -41.83 0.0004405151    1.462    0.316
       243  -9.0706     45.0894     44.8761   8.5731565795e+01   6.3410811867e+01    0.1823331    0.1682517 -38.95 0.0005227367    1.318    0.241
       244  -9.1718     16.7174     44.8281   9.8826470142e+01   6.6200235655e+01    0.2134708    0.1443054 -79.06   0.00115541    2.384    0.580
       245  -8.6957    149.7617     44.0331   5.2788917101e+01   4.2693813301e+01    0.1809739    0.1207735 -31.95 0.0004059712    1.574    0.365
       246  -9.2976     74.6510     44.5746   7.3677058455e+01   5.9021332815e+01    0.2632366    0.1223617  36.05  0.001135614    2.158    0.537
       247  -9.8728     58.5709     43.2304   7.9377430399e+01   6.1855821201e+01    0.2774748    0.2356111 -78.32  0.001576222    1.984    0.496
       248  -8.7042     82.0051     47.3140   7.2109171366e+01   5.7251920661e+01    0.1911039     0.167236  22.33  0.000404938    1.094    0.086
       249  -9.4266      4.9071     41.2569   1.0347188502e+02   6.7640539523e+01    0.4668866    0.1648591 -66.72  0.001871918    3.675    0.728
       250  -8.9835      6.2715     34.2578   1.0058913531e+02   6.8922053889e+01    0.2365685    0.1318454 -27.04  0.000840198    1.562    0.360
       251  -8.9824    113.8776     41.3508   6.0115201710e+01   5.1568809197e+01    0.2079684    0.1940124 -36.23 0.0003926182    1.177    0.150
       252  -9.4993     69.3122     41.7920   7.4569450891e+01   6.0388093048e+01    0.2524281    0.2138266  69.62  0.001259124    1.825    0.452
       253  -9.2101     36.9380     41.2952   8.8037401496e+01   6.5019685912e+01    0.2041884    0.1615997 -45.28 0.0006302855    1.350    0.259
       254  -9.1066    106.1591     36.8418   6.0540495492e+01   5.3903824337e+01    0.1930365    0.1848802  42.59 0.0002888819    1.127    0.113
       255  -9.0058     26.0235     36.3905   9.1357981565e+01   6.7027646761e+01    0.2622752    0.1520495 -53.44  0.001398501    1.849    0.459
       256  -9.2914     84.2451     39.7917   6.8411028428e+01   5.8006583748e+01    0.2506618     0.192869  25.32 0.0004819525    1.221    0.181
       257  -9.3055     56.7693     36.2682   7.7300735096e+01   6.3274268587e+01    0.2844454    0.1870896  55.80  0.001395195    2.551    0.608
       258  -8.7377    119.5606     33.7382   5.5924904067e+01   5.1281380353e+01    0.1843801    0.1293425 -40.46 0.0007875975    1.574    0.365
       259  -8.7714    222.2358     32.8938   3.9269328178e+01   2.6747688642e+01    0.2010324    0.1490367 -63.24 0.0004712383    1.220    0.180
       260  -8.7971     60.9111     32.9748   7.4220760753e+01   6.3141881136e+01    0.1774662     0.166099 -82.31 0.0006719539    1.666    0.400
       261  -9.1441     49.3484     32.6915   7.8959949515e+01   6.4922211759e+01    0.1700398     0.158233 -79.45  0.001084911    1.749    0.428
       262  -8.8325     12.7921     30.9988   9.6043890882e+01   6.9103930242e+01    0.2498387     0.139273 -55.16  0.001086446    1.807    0.447
       263  -8.6914     72.3195     31.6728   6.9282883311e+01   6.1396630445e+01    0.1197307    0.1081889 -74.16 0.0006879172    1.682    0.406
       264  -9.1062    148.1974     28.6106   4.8189951817e+01   4.5025877715e+01    0.2109471    0.1121079  53.23 0.0009572149    1.700    0.412
       265  -9.2297     28.6469     27.1780   8.6332515887e+01   6.8360344512e+01     0.276079    0.1100689 -27.74  0.001155398    2.974    0.664
       266  -8.8012      2.5483     27.5717   1.0028450609e+02   7.0379529896e+01    0.2692126    0.1694021 -35.97  0.001777276    1.189    0.159
       267 -10.0430     77.1142     25.8334   6.5088216881e+01   6.1298644301e+01    0.2155222    0.1732032 -29.52 0.0007486667    1.344    0.256
       268  -8.7599     43.9674     25.7960   7.8351212818e+01   6.6728399717e+01    0.1917103    0.1392605  -2.02 0.0005133321    1.233    0.189
       269  -8.3318    118.4576     24.5358   5.2847021800e+01   5.2629984000e+01    0.1370211    0.1217755  40.79 6.392716e-05    1.013    0.013
       270  -8.5617    110.4861     24.5064   5.4738750295e+01   5.4464259659e+01    0.1371172    0.1206296  35.77 9.549338e-05    1.015    0.015
       271  -9.5884     67.0196     23.5303   6.7713332849e+01   6.3438663414e+01    0.1946505    0.1764616 -27.50 0.0007092092    1.336    0.251
       272  -8.9510     63.0406     21.0129   6.8094776173e+01   6.4452767861e+01    0.2168533    0.1755746  70.72  0.001242823    2.091    0.522
       273  -8.9608     84.9563     21.5382   6.0672925217e+01   6.0287870642e+01    0.2199434    0.1741363 -38.15 0.0005674853    1.495    0.331
       274  -8.8634     58.8126     22.2094   7.0314051549e+01   6.5006936105e+01    0.1746394    0.1255337   5.38 0.0002653783    1.303    0.233
       275  -8.6136     48.3806     22.1100   7.4680294598e+01   6.6640870960e+01    0.1660154    0.1075182 -40.37 0.0009368404    1.752    0.429
       276  -9.2987     40.8668     21.3703   7.7761524315e+01   6.7798225429e+01    0.2038899    0.1468475 -23.53 0.0001724731    1.229    0.186
       277  -9.4865     12.9222     21.2957   9.2131723609e+01   7.0792770719e+01    0.2265824     0.176255   8.55 0.0007532805    1.329    0.248
       278  -8.5741     73.4800     19.9586   6.3780154209e+01   6.2706856032e+01    0.1698433    0.1039485 -49.25 0.0008097136    2.539    0.606
       279  -9.7710     29.2100     18.3128   8.2053371076e+01   6.9691351777e+01    0.2943949    0.1965441  26.64  0.001032896    1.533    0.347
       280  -9.8276    188.4780     20.5887   3.9942801044e+01   3.6057421931e+01    0.2280681    0.2109607 -74.57  0.001066682    1.077    0.072
       281  -9.0089     50.6443     15.8037   7.0703462948e+01   6.7138470019e+01    0.2392947    0.1360418  17.53  0.000996114    1.875    0.467
       282  -8.8497    189.4845     15.4959   3.8492979312e+01   3.6361549158e+01    0.1301107    0.1143267 -89.82 0.0008104321    1.015    0.015
       283  -9.6839    195.7425    248.5771   9.0356451085e+01  -3.9245871277e+00    0.3400385    0.2193273   3.46  0.001961384    1.712    0.416
       284  -8.4000     87.5449     13.4981   5.6462519994e+01   6.0626060216e+01    0.1305295    0.1106336  28.44  0.000172243    1.004    0.004
       285  -9.1869     80.1497     12.6923   5.8340489618e+01   6.2214598728e+01    0.1906131    0.1617294  66.18  0.001181003    1.485    0.327
