#   1 NUMBER                 Running object number                                     
#   2 MAG_AUTO               Kron-like elliptical aperture magnitude                    [mag]
#   3 X_IMAGE                Object position along x                                    [pixel]
#   4 Y_IMAGE                Object position along y                                    [pixel]
#   5 X_WORLD                Barycenter position along world x axis                     [deg]
#   6 Y_WORLD                Barycenter position along world y axis                     [deg]
#   7 A_WORLD                Profile RMS along major axis (world units)                 [deg]
#   8 B_WORLD                Profile RMS along minor axis (world units)                 [deg]
#   9 THETA_WORLD            Position angle (CCW/world-x)                               [deg]
#  10 FWHM_WORLD             FWHM assuming a gaussian core                              [deg]
#  11 ELONGATION             A_IMAGE/B_IMAGE                                           
#  12 ELLIPTICITY            1 - B_IMAGE/A_IMAGE                                       
         1 -11.1738      5.0304     35.7406   1.0616367580e+02   7.1011343396e+01    0.7700761    0.4114919 -72.77   0.00394381    1.748    0.428
         2 -10.3711     41.5509     22.6342   7.7563995266e+01   6.9998585191e+01    0.5542812    0.2705505 -48.91  0.002473416    2.154    0.536
         3 -10.6063     37.4646     26.5481   8.1960011463e+01   6.9872019461e+01    0.8921706    0.5680434  -5.00  0.004222634    2.201    0.546
         4  -9.7606     43.3997     15.6053   7.2494335750e+01   7.0911821201e+01     2.936226     1.046819  29.16  0.007856782    6.687    0.850
         5 -10.0641     56.0171     11.2169   6.3518732219e+01   6.9239033243e+01    0.3104436    0.1852032 -24.55 0.0008412101    1.696    0.411
         6 -10.7883     26.1630     21.8968   8.6563573478e+01   7.2268459093e+01    0.5460238    0.3383267  -1.72  0.002714684    2.112    0.526
         7 -11.6818    105.6455     21.0138   5.2310131123e+01   5.6639544509e+01     0.488867    0.2986698  71.26 0.0003621467    1.782    0.439
         8 -10.2076     99.2022     13.1988   5.0263179853e+01   5.9173586018e+01    0.6251326    0.3362437 -69.64  0.002262759    3.361    0.702
         9  -9.1448     98.1390      7.0506   4.7550507541e+01   6.0086408863e+01    0.2613293     0.206623   0.84 0.0007427306    1.379    0.275
        10 -12.1544    106.6374     29.2653   5.5690998198e+01   5.5293260433e+01    0.7306556    0.6216398 -85.19  0.001325428    1.322    0.244
        11 -10.5756    209.1933     34.2915   4.1011632153e+01   2.9100829334e+01     0.430475    0.2968773  13.22  0.002142754    2.162    0.537
        12  -9.2518    209.9844     13.9841   3.5501591534e+01   3.1211045031e+01    0.3028337     0.211055  80.60  0.001073074    1.481    0.325
        13 -10.7116    221.7301     26.9057   3.7955035243e+01   2.7194329192e+01     0.494129    0.3070946 -30.55  0.002699713    1.433    0.302
        14 -10.5888    217.9278     18.9396   3.6206189356e+01   2.8908245380e+01     0.637748    0.3002717 -89.20  0.002891157    2.532    0.605
        15 -12.1734    166.3939     17.1981   4.0529486453e+01   4.1416906343e+01    0.7127284    0.4203385  19.75  0.002977996    2.700    0.630
        16 -10.5581    174.3045     11.5775   3.7877625173e+01   4.0006035574e+01    0.6212792    0.3652015  42.60  0.002908618    2.098    0.523
        17  -9.2677    111.7938     15.3887   4.8421733476e+01   5.5751914441e+01    0.3137093    0.2526869   9.70  0.001663081    1.404    0.288
        18  -9.8574    120.0900      9.1514   4.4136084419e+01   5.4268719912e+01    0.3397308    0.2850531  18.08 0.0005402246    1.324    0.244
        19 -10.0396    117.0390     15.2059   4.7274401840e+01   5.4426638826e+01    0.3828525    0.2810468  29.90  0.001177656    1.535    0.348
        20 -12.1445    117.0585     22.2203   5.0239490883e+01   5.3602033148e+01    0.3655213    0.3178239  65.72 0.0003976204    1.123    0.109
        21  -8.6246     67.9595     11.3802   5.8724446367e+01   6.6725978271e+01    0.3117714    0.1917285  66.87   0.00146845    2.005    0.501
        22 -10.0809     62.3194     22.8173   6.7397014467e+01   6.6264575757e+01    0.4750297    0.3841289  35.03  0.002674883    1.227    0.185
        23 -10.8215     62.1478     16.4949   6.3972011830e+01   6.7260033094e+01    0.5859313    0.3673432  19.70  0.002592117    2.046    0.511
        24 -10.5393     67.7862     15.9475   6.1384124019e+01   6.6160288978e+01    0.4632756    0.3512171 -64.35  0.001693985    1.819    0.450
        25  -9.7487    150.9730     18.9926   4.3111093375e+01   4.5185067966e+01     0.497012     0.273482  32.90  0.001312971    2.557    0.609
        26  -9.6315    143.1059     11.1225   4.1360309447e+01   4.8065792674e+01    0.2645281    0.2502257  77.34 0.0006562746    1.050    0.048
        27 -10.8695     16.8962     17.4546   9.0733207411e+01   7.4170812137e+01    0.5188108    0.3456905  -1.66  0.002126393    1.679    0.405
        28 -10.4272    182.3584     18.2459   3.9121204415e+01   3.7304068982e+01    0.4830163    0.2722132  39.59  0.001409716    2.381    0.580
        29 -10.8031    230.0000     14.9910   3.4370754918e+01   2.6725260852e+01     0.505799    0.2339623 -19.02  0.002212467    2.431    0.589
        30  -9.1644      5.3339      8.1974   9.5121330667e+01   7.7040632592e+01    0.3138161    0.2295985  69.28   0.00179888    2.265    0.558
        31  -9.5165     23.3671      1.5480   7.5754908374e+01   7.6270859781e+01     0.185444    0.1614197  28.95  0.000889342    1.287    0.223
        32 -11.2247      5.8839     16.1060   9.8592384318e+01   7.5368238631e+01    0.4260804    0.3104525 -82.17 0.0009487789    1.746    0.427
        33 -11.1193     12.8962     12.2284   9.0996016897e+01   7.5599875894e+01    0.7372662    0.3154465 -27.54  0.002976906    3.228    0.690
        34 -10.0795     14.6944      4.0807   8.4455706245e+01   7.6947597300e+01    0.3251897    0.1952388 -51.13  0.001067944    1.721    0.419
        35 -10.2631     18.0082      1.7494   8.0058722292e+01   7.6955002397e+01    0.2598068    0.1933279  23.15 0.0007968668    1.362    0.266
        36 -11.6270     24.9317      6.9349   7.8488234321e+01   7.5180802586e+01    0.2270527    0.1862028 -38.28  0.001443788    1.239    0.193
        37 -11.6570     20.6331      6.4150   8.1313375800e+01   7.5833396292e+01      0.35221    0.2608216   3.02 0.0007699748    1.367    0.269
        38 -10.3307    244.0236     12.8171   3.3009856504e+01   2.4078295280e+01    0.3819672    0.2210232  29.55  0.001727922    3.277    0.695
        39  -9.5426    219.2065     12.3328   3.4416340935e+01   2.9322806402e+01     0.328266    0.2230444 -32.20  0.001911812    1.324    0.245
        40  -9.0693     81.2090      1.8697   4.9056997975e+01   6.4731115814e+01    0.3055731    0.1919746  67.71  0.001045142    1.617    0.382
        41  -9.3300     75.4876     12.9806   5.6950006497e+01   6.4855073910e+01    0.2690973    0.2377067 -45.61  0.001054251    1.250    0.200
        42  -9.7920     78.8569     11.6697   5.5131727392e+01   6.4244066200e+01     0.262893    0.1915196 -13.19 0.0002250269    1.445    0.308
        43  -9.7999     76.1946      7.4367   5.3641118065e+01   6.5343370877e+01    0.4875421     0.237655  58.96  0.002124573    1.982    0.496
        44 -10.6755     74.3660      2.7626   5.1540699308e+01   6.6256364789e+01    0.3628864     0.324323  50.64  0.001469113    1.089    0.082
        45 -10.2024     69.2491      2.1827   5.2830381529e+01   6.7486730938e+01    0.3605901    0.1937442  39.77  0.001303088    1.832    0.454
        46  -9.7383     32.4859     12.5865   7.7090536778e+01   7.3149469580e+01    0.2658133    0.2238795 -47.45 0.0009730181    1.348    0.258
        47 -10.4239    144.9715     17.3334   4.3374975764e+01   4.6928063544e+01    0.4908155    0.3165581  62.81  0.001782031    1.494    0.330
        48 -10.8554    133.0911     12.6895   4.3422547651e+01   5.0523184688e+01    0.2479237    0.2253177 -63.52 0.0002959815    1.088    0.081
        49  -9.1377     87.7193      6.4402   4.9782429056e+01   6.2717159804e+01    0.3369612    0.1841961  61.93   0.00155668    1.741    0.426
        50  -9.6640     89.0083     12.9544   5.2787993009e+01   6.1697780772e+01    0.3488107    0.2197935 -34.10  0.001199491    1.615    0.381
        51  -9.1544     91.9121      8.5019   4.9763199110e+01   6.1482136895e+01    0.4003659    0.2179236  42.22  0.001764816    1.853    0.460
        52 -10.1854    198.7277     17.8456   3.7465421548e+01   3.3404022447e+01     0.386502    0.2626403 -58.80  0.001852239    1.358    0.264
        53 -10.2452    224.5709      9.1324   3.3263229608e+01   2.8481297560e+01    0.3027289    0.1922314 -32.58 2.396762e-05    1.379    0.275
        54 -10.4135    191.8770      8.5261   3.5391378539e+01   3.5995881046e+01    0.4517415    0.4054109  82.44  0.001481978    1.163    0.140
        55 -10.7222    194.1032      3.8603   3.3889275401e+01   3.5913344132e+01    0.6735091    0.2580548  64.11  0.002771542    2.571    0.611
        56  -9.5043    128.0718      8.8006   4.2668773660e+01   5.2223808671e+01    0.3592421    0.3438693 -84.98  0.002148191    1.020    0.020
        57  -8.5164     45.2182      5.6046   6.5094193590e+01   7.2080921619e+01    0.1892797    0.1689427 -11.93 0.0004531564    1.087    0.080
        58 -10.5210    213.4886      8.1360   3.3713263387e+01   3.1015475200e+01    0.4721491    0.2783212  48.01  0.000644831    2.182    0.542
        59 -10.6463    208.4145      4.1338   3.2989314981e+01   3.2552183921e+01    0.4441576    0.2998386 -43.34  0.001766696    1.256    0.204
        60 -10.2949    218.3731      2.7307   3.2019959480e+01   3.0455997832e+01    0.2682329    0.2249956 -85.96  0.001118102    1.205    0.170
        61  -8.8608     37.6707      9.7374   7.2060755833e+01   7.2804539579e+01    0.1481376    0.1463352  -6.29 0.0006437722    1.267    0.211
        62 -10.7783    202.1930      8.1864   3.4508665298e+01   3.3590899815e+01    0.3310623    0.2224952 -60.09  0.001853558    1.340    0.254
        63  -8.9356    165.2417      8.5536   3.7827575937e+01   4.2596911299e+01    0.2707737    0.1421248 -38.94  0.001251855    1.752    0.429
        64 -10.0213    107.1327      6.0888   4.5190264629e+01   5.7904000702e+01    0.5385965     0.366998 -42.23  0.002739921    1.542    0.351
        65 -10.4618    111.9387      4.6914   4.3647248470e+01   5.6800253206e+01     0.445205    0.2938039 -53.20 0.0003783322    1.671    0.402
        66  -9.8906    119.3359      2.2961   4.1349044291e+01   5.5096271547e+01    0.2694825    0.1961382  47.66 0.0006884674    1.363    0.266
        67 -10.4910    115.7211      1.9575   4.1785607154e+01   5.6063696212e+01    0.2619001    0.1970323  62.17 0.0003100045    1.237    0.192
        68 -10.8111    248.4262      4.5156   3.0885063717e+01   2.4037993626e+01    0.3381665    0.2614379  -6.56 -1.279245e-05    1.640    0.390
        69 -10.5711    237.0653      7.1726   3.2070293578e+01   2.6051698108e+01    0.2430238     0.137327 -64.79  0.001366719    1.648    0.393
        70 -10.0491     42.8202     10.3055   6.9496594579e+01   7.1843556790e+01    0.3959379    0.2365406  28.77  0.001237026    1.810    0.448
        71 -10.4330     60.9918      4.6480   5.7335893047e+01   6.9038688456e+01    0.4065145    0.3020525 -84.18  0.001062706    2.073    0.518
        72 -10.1722    147.0039     12.7482   4.1426289996e+01   4.6884790647e+01    0.3763998    0.2662677  63.29 0.0006543311    1.369    0.270
        73 -10.2303     30.8700      3.1779   7.1737377253e+01   7.4898275788e+01    0.3008792    0.2070489 -51.73 0.0009039343    1.943    0.485
        74 -10.9810    160.2900      2.7423   3.6401451476e+01   4.4403319890e+01    0.4861843    0.2959611  70.49  0.001758953    1.562    0.360
        75  -9.4071    168.5267      1.3333   3.5170578844e+01   4.2431928442e+01    0.2737029    0.1196958  76.34  0.000145036    2.190    0.543
        76  -9.7527    238.3155      2.9904   3.1021425527e+01   2.6204065597e+01    0.1784601    0.1330315 -44.21   0.00116943    1.079    0.074
        77 -11.1069    179.6092      2.1234   3.4484437090e+01   3.9591553805e+01    0.2975743    0.2120593  84.40 0.0005172602    1.349    0.259
        78  -8.5088    143.5706      3.1761   3.8369236030e+01   4.8691833516e+01    0.1838036    0.1344122   1.16 0.0004199805    1.643    0.391
        79 -10.1829     90.1010      1.9686   4.6855151506e+01   6.2563082109e+01    0.5222156    0.2312815  70.71   0.00190041    2.380    0.580
        80  -8.5394      2.5561      2.9583   9.4661200227e+01   7.8282094712e+01    0.1707113   0.06908202 -37.80 0.0004406628    2.214    0.548
        81  -9.4978     50.0552      2.0001   6.0254919346e+01   7.1604832394e+01     0.265283    0.1695675  43.91 0.0008926659    1.486    0.327
        82  -9.3651    152.9617      4.0397   3.7606440728e+01   4.6174718414e+01    0.2292035     0.186936 -31.33   0.00103429    1.248    0.199
        83  -9.8854     39.0514      4.1877   6.7461557619e+01   7.3388445204e+01    0.3672042    0.2804404 -41.52  0.002177681    1.468    0.319
        84  -8.3827    186.0472      1.0000   3.3653324121e+01   3.8115623985e+01    0.2024579   0.07087722  77.73  0.000395216    2.807    0.644
        85  -9.5861     20.9588    113.4695   1.1217550188e+02   5.0318580004e+01    0.2648636    0.1464487  43.83  0.001306855    1.812    0.448
        86  -8.2340    242.6951    250.6950   8.0676777401e+01  -4.9227851901e+00    0.1024988   0.05589011   4.42 0.0005092847    1.601    0.375
        87  -9.4179    201.5431    249.6403   8.7055107678e+01  -3.1480685244e-01    0.1901542    0.1227887  18.31 0.0005843744    1.172    0.147
        88 -10.1367     19.9807    109.4068   1.1205488378e+02   5.1447524477e+01    0.3792014    0.2090345 -67.20  0.001566729    1.569    0.363
        89  -9.7343     62.9657    110.8660   9.7197962645e+01   4.6364376739e+01    0.2350423    0.1939937 -67.04 -0.0006383859    1.137    0.121
        90 -10.8323      5.5919    108.6539   1.1705132847e+02   5.2625967840e+01     0.546086    0.3881334 -31.84  0.003131059    1.733    0.423
        91  -9.5052      1.8523     92.9595   1.1704243350e+02   5.6852324222e+01    0.2120066    0.1715716  62.98 0.0008734136    1.241    0.194
        92  -9.1330      3.3920    102.7682   1.1733711456e+02   5.4257308409e+01    0.3077458    0.1341437 -80.30  0.001063397    1.922    0.480
        93  -9.8680      5.4559     98.2330   1.1616731538e+02   5.5309150768e+01    0.4421774    0.2215474  29.75  0.002201239    2.132    0.531
        94  -9.1087      6.0248     94.4544   1.1557678896e+02   5.6250868146e+01    0.2406538    0.1718539  19.49  0.001391307    1.645    0.392
        95  -9.2747    232.3300    110.6693   5.7154419681e+01   1.3819725326e+01     0.129495   0.09322114 -55.61 0.0004250582    1.717    0.417
        96 -10.5024     37.6417    105.0885   1.0508828804e+02   5.0964048062e+01    0.8560978    0.2485913 -61.01    0.0030564    2.768    0.639
        97  -9.1790     42.8316     95.8564   1.0150250445e+02   5.2800274276e+01    0.2372217    0.1578438  56.17 0.0004677849    1.657    0.396
        98  -9.4340     27.6606     91.8503   1.0671017328e+02   5.5377804930e+01    0.2444296    0.2157585  23.55 0.0005328478    1.296    0.228
        99  -9.6629     22.9582     88.0038   1.0797696655e+02   5.6777267489e+01    0.4529755    0.2094465  36.84  0.002031016    2.257    0.557
       100  -9.7475     33.9838     97.9071   1.0526129644e+02   5.3206543185e+01    0.2431249    0.2037808  63.74 0.0002722957    1.221    0.181
       101 -10.3568     49.0411    101.2949   1.0023335408e+02   5.0659033687e+01    0.4863102    0.3296146 -44.88  0.001511958    1.550    0.355
       102  -9.5248     43.1980     99.7613   1.0210704870e+02   5.1745655401e+01    0.4486335    0.2055935  39.29  0.001888477    2.224    0.550
       103  -9.8897     33.4567     91.3106   1.0430526826e+02   5.4975180725e+01    0.5325228    0.2268824 -48.92   0.00160372    2.305    0.566
       104 -11.3739     30.1196     85.1902   1.0452294378e+02   5.6882730706e+01    0.4727544    0.3805291 -49.45  0.001677284    1.213    0.175
       105 -10.4909    117.5080    106.1953   7.9083193051e+01   3.7945285030e+01    0.5196306    0.2911265 -36.71  0.001929801    2.019    0.505
       106 -10.6741     94.1747    105.1908   8.5690389896e+01   4.2702897806e+01    0.6055312    0.4306074  70.44  0.002426768    1.794    0.443
       107  -8.9865     88.7075    103.5898   8.7019735895e+01   4.4074933688e+01    0.2463121    0.1788339 -79.87 0.0001874282    1.660    0.398
       108  -9.2013     84.8296    102.3616   8.7971485490e+01   4.5055269430e+01    0.2859789    0.1917862  31.83  0.001262845    1.635    0.388
       109  -8.8195     30.3975    106.7339   1.0797320240e+02   5.1249883791e+01    0.2928886    0.1845895  -6.30  0.001372052    2.312    0.567
       110  -9.3838    137.2210    106.6086   7.4027923387e+01   3.3748243831e+01    0.2190059    0.1434806  35.43 0.0009530784    1.684    0.406
       111  -8.9659     63.0604    104.5124   9.5859361796e+01   4.7971362040e+01    0.2556983    0.2121245  -2.68  0.001071208    1.515    0.340
       112  -9.0605     74.3118    104.9815   9.2093249491e+01   4.6156141190e+01    0.4204832    0.2544663  43.90  0.001878795    1.698    0.411
       113  -9.1746     66.7906    102.5908   9.4135794058e+01   4.7915083703e+01    0.4513171    0.2069752  47.48  0.001728175    2.414    0.586
       114  -8.4704    166.0352    104.0182   6.6815230448e+01   2.8062886261e+01    0.1773672    0.1659647 -31.53 0.0003298339    1.016    0.016
       115 -10.8946    101.7252    100.8326   8.2248104309e+01   4.2309189967e+01    0.6338861    0.4096005 -41.59  0.001731599    1.599    0.375
       116  -8.7630    134.4852    103.4494   7.3872672611e+01   3.4993406738e+01      0.15145    0.1476722 -65.47 4.264771e-05    1.033    0.032
       117  -9.4336    105.4664     91.0195   7.8403803008e+01   4.3815793852e+01    0.4429669    0.2850206  50.33 0.0003754754    1.633    0.388
       118 -10.1638    110.4643     99.5203   7.9303855897e+01   4.0877384933e+01    0.3782091    0.2652013  45.16  0.001262669    1.456    0.313
       119 -10.7910    108.7504     95.3926   7.8667430871e+01   4.2158821665e+01    0.4788082      0.41829 -22.18 0.0004483103    1.276    0.216
       120  -9.1658    149.0240    101.2996   6.9799879574e+01   3.2283902078e+01    0.2064944    0.1972449  48.23 0.0003906306    1.083    0.076
       121 -10.2120     57.3918     99.7163   9.6856581022e+01   4.9986898925e+01    0.2897389    0.2628579 -53.49  0.001404188    1.103    0.094
       122  -9.3661     77.9647     99.5142   8.9558193988e+01   4.6922354016e+01    0.3501772    0.1957306 -43.01  0.001049011    1.921    0.479
       123  -8.9604     80.4284     94.7087   8.7498482381e+01   4.7684849376e+01     0.350392    0.1411597 -54.95  0.001244626    2.387    0.581
       124  -9.2313     72.4790     99.0062   9.1320885624e+01   4.7940694372e+01    0.2869579    0.2125546 -55.98  0.001411704    1.279    0.218
       125  -8.8596     73.5894     95.2030   8.9996765453e+01   4.8708402020e+01    0.3115251    0.1409303 -54.74 0.0008391732    2.067    0.516
       126  -9.8458     16.4739     98.6199   1.1204889081e+02   5.4510273005e+01    0.3157929    0.2398269 -53.51  0.001415499    1.304    0.233
       127  -9.1364     12.7193     95.2175   1.1307377728e+02   5.5650210593e+01    0.4048021     0.157925 -83.58   0.00161685    2.473    0.596
       128 -10.2308    124.3358     98.3051   7.5104113484e+01   3.8257639937e+01    0.4427374    0.3343143  15.11  0.001894876    1.763    0.433
       129  -8.8510    156.6907     97.9896   6.7192277869e+01   3.1242729440e+01    0.3458128    0.2239618 -63.94  0.001097853    2.108    0.526
       130 -10.0981    117.5832     98.0015   7.6863775578e+01   3.9750284154e+01    0.2717615    0.2243447  46.28 0.0003032009    1.238    0.192
       131  -9.5512    130.0431     96.6923   7.3155478131e+01   3.7372883606e+01    0.2682692    0.2176246 -33.37 0.0001767358    1.267    0.211
       132  -8.9197     86.9050     96.2613   8.5730380152e+01   4.6167279384e+01    0.2941879    0.1934931 -27.74  0.001223607    2.077    0.519
       133  -8.8099     63.8293     96.8374   9.3876310489e+01   4.9809322424e+01    0.2064572    0.1684979  79.62 0.0007617919    1.335    0.251
       134  -9.1684    141.5349     95.9917   7.0100882858e+01   3.4994109157e+01    0.2392337    0.1475765 -40.87 0.0005333457    1.577    0.366
       135  -9.3403     23.2019     95.0261   1.0896917330e+02   5.4930607270e+01    0.2857089    0.2028131  26.27  0.001106375    1.580    0.367
       136  -8.4132    166.5664     94.4750   6.4168374597e+01   2.9710098532e+01    0.1491543      0.13968 -20.90 6.481737e-05    1.062    0.058
       137 -10.5122     43.5459     88.0611   9.9622359220e+01   5.4731381181e+01    0.5018652    0.2561219  29.45  0.002202716    2.114    0.527
       138  -9.5944     47.4403     91.4734   9.8823791804e+01   5.3388937479e+01    0.3690936    0.1935672 -54.20  0.001100754    1.733    0.423
       139  -9.6432     48.0284     87.9776   9.7818715637e+01   5.4213062487e+01    0.2587228    0.1826504 -62.69            0    1.288    0.224
       140  -8.7981    172.5164     92.4463   6.2445001184e+01   2.8754454852e+01    0.1471838     0.139154 -29.51 8.348728e-05    1.019    0.019
       141  -9.2090    117.0330     91.2287   7.5099351958e+01   4.1349294804e+01    0.2344145    0.2106432   1.68  0.000660938    1.272    0.214
       142 -10.4002    123.8968     87.1470   7.2016240587e+01   4.0726530924e+01    0.4706746    0.3130344 -55.29  0.001869171    1.609    0.378
       143 -10.8545    129.2632     85.3935   7.0082033635e+01   3.9890932589e+01    0.4655894    0.3822875  21.70  0.001211327    1.439    0.305
       144 -10.0120     58.5688     88.5920   9.3857452653e+01   5.2652745018e+01    0.4131799     0.218302 -71.52  0.001646177    2.195    0.544
       145 -10.5587     56.4205     82.7524   9.3215446922e+01   5.4423291534e+01     1.292649    0.3898409 -41.58  0.003210911    5.823    0.828
       146  -9.7389     47.0577     81.8762   9.6777018121e+01   5.5887748033e+01    0.4476507    0.2278883  54.08  0.001774901    2.592    0.614
       147 -12.6829     53.0280     74.8495   9.2463836350e+01   5.6860503451e+01    0.5834702    0.3483646 -59.01  0.000554455    1.552    0.356
       148  -9.3218     97.9369     88.7232   8.0064295498e+01   4.5853379790e+01    0.6178023     0.265069 -57.55   0.00183984    2.843    0.648
       149  -8.8579     94.0380     87.7383   8.1026396460e+01   4.6845229430e+01    0.2005276    0.1965297  40.66 0.0002034564    1.065    0.061
       150 -10.6970     86.7260     87.4036   8.3351482577e+01   4.8312063991e+01    0.5124812    0.3413075 -43.64 0.0008459745    1.497    0.332
       151  -9.1885      6.9412     89.0735   1.1463651080e+02   5.7587672348e+01    0.2198795    0.1539339  51.55   0.00085677    1.504    0.335
       152  -9.7227     16.5027     86.8733   1.1045666007e+02   5.7558390794e+01    0.3555218    0.2234454 -50.80  0.001139561    1.519    0.342
       153  -9.0392     70.5034     86.5121   8.8833292285e+01   5.1352832340e+01    0.2374368    0.2159726 -60.32 0.0007479601    1.037    0.036
       154 -10.8213     73.5584     80.8114   8.6095794796e+01   5.2226522357e+01    0.6315522     0.399955 -52.50  0.002290196    1.491    0.329
       155  -9.5586     64.4875     86.5732   9.1092767703e+01   5.2285793047e+01    0.3848625    0.2657233 -38.21  0.001227429    1.578    0.366
       156 -10.2968     80.5556     84.0338   8.4509152454e+01   5.0234439542e+01    0.5063177    0.3935955  14.33  0.002038884    1.610    0.379
       157 -10.1848    155.1306     84.6632   6.3790308378e+01   3.4108189452e+01    0.3268531    0.2186405 -32.39  0.001001149    1.501    0.334
       158  -9.8698    118.1827     83.3374   7.2424093102e+01   4.2788416337e+01    0.3046005    0.2923099  42.40  0.001201405    1.076    0.071
       159 -10.3393    143.0283     80.9988   6.5394367617e+01   3.7603109643e+01    0.2289165    0.2186489 -49.59 0.0003147271    1.014    0.014
       160 -11.1665    149.6779     80.7267   6.3814088423e+01   3.6104648357e+01    0.5024675    0.2996732  50.29  0.001302057    1.731    0.422
       161 -10.4921     20.4837     79.4090   1.0756954725e+02   5.9196987823e+01    0.4325109    0.2829724  88.66 0.0002174906    1.569    0.363
       162  -9.6119     18.0016     73.9012   1.0768732927e+02   6.0797375491e+01    0.3842041    0.2498347 -88.79  0.001988522    1.559    0.359
       163  -9.2061     42.5021     81.3408   9.8536608588e+01   5.6573269455e+01    0.2680326    0.2169839  82.82 0.0008128458    1.335    0.251
       164  -8.7036     38.5251     79.7574   9.9846574387e+01   5.7426930024e+01    0.2400106    0.1670249 -88.97  0.001014369    1.608    0.378
       165  -9.1294      2.6124     80.4305   1.1544404117e+02   6.0029957180e+01    0.2127257    0.1843876  56.95 0.0009680236    1.248    0.199
       166  -9.9831    167.2836     79.4779   5.9833104928e+01   3.2225176971e+01    0.3183326    0.1876316 -21.70  0.001294309    2.084    0.520
       167  -8.3022    102.3565     80.7167   7.6263672316e+01   4.6753758836e+01    0.1568623    0.1219856  85.00 0.0004020089    1.668    0.400
       168  -9.6482    136.9536     78.6868   6.6121834874e+01   3.9461154555e+01    0.2178956    0.1995532  61.40 0.0006800863    1.129    0.114
       169  -9.7869     63.5554     75.6824   8.8415348201e+01   5.5099969565e+01    0.4793568    0.3374827  16.22  0.002253608    1.793    0.442
       170 -10.1116     69.0053     74.4197   8.5897417705e+01   5.4518651194e+01    0.2700029    0.2079212 -55.55 0.0004501113    1.236    0.191
       171  -9.6349    110.4933     76.7835   7.2560245730e+01   4.5858802322e+01    0.2925017    0.2841418 -50.25 0.0007725353    1.005    0.005
       172 -10.9618     81.1979     76.1415   8.1889594874e+01   5.1965907145e+01    0.5444454    0.3773944  33.50  0.001834597    1.574    0.365
       173 -11.9387     79.7498     69.9744   8.0413296869e+01   5.3641752707e+01    0.3369498    0.2853567  26.26 0.0002839905    1.291    0.225
       174 -10.9101     94.8915     72.1606   7.5885827343e+01   5.0172343106e+01     0.580306    0.4062409 -41.90  0.001571778    1.400    0.286
       175 -10.5363     88.9929     72.9122   7.8114009886e+01   5.1201360685e+01    0.4661448    0.3410232 -49.28  0.002225564    1.323    0.244
       176  -8.8171     13.4233     75.5061   1.1003258252e+02   6.0698265202e+01     0.320489    0.0962181 -67.10 0.0009458087    2.546    0.607
       177 -10.4876    184.8749     75.8528   5.5677594853e+01   2.8789619887e+01    0.2452111    0.2156686  41.75 0.0003284479    1.248    0.199
       178  -9.1037     28.5163     75.7245   1.0331362143e+02   5.9466814096e+01    0.2628313    0.1597768 -50.62 0.0009072479    1.506    0.336
       179 -10.3951    170.4733     73.1701   5.7411266882e+01   3.2556841425e+01    0.3123854    0.2748151 -17.50 0.0005659377    1.196    0.164
       180  -9.7369    173.3571     69.1007   5.5710029460e+01   3.2549398027e+01    0.3191264    0.1964077  42.20 0.0008455754    1.874    0.466
       181  -9.6633    152.3462     73.3162   6.1001263566e+01   3.6826089601e+01    0.3103486    0.2537203 -70.15 0.0006646169    1.369    0.270
       182 -10.1002    145.9287     70.8276   6.1606375860e+01   3.8805648954e+01    0.6249659    0.3854907  22.18  0.002038052    2.771    0.639
       183 -10.8165    144.5129     66.2041   6.0445168363e+01   3.9970455467e+01    0.5390611    0.3316094  36.95  0.001985985    1.979    0.495
       184  -9.4475    137.4854     72.6221   6.4094883870e+01   4.0490042318e+01    0.4417791    0.1546731 -34.48  0.001374493    3.084    0.676
       185 -10.3868    199.4483     72.0021   5.2374194671e+01   2.6130472575e+01    0.2861921    0.2435692 -13.25 0.0007517905    1.251    0.201
       186  -8.4083      2.4661     73.4739   1.1467139420e+02   6.1814010369e+01    0.1308119    0.1085501 -73.94 0.0001310833    1.005    0.005
       187  -8.9742    111.7925     70.9330   7.0260454725e+01   4.6780415645e+01    0.3263155     0.205756 -30.20   0.00121979    1.797    0.443
       188  -9.3429    215.7800     70.5527   4.9777799191e+01   2.2837789777e+01    0.2503281    0.1647837 -36.64 0.0007715137    1.303    0.233
       189  -8.2380     64.8367     70.3380   8.6265365921e+01   5.6171070028e+01    0.3371653     0.169895 -66.81  0.001217205    2.728    0.633
       190  -9.9253    102.3143     69.9619   7.2772358989e+01   4.9070936856e+01     0.326298    0.2765462  45.15 0.0007802577    1.213    0.176
       191  -9.5044    106.2425     66.1486   7.0259922380e+01   4.8990534266e+01    0.3615098    0.2284352  48.44 0.0005392676    1.619    0.382
       192 -10.3733     10.5948     69.2339   1.1029757151e+02   6.2474820939e+01    0.2434308    0.1849128 -52.32 0.0002174933    1.207    0.171
       193 -10.2031    120.1842     66.5872   6.6456720502e+01   4.5716331355e+01     0.635271    0.3973275 -22.19  0.002567564    2.084    0.520
       194 -10.8868     39.5582     57.8088   9.3456717054e+01   6.2750263618e+01    0.2888894    0.2802137 -60.75 0.0008110966    1.086    0.080
       195  -9.5327     28.0711     68.2775   1.0185107511e+02   6.1398043617e+01    0.4252308    0.2211658  42.84  0.001940225    2.177    0.541
       196 -11.7198     32.2452     63.6548   9.8703748148e+01   6.2144878669e+01    0.6099749    0.3121089 -59.89  0.002796185    1.694    0.410
       197  -9.2235     16.0188     63.9428   1.0669340198e+02   6.3467935104e+01    0.3440208     0.199364   7.36 0.0009198139    2.113    0.527
       198  -9.4580     14.2249     55.0446   1.0566497926e+02   6.5810110067e+01    0.4095649    0.1893196 -65.46 0.0008592362    1.800    0.445
       199  -8.7867      8.4721     43.8756   1.0618634938e+02   6.8890380858e+01    0.1863882    0.1107823 -67.91 0.0003549509    1.457    0.313
       200 -10.1295    115.8836    248.5338   1.0236764282e+02   1.0333903961e+01    0.1963354    0.1728523  22.88 0.0007758982    1.183    0.155
       201 -11.2485      4.1620     65.3231   1.1274470861e+02   6.3805438627e+01    0.9777601    0.3115979 -38.88  0.003621823    3.571    0.720
       202 -10.6699      3.8174     59.8891   1.1205112315e+02   6.5188404944e+01    0.4914853    0.3197095 -37.04    0.0021676    1.563    0.360
       203 -11.2215      8.6989     50.9464   1.0773385167e+02   6.7160092742e+01    0.6456087    0.4228123 -20.33  0.003432478    1.720    0.419
       204  -9.7525     12.1327     44.7957   1.0426947720e+02   6.8444337957e+01    0.3408251    0.1844874 -60.49  0.001097579    1.521    0.342
       205 -11.3180     14.3943     38.8395   1.0116738875e+02   6.9696953341e+01     0.613647    0.4101464 -76.25  0.002567489    1.584    0.369
       206  -8.8392    157.4817     68.0381   5.8334954600e+01   3.6515741930e+01    0.2368334    0.1451213 -33.44  0.001029278    1.592    0.372
       207 -10.8666    135.6047     65.3714   6.2184947936e+01   4.2274481583e+01     0.507777    0.3927001  49.80  0.001419802    1.327    0.247
       208 -10.9191     46.1819     68.3785   9.3574019794e+01   5.9366334891e+01    0.5713794    0.4167748 -19.84 0.0007761583    1.678    0.404
       209  -9.8215     75.2385     65.7146   8.0652519473e+01   5.5434193712e+01       0.3597     0.224567 -33.51 0.0003793566    1.811    0.448
       210  -9.9052     25.0859     54.3311   9.9731084579e+01   6.5124997317e+01    0.3135803    0.1934457 -70.04 0.0005704733    1.574    0.365
       211 -10.3776     22.8696     63.5783   1.0324227473e+02   6.3036202826e+01    0.5743305    0.2779888 -26.59  0.001884994    2.948    0.661
       212 -10.5706     22.2495     59.2722   1.0251029537e+02   6.4160181999e+01    0.4035747    0.2684461 -56.24  0.001247316    1.286    0.222
       213  -8.6845    206.0000     65.0598   4.9620059970e+01   2.5717572517e+01    0.1945595    0.1092483 -33.61  0.000578307    1.567    0.362
       214  -9.8386    202.6902     63.0466   4.9522237083e+01   2.6737036575e+01    0.3353882    0.2611203 -16.61  0.001096456    1.376    0.273
       215 -10.1084     82.7850     63.4690   7.7058117198e+01   5.4493113868e+01    0.5050753    0.2835994 -58.67  0.002015433    2.137    0.532
       216 -10.8822     97.2027     63.5665   7.2161379342e+01   5.1497538742e+01    0.3305113    0.3196213  70.26 0.0002126009    1.074    0.069
       217  -9.6791     66.1826     62.8032   8.3216624340e+01   5.7691012454e+01       0.4258    0.2855517 -68.74  0.001043483    1.845    0.458
       218 -10.4696     71.0531     60.4696   8.0426858248e+01   5.7359309647e+01     0.374257    0.3154724  59.55 0.0009660019    1.341    0.255
       219 -10.0362    163.5727     51.4193   5.2014618815e+01   3.7693511635e+01    0.4797978    0.3248765  85.38 0.0006097778    1.781    0.438
       220  -9.2871    160.4524     61.4073   5.5710915361e+01   3.6898823834e+01    0.4136169    0.1893805 -39.20  0.001523106    2.024    0.506
       221 -10.4948    171.0898     58.6028   5.2972891217e+01   3.4756774029e+01    0.5017558    0.3985608 -38.34  0.002610324    1.180    0.153
       222  -9.8417    163.0862     57.2682   5.3940025482e+01   3.6915018263e+01    0.4696772    0.3034037 -45.18  0.002168889    1.485    0.327
       223  -9.5333    167.0681     56.4827   5.3003332106e+01   3.6062122564e+01    0.2484487      0.19808 -35.84 0.0003074584    1.194    0.163
       224  -9.9936    171.9852     53.3149   5.1217748442e+01   3.5341428052e+01    0.2546408     0.235472 -68.51 0.0003350539    1.061    0.057
       225  -9.6708    175.4569     50.4947   4.9817900436e+01   3.4909532373e+01    0.3064083     0.269127 -18.25 0.0009423394    1.214    0.176
       226  -9.7625    194.0419     60.5853   5.0032986608e+01   2.9044181954e+01    0.3281015    0.2132574 -30.79  0.001609927    1.434    0.303
       227  -9.9299    141.5342     60.3251   5.9170557128e+01   4.1719014251e+01    0.2593669    0.2410019  39.52  0.000403649    1.140    0.123
       228 -10.9497     62.9247     53.9750   8.1365244802e+01   6.0208340959e+01     1.185057    0.7488188 -87.20  0.004155675    3.769    0.735
       229 -10.3790     54.3067     53.7901   8.5104135271e+01   6.1650660538e+01     1.205735     0.421974 -48.63  0.004364945    2.595    0.615
       230 -11.2410     56.0717     33.4618   7.5661372812e+01   6.5577320429e+01    0.7199771    0.4314106  56.67 0.0009826446    2.297    0.565
       231 -11.1473     50.3420     27.6396   7.5553638258e+01   6.7649526544e+01    0.6408385    0.4441299  72.38   0.00289087    2.684    0.627
       232  -8.7500    192.4718    248.4669   8.8432817207e+01   8.7858310819e-01    0.1079405   0.07901292  16.17 9.867543e-05    1.005    0.005
       233 -10.1304    163.5493    246.3583   9.3253645400e+01   4.6587463055e+00    0.2190815    0.1121372  29.59 0.0008755719    1.535    0.349
       234  -8.5898      1.4418    244.0737   1.2387787813e+02   2.3385801356e+01     0.135614    0.0824004  81.49 0.0003909392    1.521    0.343
       235  -9.6124    202.8224    242.1896   8.5862625861e+01   3.6036772245e-01    0.1538278    0.1158257  19.96 0.0004795916    1.138    0.121
       236 -10.3203     71.3889     51.5810   7.6919987265e+01   5.9198412617e+01    0.3828477    0.3082049 -17.02  0.000746406    1.391    0.281
       237  -8.9211    189.2774    240.2147   8.7915563603e+01   2.2243790141e+00     0.167527    0.0675318  39.81 0.0008725476    2.365    0.577
       238 -11.4423     67.7362     46.7678   7.6453041039e+01   6.0865751050e+01    0.7312243    0.4688795 -30.34  0.001471961    1.702    0.412
       239 -12.7732     61.8745     44.2052   7.7881528997e+01   6.2447729033e+01    0.4208388    0.3056137 -43.05 0.0005437461    1.308    0.235
       240 -11.4426     24.6058     30.8524   9.1797610413e+01   7.0583491118e+01    0.4798799    0.3284025  24.38  0.001342216    1.586    0.369
       241 -11.4797     19.3005     29.2561   9.4538732651e+01   7.1457493177e+01    0.4821078    0.3476561 -68.34 0.0003117079    1.510    0.338
       242  -9.7489    151.8763     60.1776   5.6970121823e+01   3.9201392557e+01    0.3174514    0.2068721  54.28 0.0008570038    1.571    0.364
       243  -9.6431    128.1884     57.3850   6.1230816563e+01   4.5496659997e+01    0.2778928     0.219156  84.21 0.0008310138    1.490    0.329
       244 -10.0754    133.0398     58.3303   6.0407645965e+01   4.4146561807e+01    0.4349323    0.3015765  32.16  0.001115514    1.768    0.434
       245 -10.0383    136.5155     56.3931   5.8948977237e+01   4.3624384220e+01    0.3812899    0.2835862 -26.45  0.001053026    1.416    0.294
       246  -9.2137     15.8031     59.9702   1.0595573028e+02   6.4479132891e+01    0.1927351    0.1680248 -67.52 0.0007303933    1.041    0.040
       247  -8.9258    180.3980     58.7345   5.1515375147e+01   3.2503497458e+01    0.1965038    0.1358237 -22.38 0.0003844235    1.534    0.348
       248 -10.0305    105.3386     57.8106   6.7538151699e+01   5.0831140293e+01     0.307725    0.2527612 -28.17   0.00030042    1.262    0.208
       249  -8.5228     48.5775     57.5501   8.9081129458e+01   6.1634379140e+01    0.2387587    0.1771238 -26.25 0.0005828204    1.496    0.332
       250  -9.5509     45.5037     55.0548   8.9673961193e+01   6.2637121642e+01    0.3085782      0.20998  31.89 0.0007983685    1.587    0.370
       251  -8.9944     42.5874     44.6693   8.7282956616e+01   6.5384716996e+01     0.205557    0.2039091 -12.49  0.001276693    1.121    0.108
       252  -9.9979     46.6347     47.6516   8.6413921902e+01   6.4159287818e+01    0.3468337    0.2870746   8.99 0.0005851994    1.326    0.246
       253 -10.0596     42.2294     50.2904   8.9589991836e+01   6.4170598780e+01    0.5855474    0.1510811 -53.03   0.00189649    3.297    0.697
       254  -9.9478     38.3972     46.5613   9.0179086331e+01   6.5511845114e+01    0.4093767    0.3182727  55.68  0.002144363    1.595    0.373
       255  -9.0515    208.3762     57.1189   4.7211719403e+01   2.6317252408e+01    0.2080364    0.1811494  52.22  0.000554526    1.309    0.236
       256  -9.2544    111.3263     56.5086   6.5321888304e+01   4.9691643322e+01    0.2463424    0.2250042 -54.78 0.0003664691    1.103    0.093
       257 -10.2532    126.3741     38.8308   5.4855735366e+01   4.8963926635e+01    0.4859094    0.3557709 -56.26  0.001083524    1.477    0.323
       258  -8.6660    133.7815     29.9064   4.9933503952e+01   4.8321132184e+01    0.5365309    0.3391196  -1.09  0.002262219    2.254    0.556
       259  -9.0533    122.5086     33.5927   5.3682306960e+01   5.0703991410e+01    0.2356121    0.1771001  52.58 8.774208e-05    1.318    0.241
       260 -10.2589    123.9972     30.2978   5.2054989042e+01   5.0781835892e+01    0.8720548     0.473559 -89.69  0.003096177    3.100    0.677
       261 -11.0752    118.0350     52.5398   6.2036853382e+01   4.8809321320e+01    0.4603284    0.2910445 -34.27 0.0003992696    1.583    0.368
       262 -10.4173    124.2378     51.6625   6.0146825235e+01   4.7450508173e+01    0.6540768    0.2935502  48.36  0.002444293    2.272    0.560
       263 -10.5103    136.0161     36.6527   5.2018798155e+01   4.6825682827e+01     0.552467    0.3026698 -53.27 0.0008575428    2.096    0.523
       264 -10.2932    132.0151     35.9966   5.2579477292e+01   4.7941854853e+01    0.3141654    0.2414169 -76.89 0.0003171656    1.483    0.326
       265  -9.6647    127.7275     48.0151   5.7981290342e+01   4.7194113122e+01     0.227298     0.216238 -81.30 0.0003235016    1.060    0.057
       266 -10.9786    125.0907     45.9542   5.7836703677e+01   4.8183124031e+01    0.5743784    0.4316849   7.15  0.001228472    1.756    0.431
       267  -9.6709    191.5162     54.2334   4.8599472861e+01   3.0543788356e+01    0.2736395    0.2330276 -29.74 0.0007633213    1.142    0.124
       268  -8.9383     98.5317     54.9142   6.8538683115e+01   5.2921023950e+01    0.2241084    0.1460874 -40.32 0.0004830972    1.502    0.334
       269  -9.4801     94.1115     54.0606   6.9632728768e+01   5.4062125219e+01    0.4033402    0.2775365 -11.65 0.0009545812    2.069    0.517
       270  -9.4389    151.0652     54.1781   5.5175343655e+01   4.0375902344e+01     0.280763    0.2262816  45.38  0.001120517    1.325    0.245
       271  -9.3852    146.4997     53.5044   5.5851456342e+01   4.1621233762e+01    0.3617715    0.2436091  79.02    0.0016039    1.788    0.441
       272 -10.6362     31.5637     52.8982   9.5919516732e+01   6.4830154030e+01    0.5988393    0.2651362  32.93  0.002252072    2.407    0.585
       273  -8.8044    106.8449     52.8859   6.5247879653e+01   5.1403527014e+01    0.2193371    0.2002901  16.25 0.0002797365    1.182    0.154
       274  -9.9948     82.8917     52.1452   7.2752896781e+01   5.6819748572e+01    0.3858677    0.2786185 -52.78  0.001111936    1.452    0.311
       275  -7.9921    212.4976     51.5310   4.5249818877e+01   2.6170745159e+01    0.1361301    0.1192312 -42.98 1.717488e-05    1.018    0.018
       276 -10.3657    154.0759     48.8387   5.2848043195e+01   4.0451645103e+01    0.4914947    0.3241782  66.72  0.002148164    1.583    0.368
       277 -10.0345    181.0836     48.1125   4.8275016180e+01   3.3885042360e+01    0.4737794    0.2116915 -49.72  0.001731694    2.352    0.575
       278 -10.3521    114.5539     46.2089   6.0553559025e+01   5.0734667965e+01    0.4025729    0.2663142 -28.72  0.001478373    1.580    0.367
       279  -8.8374    112.9369     41.3093   5.9053985138e+01   5.1929590043e+01    0.2022731    0.1876224  51.17 0.0002553879    1.080    0.074
       280  -9.2733     96.7394     49.0134   6.6802614758e+01   5.4428960901e+01    0.4246381    0.1820684  50.92  0.001557136    2.372    0.578
       281  -9.9923     93.9867     45.0383   6.6067188234e+01   5.5768326697e+01    0.3230131    0.2234126 -36.04 0.0003260676    1.430    0.301
       282 -10.3633     90.2489     39.4512   6.4917947737e+01   5.7585981200e+01    0.5486515    0.4474227 -53.20  0.002848681    1.322    0.244
       283  -9.9241     86.1011     34.1828   6.3956133505e+01   5.9398262476e+01    0.6384678    0.3761875 -48.19  0.002812049    1.880    0.468
       284 -10.7055     78.0218     34.1019   6.6771325172e+01   6.1176370519e+01    0.5341634    0.3967488  39.99  0.001343857    1.362    0.266
       285 -10.1103     71.2056     30.0796   6.7452401217e+01   6.3282328457e+01    0.2592019     0.239219  30.35 0.0004867295    1.081    0.075
       286 -10.1088     75.0093     27.1866   6.4559594299e+01   6.2953180964e+01    0.3939751    0.3112462 -63.65  0.002044341    1.608    0.378
       287  -9.4557     88.5294     48.5221   6.9308693547e+01   5.6333342466e+01    0.3179909    0.2456266  81.21  0.001510116    1.734    0.423
       288 -10.4311     17.6759     47.0335   1.0169542852e+02   6.7510939626e+01    0.3591413    0.3203962 -52.25  0.002287876    1.038    0.037
       289  -9.7688     25.1150     47.7285   9.7736734744e+01   6.6705221536e+01    0.2856307    0.2189871 -68.01 0.0002554945    1.274    0.215
       290  -9.1373     27.2221     44.1005   9.5356706885e+01   6.7347534889e+01     0.229337    0.1537202 -46.37 0.0003193143    1.312    0.238
       291  -8.4845    224.5274     48.5550   4.3200445986e+01   2.3980161805e+01    0.1313031    0.1133771 -40.76 0.0002112042    1.038    0.036
       292  -9.1362     79.2541     47.8659   7.2361068859e+01   5.8405520550e+01    0.3616312    0.1545689 -50.27   0.00099887    2.655    0.623
       293  -9.9835     31.9358     47.8250   9.4053881176e+01   6.5984323434e+01    0.2084403    0.1944687  -2.04 0.0006455845    1.145    0.126
       294  -8.6340    234.7946     46.8778   4.1800372158e+01   2.2078928797e+01    0.1763222    0.1225974 -51.64 0.0002376594    1.291    0.225
       295  -9.2103    165.4200     45.8416   4.9938476044e+01   3.8053608348e+01    0.3659264    0.1650632  45.60  0.001365619    2.639    0.621
       296  -8.8694     82.1878     44.1890   6.9739687289e+01   5.8497756727e+01    0.3776355    0.2276359 -54.05  0.001621512    1.956    0.489
       297 -10.0464    243.9931     43.9938   4.0307500492e+01   2.0609301486e+01    0.2981533    0.2403556  72.88  0.001087238    1.460    0.315
       298  -8.5889    139.3215     45.2887   5.4473535385e+01   4.4712801861e+01    0.1510499    0.1149846  26.93 0.0002496719    1.602    0.376
       299 -12.1535    104.1300     39.2985   6.0621715623e+01   5.4384702088e+01    0.5737244    0.4478232 -37.80 0.0006649147    1.273    0.215
       300  -8.9818    246.9757    239.4778   7.8474459540e+01  -4.3014085966e+00    0.1188739   0.07965767  42.80 0.0008098303    2.513    0.602
       301  -9.5937    221.3139    237.5605   8.2184003948e+01  -1.2886684934e+00    0.1726608     0.100959  -5.90 0.0008158982    1.671    0.402
       302  -9.0620    168.2978    237.6329   9.1323119426e+01   5.1822857514e+00    0.1030041   0.08150119  53.20 0.0007031526    1.728    0.421
       303 -11.5738    114.2375     32.3509   5.5097910754e+01   5.2965262586e+01    0.4843986    0.3953051 -69.46 0.0009802046    1.378    0.274
       304  -8.3311    140.2968    236.7044   9.6459403461e+01   8.9395574272e+00    0.1087232   0.07705106  51.04 0.0004718248    1.566    0.362
       305  -9.3382    175.5760     43.9460   4.7804126595e+01   3.5806359966e+01    0.2865193    0.1698596 -42.95   0.00131722    1.559    0.359
       306  -9.0611    150.1321     43.8638   5.1896422960e+01   4.2187252856e+01    0.2737669    0.2201986  25.71 0.0009010117    1.491    0.329
       307  -9.1987    133.6362     44.6186   5.5422817732e+01   4.6251684058e+01     0.362515    0.1512272  65.73  0.001244444    2.789    0.641
       308  -8.8875     32.5355     42.5034   9.1809001805e+01   6.7135902975e+01     0.269925    0.2162584 -53.13  0.001559705    1.147    0.128
       309 -11.8533     41.2430     38.3558   8.5383724561e+01   6.6935917705e+01     0.543058    0.3317613  -5.61  0.000656289    2.601    0.615
       310 -10.8821    228.5029     38.4210   4.0285570816e+01   2.4403886258e+01     0.430444    0.2134139 -43.87 0.0007752121    1.671    0.401
       311 -10.2903    190.8338     40.3852   4.4721805271e+01   3.2593233867e+01    0.2808698    0.2198106 -23.57 0.0003221733    1.309    0.236
       312  -9.8855    186.1737     36.5682   4.4175363499e+01   3.4202500006e+01    0.3403764    0.2408013 -72.65  0.001225877    1.509    0.337
       313  -9.1059    222.8103     39.8784   4.1169029905e+01   2.5429155112e+01    0.2403427    0.1869283  24.85  0.001361958    1.727    0.421
       314  -9.2013     24.6549     39.0915   9.5046590727e+01   6.8752987854e+01    0.3222767    0.1608119 -39.76  0.001092762    1.942    0.485
       315  -9.5754    238.3160     38.0252   3.9357323266e+01   2.2441436869e+01    0.2744946    0.2082576  -0.81 0.0009999942    1.697    0.411
       316 -10.3567    178.3706     37.1983   4.5354807430e+01   3.6023718099e+01    0.5941085    0.3092819 -88.76  0.002323245    2.699    0.630
       317  -8.9898    157.8228     38.5315   4.8780825548e+01   4.0990838572e+01    0.2439074    0.1609484 -36.23 0.0005348045    1.442    0.306
       318  -8.7960    120.4986     38.5534   5.6093025580e+01   5.0484295132e+01    0.2698344    0.1232509 -43.00   0.00101946    2.219    0.549
       319  -8.7731     82.5188     38.5392   6.7161569746e+01   5.9447269845e+01    0.2263931    0.1821975 -44.36 0.0007602659    1.259    0.206
       320  -8.8888     32.0183    232.5199   1.1769931236e+02   2.2590218744e+01    0.1599842   0.08631416  35.66 -3.112852e-07    1.511    0.338
       321  -8.5544     94.8370     35.7768   6.1856824968e+01   5.7145438256e+01       0.2071    0.1699377 -59.15  0.001059809    1.371    0.270
       322  -8.8153    143.7852     35.2027   5.0027307196e+01   4.5034507722e+01    0.2628718    0.2018305 -15.39 0.0004679995    1.457    0.314
       323  -9.7681    141.7649     32.3976   4.9381446624e+01   4.5932630476e+01    0.3721976    0.2466424  45.20  0.001737412    1.625    0.385
       324  -9.5749    146.1110     29.1506   4.7463417805e+01   4.5233324485e+01    0.4228654    0.2618161  64.47  0.001226747    1.585    0.369
       325  -8.7084     47.0386     34.7014   8.0702666038e+01   6.6834713319e+01    0.1864298    0.1656525   0.75 0.0004775906    1.129    0.114
       326  -9.5735    222.9911     34.2013   3.9708104332e+01   2.6075084632e+01    0.2428499    0.1565202  79.23  0.001327902    1.727    0.421
       327  -9.6285    233.5384     31.0567   3.8051667791e+01   2.4224689144e+01    0.2993432    0.2280621  62.27  0.001857385    1.543    0.352
       328 -10.1936    186.7382     31.1449   4.2505279535e+01   3.4743216128e+01     0.587458    0.3061589  41.81  0.002074857    2.575    0.612
       329  -9.7996    182.8004     28.3547   4.2124832425e+01   3.6040078632e+01    0.3109007    0.2068536  60.37   0.00148135    1.569    0.362
       330  -9.6762    154.8248     31.2812   4.6809721210e+01   4.2717524465e+01    0.4365303    0.1864981  50.80  0.001093779    2.453    0.592
       331  -9.4680    248.0248     30.6629   3.6890060169e+01   2.1374954520e+01    0.2062785    0.1782859 -47.20  0.001429531    1.096    0.088
       332  -9.1510    185.5397     43.8238   4.6395495657e+01   3.3402432940e+01    0.2540965     0.196917  71.71 0.0008293791    1.356    0.262
       333  -9.4511    225.9339     16.6762   3.5057449676e+01   2.7411290859e+01    0.2394086    0.1522072 -37.81 0.0006323688    1.304    0.233
       334  -8.9975    208.0472     16.7545   3.6392163986e+01   3.1360124678e+01    0.2444354    0.1689557 -46.86 0.0008970308    1.236    0.191
       335  -9.6586    186.5797    231.2591   8.7187956858e+01   3.6602978984e+00    0.1443443   0.09475732 -19.11 0.0009450477    1.621    0.383
       336  -9.0920    162.4048    225.2619   9.0817522957e+01   7.6383338663e+00     0.252526    0.1972319  80.81  0.001546901    2.405    0.584
       337  -8.9787    223.6805    225.1097   8.0000539454e+01  -1.9815174946e-01    0.1740374    0.1200618  24.65 0.0006493479    1.281    0.219
       338  -8.3831    195.6798     28.8764   4.0873740373e+01   3.2874938338e+01    0.1991685    0.1020335 -38.97 0.0005386695    1.685    0.407
       339  -8.2999    162.0351     36.2044   4.7351328937e+01   4.0236498190e+01    0.1930303    0.1136064  66.47 0.0008592682    1.718    0.418
       340 -10.2360    164.4001     26.5037   4.3827008564e+01   4.0862843004e+01    0.4574641    0.2837698  60.47  0.001881714    1.613    0.380
       341  -8.8034    131.9900    225.3163   9.6760381534e+01   1.1753235900e+01      0.16739    0.1274574  32.36 0.0004579067    1.068    0.064
       342  -9.8804    179.6151     13.1451   3.7842502409e+01   3.8522238847e+01     0.394531      0.17215  75.23  0.001146243    2.300    0.565
       343  -8.1029      1.7210    224.3049   1.2337342288e+02   2.6858706920e+01    0.1137592   0.05314788  56.65 0.0001980577    1.551    0.355
       344  -8.8760    207.9910     26.4886   3.9022071881e+01   3.0294704781e+01    0.1831122    0.1277543  76.41 0.0003979506    1.516    0.340
       345 -11.7997      2.0401     25.1927   1.0504988179e+02   7.3594857695e+01    0.2608601    0.1674721 -63.73 0.0005447909    1.342    0.255
       346 -10.6309    172.0053     23.3501   4.1845282956e+01   3.9309800651e+01    0.5857678    0.3256272  61.33  0.002113542    1.797    0.444
       347  -9.6576    231.6163     23.5252   3.6353373453e+01   2.5470533378e+01    0.3677272    0.1707415 -69.27  0.001661251    2.592    0.614
       348 -10.6079    153.7225     22.9473   4.4104896221e+01   4.4022230218e+01    0.2599883     0.247371  59.97 0.0003301419    1.109    0.098
       349  -9.1292    196.4805    222.5291   8.4205120165e+01   3.4895881118e+00     0.114974   0.08839536  11.59 -2.10336e-05    1.019    0.019
       350  -9.1792     88.7276    221.0085   1.0522426730e+02   1.8203290477e+01    0.2083746    0.1461558  36.58 0.0005620991    1.188    0.159
       351  -9.0102    203.1648    217.8367   8.2344497068e+01   3.2159238911e+00    0.1563537    0.1282352  13.35 0.0002634885    1.134    0.118
       352  -8.9996    124.5092     23.4722   4.9223337000e+01   5.1534117367e+01    0.2667271    0.1942792 -77.25  0.001012783    1.593    0.372
       353  -8.0354    145.4822    210.4532   9.2137704397e+01   1.2229439149e+01    0.1228137    0.1031263  29.29 0.0001179619    1.036    0.035
       354  -9.1238    230.9956    209.1872   7.6366604765e+01   7.4096826392e-01    0.1687966    0.1148422   5.46   0.00040903    1.216    0.178
       355  -8.9123    194.9541    209.3606   8.2494649184e+01   5.4086348258e+00    0.2000804   0.08120953  19.56 0.0007042501    4.486    0.777
       356  -8.9278     35.2486    201.3938   1.1539140065e+02   2.8219762087e+01    0.1689244   0.08660484  42.09 0.0009410817    1.564    0.361
       357  -8.4877    120.3991    199.2565   9.5917325974e+01   1.7794848279e+01     0.151804     0.123035 -78.66 0.0005499866    1.536    0.349
       358 -10.2606    244.0491     21.2913   3.4978637175e+01   2.3184139112e+01    0.3201262    0.2523074   2.07  0.002026989    1.680    0.405
       359 -10.1747    206.8288     22.5351   3.8054851025e+01   3.1008013897e+01    0.3591922    0.2324015  86.40  0.001920401    1.633    0.388
       360  -9.6315    189.0863     22.0007   3.9559368659e+01   3.5246984232e+01    0.3411075    0.2406569   8.33  0.001709861    1.966    0.491
       361  -8.5207     85.8351     23.1425   5.8820390787e+01   6.1140767969e+01    0.1915397    0.1588774   3.60 0.0005758142    1.297    0.229
       362  -8.5110     80.0029     22.7846   6.0565937521e+01   6.2521149743e+01    0.2074595    0.1454134 -48.95  0.001018482    1.616    0.381
       363  -9.7294    131.9460     21.3218   4.6978024965e+01   4.9867541274e+01    0.3462373    0.2612602 -87.19  0.001749885    1.426    0.299
       364  -8.1116     10.6438     22.3161   9.7643656916e+01   7.3696841313e+01    0.1201892   0.09465519  64.46 0.0007045087    1.747    0.428
       365  -9.1547      7.4160    194.9544   1.2130417445e+02   3.2136001967e+01    0.3341028   0.03489147  41.99  0.001314163    3.540    0.718
       366  -8.8674      5.7333    182.9442   1.2123711116e+02   3.4820870246e+01    0.1610399    0.1214442  71.69 0.0002937986    1.063    0.059
       367  -9.8663     93.0804     20.2545   5.5245825006e+01   5.9820978936e+01     0.386389    0.1979504  53.81  0.001672299    1.845    0.458
       368  -9.1078     55.1958    181.1858   1.0914557597e+02   3.0316924285e+01     0.174632    0.1650535  71.63 0.0004737618    1.153    0.133
       369  -9.7727      7.1824    174.6875   1.2055493278e+02   3.6519658125e+01    0.2000663    0.1162855  50.86 0.0009734256    1.417    0.294
       370 -10.1369    232.9676     18.3196   3.4989475720e+01   2.5753033617e+01    0.3348998    0.2193683 -62.27  0.001781824    1.406    0.289
       371  -9.4143     17.7037    174.5711   1.1796744007e+02   3.5668200518e+01     0.209336    0.1175388  20.78 0.0009015826    2.059    0.514
       372 -10.4022      6.8141    166.9149   1.2030010435e+02   3.8301669660e+01    0.2831557    0.1973145 -10.20  0.001656289    2.199    0.545
       373 -10.6516     14.4679    166.5339   1.1833608673e+02   3.7774266739e+01     0.208374    0.1848277 -81.12 0.0007222572    1.230    0.187
       374  -8.9150     31.9734    165.5334   1.1372419086e+02   3.6407554865e+01    0.1774708    0.1165489  33.66 0.0003625726    1.499    0.333
       375 -11.6695     37.4708    159.5520   1.1175232063e+02   3.7256883769e+01    0.6526256    0.3435282  53.06  0.002741919    1.747    0.427
       376 -12.1250     30.5551    154.8989   1.1324110067e+02   3.9065130534e+01    0.6461957    0.4156833  60.17  0.002460449    1.408    0.290
       377 -10.5672     24.5831    162.8390   1.1547140588e+02   3.7744487107e+01    0.2337993    0.1814959  49.87 0.0002237391    1.177    0.151
       378 -10.7456      4.5741    146.9771   1.1991410720e+02   4.3140582623e+01    0.3906237    0.2343401  78.14  0.001290201    1.417    0.294
       379 -10.3977      2.2373    157.0119   1.2103011048e+02   4.0926809113e+01    0.3234776    0.1861786 -85.60  0.001845601    1.502    0.334
       380 -10.1850      2.1468    153.1550   1.2087995238e+02   4.1838388634e+01    0.4010217    0.1724245  69.98  0.001306963    2.086    0.521
       381  -9.7998    249.0512    153.6978   6.3762668570e+01   5.2375726928e+00    0.1669688    0.1335166  -1.65 0.0004649097    1.102    0.093
       382  -9.0970    139.1596     13.9258   4.2969512851e+01   4.8809178112e+01    0.2190646    0.1790022 -65.34 0.0004441488    1.229    0.187
       383  -9.5147     45.9488    151.3726   1.0858444430e+02   3.8304801079e+01     0.221143    0.1732134 -75.26 0.0003029724    1.223    0.182
       384 -10.1258     19.9928    151.6819   1.1591866654e+02   4.0807093776e+01    0.2088998     0.166161 -66.81 0.0007848893    1.314    0.239
       385 -10.9841     12.0222    151.0430   1.1808338381e+02   4.1614402871e+01    0.3539692    0.2724092   8.50  0.002184348    1.680    0.405
       386  -9.1263    230.0299    147.9747   6.5456314220e+01   8.8385169906e+00     0.198423    0.1333786   1.51 0.0005245151    1.617    0.382
       387 -10.2084     12.9858    145.0197   1.1742939247e+02   4.2995580139e+01    0.3188563    0.1715477 -84.81  0.001654723    1.632    0.387
       388 -10.7740     19.4499    141.2250   1.1528169177e+02   4.3406502053e+01    0.5206149    0.2449773  20.78  0.002236855    2.440    0.590
       389  -9.6409     54.1794    145.9732   1.0558390018e+02   3.8658943278e+01    0.2118811    0.1866486  47.10 0.0002666193    1.140    0.123
       390  -8.5270    200.5720     13.5221   3.6104937212e+01   3.3428654765e+01    0.1331229    0.1133614 -55.00 2.595072e-05    1.012    0.012
       391  -8.8623     40.7032    145.7028   1.0947497009e+02   4.0270298731e+01    0.1277632   0.09880912 -42.49 0.0001729597    1.569    0.363
       392  -9.1187      5.9923    141.3264   1.1920144620e+02   4.4409461643e+01    0.1744723    0.1502534  56.11  0.001156959    1.160    0.138
       393 -11.1082      2.5298    134.3627   1.1981322087e+02   4.6345535606e+01    0.5601961    0.2369937 -78.67  0.002654078    1.995    0.499
       394  -9.3085    230.4979    136.9537   6.3120314386e+01   1.0333920605e+01    0.1909052    0.1083436 -31.04 0.0004997908    1.518    0.341
       395 -10.1005     34.1874    136.7590   1.1044996560e+02   4.3172545097e+01    0.3422883    0.2023348  35.22  0.001217983    1.679    0.404
       396  -8.3723     74.9686    135.7557   9.7947926897e+01   3.8383018151e+01     0.267281    0.1345082 -34.54  0.000912567    3.550    0.718
       397 -10.3853     14.8236    135.4273   1.1620517720e+02   4.5217200484e+01    0.2583613    0.2164481 -47.53  0.001617639    1.408    0.290
       398  -9.0747    248.6219    134.1325   5.9929721817e+01   7.8797156375e+00    0.1793776    0.0960953 -21.90 0.0004547815    1.713    0.416
       399 -11.2525     43.2258    131.1487   1.0698543128e+02   4.3641223573e+01    0.6217068    0.3880565 -48.43  0.001927068    1.771    0.435
       400 -11.6710     28.6844    131.9926   1.1164095404e+02   4.4904410196e+01    0.2456284    0.2120283  71.86 0.0003032012    1.059    0.056
       401  -8.4615     23.5021    133.4542   1.1339175050e+02   4.5000435578e+01    0.1317727    0.1144058  88.05 0.0001074392    1.043    0.041
       402  -9.7567     61.8961    131.2888   1.0117604428e+02   4.1327315919e+01    0.2635165    0.2099171  82.93  0.000545512    1.245    0.197
       403 -10.6801     10.1708    130.9108   1.1728396695e+02   4.6688944499e+01    0.3730257    0.2073665 -56.05  0.001517012    1.858    0.462
       404 -10.5860     12.6979    127.3000   1.1622302815e+02   4.7414261915e+01    0.2814611    0.1624044  44.39  0.001489319    1.670    0.401
       405  -9.4635     20.5302    130.8712   1.1407438091e+02   4.5903580374e+01     0.238261    0.1105495 -72.89 0.0007066583    1.876    0.467
       406 -10.2556     34.0873    127.8665   1.0947498433e+02   4.5435401413e+01    0.3489012    0.2039384 -72.94  0.001065924    1.542    0.352
       407  -9.7531     32.5965    122.8149   1.0934898227e+02   4.6875532151e+01    0.3165748    0.2115182 -80.32  0.001204918    1.354    0.262
       408  -8.5160    232.9828    128.4878   6.0961288487e+01   1.1141287016e+01    0.1709638   0.09866326  20.14 0.0008077554    2.402    0.584
       409  -8.8754     88.5081    127.8370   9.2469819995e+01   3.8210475676e+01    0.2122425    0.1927394  46.42 0.0005092224    1.105    0.095
       410  -8.8845     59.8965    125.5306   1.0086987750e+02   4.3046718661e+01    0.1978081    0.1401239  32.64 0.0003806218    1.482    0.325
       411  -9.6653     72.4269    123.4417   9.6531018614e+01   4.1814182979e+01    0.4246002    0.2905028 -15.18  0.001424443    2.345    0.574
       412  -9.7963     71.9075    118.1796   9.5686190951e+01   4.3212115734e+01     0.383149    0.2265567  67.38  0.001557902    2.294    0.564
       413  -9.0901    236.1019    136.8728   6.2267581536e+01   9.4474067610e+00    0.1805983    0.1564446 -35.04 0.0005192522    1.270    0.213
       414  -8.9686    123.6854    120.9825   8.1080452055e+01   3.3418513652e+01     0.202517    0.1922855 -58.19  0.000484799    1.053    0.050
       415  -8.9652     13.8602    109.8509   1.1426384567e+02   5.1786537161e+01    0.2461393    0.1606742 -83.71 0.0002880267    1.323    0.244
       416 -11.0241     21.1601    119.8457   1.1279737019e+02   4.8659759047e+01    0.5753099    0.2893887  65.28  0.002603823    2.117    0.528
       417 -10.4067     14.3281    113.7385   1.1448791154e+02   5.0752469687e+01    0.4408762     0.195581  45.33  0.001886876    2.225    0.551
       418  -9.7348     93.6895    119.1415   8.9106940665e+01   3.9435715382e+01     0.273161    0.2397109  12.11 0.0008247485    1.328    0.247
       419 -10.4865     42.8296    119.0606   1.0543942104e+02   4.6781335877e+01    0.3083489    0.2393893  56.38 0.0005301957    1.279    0.218
       420  -9.5852     83.6647    117.3002   9.1775850890e+01   4.1582962135e+01    0.2558556    0.2150794  88.69 0.0006248151    1.252    0.201
       421  -8.9943    241.4844    123.4950   5.8689169302e+01   1.0452973769e+01    0.1269272    0.1035684 -22.01 8.469348e-06    1.018    0.018
       422  -9.8612     54.6875    118.0136   1.0130451427e+02   4.5640954339e+01     0.237408    0.2050067  42.09 0.0002218705    1.205    0.170
       423 -10.6332     29.0224    116.8315   1.0980581305e+02   4.8755409715e+01    0.4330203    0.2766969 -82.35  0.001348122    1.425    0.298
       424 -10.7346      3.1027    116.1904   1.1848053936e+02   5.0852252004e+01    0.3832081    0.2489736  66.43  0.002168351    1.414    0.293
       425  -9.8980     48.5535    114.3233   1.0275464677e+02   4.7346998797e+01    0.4457617    0.3256145 -55.64  0.002335235    1.335    0.251
       426  -8.9547     97.3058    114.3625   8.6941792623e+01   3.9940247431e+01     0.155908    0.1182996 -21.20 0.0007038549    1.736    0.424
       427  -9.1185    122.2080    112.3253   7.9368622721e+01   3.5629183631e+01    0.2465215    0.2181864 -56.50 0.0006786733    1.130    0.115
