#   1 NUMBER                 Running object number                                     
#   2 MAG_AUTO               Kron-like elliptical aperture magnitude                    [mag]
#   3 X_IMAGE                Object position along x                                    [pixel]
#   4 Y_IMAGE                Object position along y                                    [pixel]
#   5 X_WORLD                Barycenter position along world x axis                     [deg]
#   6 Y_WORLD                Barycenter position along world y axis                     [deg]
#   7 A_WORLD                Profile RMS along major axis (world units)                 [deg]
#   8 B_WORLD                Profile RMS along minor axis (world units)                 [deg]
#   9 THETA_WORLD            Position angle (CCW/world-x)                               [deg]
#  10 FWHM_WORLD             FWHM assuming a gaussian core                              [deg]
#  11 ELONGATION             A_IMAGE/B_IMAGE                                           
#  12 ELLIPTICITY            1 - B_IMAGE/A_IMAGE                                       
         1 -14.6473    207.5924      5.9608   5.0967995142e+01   3.2190638403e+01     1.758508     1.438402   2.59  0.006858529    1.769    0.435
         2 -13.2899    189.7377     14.6156   5.4391931363e+01   3.5382060067e+01    0.7021175    0.5191188 -28.31  0.002771992    1.474    0.322
         3 -14.0232    171.0748     50.9905   6.6538221966e+01   3.5374910060e+01     1.704927     1.181312  38.34  0.005594799    1.855    0.461
         4 -14.1137    185.3441     36.7979   6.0742026118e+01   3.3844808113e+01    0.9624666    0.8423566 -88.38   0.00356321    1.095    0.087
         5 -13.6795    189.8776     30.4066   5.8548968699e+01   3.3562299852e+01    0.6660689    0.5775971  77.54  0.001205224    1.195    0.163
         6 -12.0699     58.2748      4.1966   7.4045001735e+01   6.9787327798e+01    0.6725551    0.1892153  40.07  0.002024258    4.572    0.781
         7 -11.4537    220.1444     16.8637   5.2747934580e+01   2.8352130966e+01    0.2029579    0.1301652 -58.93 0.0007270448    1.283    0.221
         8 -12.1767    248.2637    248.8141   9.4314053080e+01  -6.3141402065e+00    0.3335675    0.1993344  21.32  0.002551872    1.439    0.305
         9 -17.9259     51.8169    245.5237   1.3242353069e+02   1.7355661389e+01     8.906652     4.924614  18.22   0.04873518    2.010    0.503
        10 -11.1789    154.8578    187.7992   1.0199661434e+02   1.3861593250e+01    0.2950456    0.2353834  55.63  0.001161195    1.564    0.361
        11 -19.1019     24.3248     99.5585   1.2725808625e+02   5.4755203202e+01     19.06409     2.449647 -72.70   0.03991362    8.150    0.877
        12 -12.5197     74.2783    188.4533   1.2216291181e+02   2.6181069643e+01    0.7565156    0.3135695  29.29   0.00306722    2.210    0.547
        13 -12.9067     74.3855    183.0095   1.2149317344e+02   2.7403249492e+01     0.928547    0.5820914  34.16  0.003491364    1.408    0.290
        14 -11.8149    136.5211    185.2233   1.0576882373e+02   1.7308822329e+01    0.2616811    0.1754826  32.71 0.0005778595    1.332    0.249
        15 -11.7881     96.7469    188.7097   1.1623766590e+02   2.2883387851e+01    0.4364254    0.3333077  46.88   0.00105701    1.200    0.167
        16 -10.6818     87.7345    202.6584   1.2029639561e+02   2.1233713918e+01     0.357698     0.290525 -68.69  0.002120169    1.427    0.299
        17 -11.3701     99.3458    180.7655   1.1443546290e+02   2.4216858946e+01    0.2968878    0.2465282  18.68 0.0006340878    1.238    0.192
        18 -10.0598     53.2891    181.3414   1.2716289590e+02   3.0551622779e+01    0.2139165    0.1661614 -40.59 0.0009845081    1.611    0.379
        19 -11.5865    149.2303    180.1449   1.0194629331e+02   1.6191333953e+01    0.2994699    0.2397013 -73.95 0.0008772389    1.778    0.438
        20 -10.7256    204.3964    176.1105   8.9962959137e+01   8.0877887585e+00    0.3953356    0.2006567 -50.77  0.001779078    2.876    0.652
        21  -9.5892    169.4487    178.4451   9.7203063926e+01   1.3172870698e+01     0.133523    0.1192181  11.17 4.433164e-05    1.033    0.032
        22 -10.2445     58.8742    188.2459   1.2630547609e+02   2.8254148932e+01    0.2689303    0.1489626 -44.77  0.001215678    2.382    0.580
        23 -10.6353    164.5659    170.8710   9.6852523043e+01   1.5340037665e+01    0.2263465    0.2053605  47.68 0.0005262176    1.265    0.209
        24  -9.8573    200.9490    168.4905   8.9169864498e+01   9.8008881265e+00    0.2399968    0.2077125  36.93 0.0007946392    1.321    0.243
        25 -10.0482    204.9169    166.8634   8.8149271967e+01   9.4415643027e+00    0.2227534    0.1721776  21.59  0.001363088    1.256    0.204
        26 -11.9948    193.9023    196.1443   9.5422607459e+01   6.5625287172e+00     1.005549    0.5979153 -63.57  0.003691929    5.657    0.823
        27 -11.3575    192.7898    164.9408   9.0004812656e+01   1.1672059728e+01     0.377471    0.2662694 -48.85  0.001493714    1.662    0.398
        28 -11.9517    204.1078    199.8071   9.4154172893e+01   4.6111510356e+00    0.3713791     0.187224  22.52  0.001906802    2.037    0.509
        29 -12.2649     72.3504    211.6030   1.2507865229e+02   2.1448656079e+01     0.247066    0.1874038  48.20  0.000357991    1.128    0.114
        30 -10.9099      5.3275    161.7747   1.3951776310e+02   4.0013690018e+01    0.3542995    0.1884942  17.28  0.001763599    2.051    0.512
        31 -11.2166    189.0818    154.8620   8.8729414321e+01   1.3982097436e+01    0.4272087    0.3591973  47.47  0.002261441    1.367    0.269
        32 -12.4355     99.1677    152.8791   1.0995865191e+02   3.0637118140e+01     0.660471    0.4867737 -26.82  0.003096186    1.736    0.424
        33 -11.6443    133.9321    145.6641   9.9051481697e+01   2.5911097404e+01     1.188139    0.3248807 -54.94  0.002903249    5.962    0.832
        34 -10.2813    113.3280    151.2865   1.0565808719e+02   2.8510086535e+01    0.3056873    0.2109276  73.74    0.0013085    2.074    0.518
        35 -10.7618    174.4686    148.6530   9.0360877869e+01   1.7664310607e+01    0.3062821    0.2716375 -77.69   0.00113474    1.472    0.320
        36 -10.1221    161.2320    148.6788   9.3193626658e+01   2.0107136089e+01    0.3191798    0.2114675  86.54  0.001134931    3.860    0.741
        37 -11.1561    144.0168    146.7523   9.6775753818e+01   2.3752122225e+01    0.4095306     0.260083 -63.97  0.001748991    2.170    0.539
        38 -12.5523     65.3184    199.0994   1.2565962781e+02   2.5005456263e+01    0.4669704     0.265055 -42.47  0.001588637    2.429    0.588
        39 -11.7241    109.4030    138.8904   1.0428552542e+02   3.2101202466e+01    0.6043477    0.3486152 -32.26  0.002314567    2.435    0.589
        40 -12.6389     98.1181    138.5023   1.0753590669e+02   3.4265509540e+01    0.2993124    0.2849079  30.77 0.0004996199    1.064    0.060
        41  -9.1756     90.6700    146.2608   1.1127445918e+02   3.3674975740e+01    0.1564021    0.1095606  59.97 0.0002798275    1.567    0.362
        42 -11.4909    105.9651    130.7246   1.0355073931e+02   3.4677877328e+01    0.4141508    0.3573407 -80.86  0.001158409    1.283    0.220
        43 -11.5018    103.9802    125.5968   1.0300682954e+02   3.6279727179e+01    0.3138943    0.2699345   5.57 0.0007379989    1.360    0.265
        44 -10.7738    135.6187    127.6617   9.4644857878e+01   2.9451023353e+01    0.5354412    0.1478734 -49.36  0.001514293    3.961    0.748
        45 -10.8527    116.0901    129.4858   1.0033170381e+02   3.2998260784e+01    0.3154862    0.2745392  -3.70 0.0007263913    1.338    0.253
        46 -10.3640    160.7881    127.6592   8.8671479724e+01   2.4280037614e+01    0.3122372    0.2032339 -51.94  0.001431981    1.667    0.400
        47 -10.0517    120.4827    123.9693   9.7821417040e+01   3.3374335170e+01    0.2354041    0.1537815 -46.51 0.0007906777    1.582    0.368
        48  -9.9830    135.0000    119.9237   9.2959892126e+01   3.1241475311e+01    0.2523025    0.0878931 -45.92 0.0008003702    2.928    0.658
        49 -10.1249    111.0144    118.8231   9.9313948292e+01   3.6484806904e+01     0.229216    0.2172443  49.60 0.0004291426    1.019    0.019
        50 -10.3247    168.0413    112.7821   8.3598023043e+01   2.5618445603e+01    0.3274811    0.2381228 -71.64  0.001064722    1.862    0.463
        51 -11.0322    118.7770    110.0738   9.4873049858e+01   3.6864172214e+01    0.5587296    0.2941635  56.83   0.00203587    2.316    0.568
        52 -10.5598    205.4482    110.0582   7.6235168349e+01   1.8515379064e+01    0.2692544    0.2034651  42.42 0.0008856928    1.464    0.317
        53 -10.1849    134.5184    104.5136   8.9163014000e+01   3.4615377578e+01    0.3362377    0.1530645 -44.24  0.001227915    2.227    0.551
        54 -11.4358     76.2774    207.1762   1.2366728657e+02   2.1852323002e+01    0.4276512    0.2566455 -52.69  0.001911121    1.985    0.496
        55  -9.6752    128.6077     95.2763   8.8176623750e+01   3.7883141293e+01    0.2809843     0.183394  59.25 0.0007783569    1.651    0.394
        56  -9.2077     73.5315     73.4725   9.9514844883e+01   5.4593877180e+01    0.1507391     0.147595  44.47 9.530832e-05    1.012    0.012
        57 -12.1736    167.6841     67.5194   7.1756773897e+01   3.3679065445e+01     1.368493    0.6010293 -61.25  0.003765443    4.441    0.775
        58  -8.8963     75.2041    200.3595   1.2323336664e+02   2.3437258021e+01    0.1208962   0.09812067 -36.43 0.0001715131    1.549    0.354
        59  -9.9174    168.8967    234.6491   1.0615989042e+02   4.2866443478e+00    0.1779792    0.1385149  -4.97 0.0003379731    1.223    0.182
        60 -11.8915     72.1561    230.2242   1.2677276448e+02   1.7798381138e+01    0.2960411     0.160001  41.96  0.000795893    1.447    0.309
        61 -11.5673    159.4795    197.8303   1.0264640127e+02   1.1375758117e+01    0.3473813    0.2409653   0.30  0.001239107    1.629    0.386
        62 -10.5550     82.0410    195.3459   1.2090769932e+02   2.3583183847e+01    0.3448797    0.3092718  -6.76  0.002073236    1.323    0.244
        63  -8.9730     96.2857     15.6518   6.8120186419e+01   5.9323225801e+01    0.1442721    0.1033277 -66.32 0.0005567779    1.654    0.395
        64 -10.7531    207.5035    193.9532   9.2558973522e+01   4.9897537805e+00    0.1752011    0.1077391 -32.71 0.0005933875    1.555    0.357
        65 -13.0527    150.0775    189.1058   1.0328211849e+02   1.4387726181e+01    0.5930257    0.4540838  76.90  0.002314573    2.152    0.535
