#   1 NUMBER                 Running object number                                     
#   2 MAG_AUTO               Kron-like elliptical aperture magnitude                    [mag]
#   3 X_IMAGE                Object position along x                                    [pixel]
#   4 Y_IMAGE                Object position along y                                    [pixel]
#   5 X_WORLD                Barycenter position along world x axis                     [deg]
#   6 Y_WORLD                Barycenter position along world y axis                     [deg]
#   7 A_WORLD                Profile RMS along major axis (world units)                 [deg]
#   8 B_WORLD                Profile RMS along minor axis (world units)                 [deg]
#   9 THETA_WORLD            Position angle (CCW/world-x)                               [deg]
#  10 FWHM_WORLD             FWHM assuming a gaussian core                              [deg]
#  11 ELONGATION             A_IMAGE/B_IMAGE                                           
#  12 ELLIPTICITY            1 - B_IMAGE/A_IMAGE                                       
         1 -12.9864    220.0842     54.0364   2.8612500813e+01   2.5807574838e+01     1.060438    0.8364463 -68.46  0.007020482    1.067    0.063
         2 -13.0327    238.1192     40.5575   2.4525608189e+01   2.4326415318e+01    0.8752615    0.7075173  59.26  0.006705157    1.629    0.386
         3  -9.9458      2.7448      8.2554   7.4833161328e+01   7.4700864524e+01    0.1841202   0.07303474 -33.87 0.0009017009    2.443    0.591
         4 -10.4434     64.5394    234.9100   9.7495914775e+01   1.5540164434e+01     0.242619    0.1883358 -40.12  0.001087834    1.471    0.320
         5 -10.2366     80.9763    249.3712   9.4934478303e+01   1.0589289769e+01    0.3022899    0.1947325  30.40  0.001160532    1.308    0.235
         6 -11.6789     37.5546    172.5614   9.8225492638e+01   3.3706585054e+01    0.6861802    0.3875858  11.36 0.0008194264    2.017    0.504
         7 -14.9972      9.4988    238.6395   1.1096476636e+02   2.0236645056e+01     9.058491     6.697898 -78.34   0.04490972    1.396    0.284
         8 -10.3649     99.0007    228.2765   8.8062130694e+01   1.2750172297e+01    0.2070635    0.1723935  20.96  0.001185179    1.065    0.061
         9 -13.8943     10.0491    190.9496   1.0797523514e+02   3.1347518821e+01     1.596691    0.9182274  79.38  0.003066608    1.797    0.444
        10 -10.4607     78.8493    206.6813   9.0531225721e+01   2.0252077973e+01    0.3153163    0.2402724 -76.84  0.000495945    1.519    0.342
        11  -8.9664     63.3445    208.6696   9.5005212550e+01   2.1699506389e+01    0.1536712   0.09728683  56.01 0.0007050542    1.754    0.430
        12  -8.4131    197.8809    223.4694   6.4699204324e+01   9.0621562884e-01    0.1675601    0.1112688  21.14 0.0005592616    1.448    0.310
        13 -11.4228     46.3880    166.7751   9.4723865054e+01   3.4314287165e+01      0.35062    0.2862865 -31.21 0.0004450382    1.295    0.228
        14  -8.0671    110.6787    167.3028   7.5186519114e+01   2.5176577482e+01    0.1536521    0.1210654  64.66 0.0005903289    1.631    0.387
        15 -10.4536     59.9214    157.8095   8.9024868024e+01   3.5100295814e+01    0.2930461    0.2631642 -22.97 0.0003837589    1.132    0.117
        16 -12.7516     44.5804    153.7238   9.3454826664e+01   3.7990076868e+01     0.615762     0.371098 -23.54  0.001544053    2.078    0.519
        17 -11.4176     74.1354    137.6233   8.0563610442e+01   3.8435932479e+01    0.4217004    0.3495907 -54.02 0.0003320241    1.209    0.173
        18 -11.5727     68.8071    152.2572   8.5163859598e+01   3.5392147595e+01    0.6701654    0.5206517  40.29   0.00096245    1.317    0.241
        19 -12.6542     68.0793    143.5426   8.3787706806e+01   3.7775713807e+01     1.319335    0.7616643  58.20  0.002774777    2.485    0.598
        20  -9.9619     41.6426    144.5529   9.3056995425e+01   4.0760083125e+01    0.3767595    0.2280491  71.52  0.001266516    2.317    0.568
        21 -11.5676     24.2374    148.3220   9.9572409687e+01   4.1381698453e+01    0.4700994    0.2797695  54.10  0.001095728    1.931    0.482
        22 -13.5740      8.7659    208.0925   1.0944713185e+02   2.7247291210e+01     2.228416     1.404726 -22.27  0.009810694    2.171    0.539
        23  -9.8471     86.9805    140.2970   7.6877377086e+01   3.5753763950e+01    0.3217574    0.3083402  -6.97 0.0008528449    1.001    0.001
        24  -8.8203     91.1154    137.1532   7.4870822321e+01   3.5861496116e+01    0.2419464    0.2025496 -13.98  0.000374995    1.269    0.212
        25  -9.0938    247.6628    134.6562   4.0662577314e+01   9.3962524561e+00    0.1175469    0.0811943 -16.81 -5.462931e-06    1.770    0.435
        26 -10.0513    104.6913    130.1723   6.9049190296e+01   3.5188571404e+01    0.6342422    0.3714401  42.66  0.002344676    1.742    0.426
        27 -10.5174     56.0055    129.0071   8.5174846137e+01   4.3201135000e+01    0.3363008    0.2072864 -59.59  0.001464144    1.603    0.376
        28 -10.8673     66.4138    126.7515   8.0956069356e+01   4.2361464256e+01    0.5524743    0.3011369 -51.03  0.002270998    1.762    0.432
        29 -12.3408      2.5491    196.3576   1.1033683747e+02   3.0552781581e+01    0.3531376    0.2610703 -64.57 0.0008512987    1.343    0.256
        30  -9.8503     88.5253    125.3177   7.3026827624e+01   3.9219211346e+01    0.2858095    0.2611949   5.88 0.0006512331    1.076    0.071
        31  -8.1278    111.3401    124.3084   6.5665630537e+01   3.5325371957e+01    0.1618911    0.1210286  -6.78 0.0006476743    1.687    0.407
        32 -10.8905     52.9239    118.3079   8.4109985316e+01   4.6362098784e+01    0.5014888    0.2925906 -82.81  0.001872275    2.745    0.636
        33  -8.0850     42.6304    116.3230   8.7664679091e+01   4.8107827341e+01    0.1562964    0.1103915  58.14 0.0007034794    1.803    0.445
        34  -9.1859    203.9379    110.9484   4.2227690602e+01   2.0116969288e+01    0.2877274    0.1799277  37.25   0.00149443    2.046    0.511
        35  -9.0230    101.9419    118.1087   6.6981322626e+01   3.8526307305e+01    0.2262078    0.2119084  -0.21 0.0003146392    1.049    0.047
        36 -10.9223    245.4803    107.3178   3.5978495338e+01   1.3938747172e+01    0.2459438    0.1715534 -17.41   0.00149021    1.995    0.499
        37  -9.2530     55.2709    104.5643   8.0063187934e+01   4.9492846207e+01    0.2989181     0.132076  33.60  0.001137118    2.207    0.547
        38 -10.2335    241.5963    101.7710   3.5406679286e+01   1.5364561227e+01    0.1739689   0.08656745 -48.35 0.0008945713    1.657    0.397
        39  -9.1130     34.9704     97.8659   8.6852441863e+01   5.3595978236e+01    0.2091793    0.2017886  -4.95 0.0004872345    1.109    0.099
        40  -7.9898     57.7056     96.3035   7.7003678272e+01   5.1128933636e+01    0.1429608    0.1177919  64.35 0.0003818839    1.577    0.366
        41  -9.5068     41.5416     91.8428   8.2585750366e+01   5.4322479231e+01    0.2775666    0.2021665 -22.48 0.0006865659    1.376    0.273
        42  -9.8679     53.1225     90.5509   7.7337808078e+01   5.3122916278e+01    0.3047697    0.2003668 -41.72  0.001441485    1.478    0.323
        43 -10.1527    167.0253     86.9970   4.3056690326e+01   3.1362878824e+01    0.2159594    0.1729786  11.48  0.001143406    1.743    0.426
        44 -10.5713    107.3493    229.1075   8.6077350292e+01   1.1487297293e+01    0.2571117     0.178719  14.01  0.001335539    1.373    0.272
        45  -9.8019    184.5268     77.1554   3.7851804061e+01   2.9360194241e+01    0.2007802    0.1794953  36.06 0.0006641114    1.367    0.268
        46  -9.8989      4.0146     64.4986   9.3901818324e+01   6.3930202704e+01    0.1945279    0.1197424   8.25  0.001038086    1.610    0.379
        47  -9.2721    134.3349    248.1677   8.2185084398e+01   4.3020032256e+00    0.1642356    0.1258851 -61.78 0.0006912267    1.771    0.435
        48 -14.8294     23.0200    182.2767   1.0360907319e+02   3.2512963352e+01     7.673831     2.740443  84.46   0.02099384    5.590    0.821
        49  -9.9574     13.4629     59.9879   8.7669166563e+01   6.4309648006e+01    0.2392072    0.1817806   7.50 0.0005356176    1.256    0.204
        50  -9.7212     11.6095     53.2061   8.6732114546e+01   6.5886875084e+01    0.1908032   0.09817405 -44.02  0.000850428    1.679    0.404
        51  -7.9886     94.5551     46.5186   4.8042464422e+01   5.3777808858e+01    0.1375574    0.1235954  46.47 5.405597e-05    1.029    0.028
        52  -9.4991      2.2396     23.9882   8.2432897206e+01   7.2197458475e+01    0.1522869   0.09142989 -46.11 0.0008876112    1.630    0.387
