#   1 NUMBER                 Running object number                                     
#   2 MAG_AUTO               Kron-like elliptical aperture magnitude                    [mag]
#   3 X_IMAGE                Object position along x                                    [pixel]
#   4 Y_IMAGE                Object position along y                                    [pixel]
#   5 X_WORLD                Barycenter position along world x axis                     [deg]
#   6 Y_WORLD                Barycenter position along world y axis                     [deg]
#   7 A_WORLD                Profile RMS along major axis (world units)                 [deg]
#   8 B_WORLD                Profile RMS along minor axis (world units)                 [deg]
#   9 THETA_WORLD            Position angle (CCW/world-x)                               [deg]
#  10 FWHM_WORLD             FWHM assuming a gaussian core                              [deg]
#  11 ELONGATION             A_IMAGE/B_IMAGE                                           
#  12 ELLIPTICITY            1 - B_IMAGE/A_IMAGE                                       
         1 -10.6517     54.7123     18.0590   1.0421875181e+02   6.5546902076e+01    0.4749734    0.2762822 -13.22  0.001729877    1.934    0.483
         2 -10.8233     75.0925     56.8899   1.1217676726e+02   5.5849456534e+01     1.716261     1.079208 -70.24  0.007296941    2.922    0.658
         3 -12.2953     88.4076     50.9607   1.0579389139e+02   5.4748884469e+01     2.504718     1.306811 -24.84   0.01031055    2.401    0.584
         4 -12.0373     58.2453     68.8906   1.2151404084e+02   5.5768469447e+01      2.86237    0.7881194 -56.87  0.009266484    3.970    0.748
         5 -12.6104     61.9542      3.9014   9.4573727552e+01   6.6299572198e+01     1.681633    0.4727201  50.25  0.006253651    4.273    0.766
         6 -11.6131     51.6193     34.5743   1.1246747749e+02   6.3285786395e+01     1.195469    0.9473107  -0.76   0.00758243    1.287    0.223
         7 -12.9250     74.6987     31.6721   1.0284662120e+02   6.0374499386e+01     2.650949    0.9715581  45.39   0.01072583    3.040    0.671
         8 -11.4572     74.0705     20.6322   9.8299658009e+01   6.2127017239e+01     2.358306    0.6257493  46.94  0.003658853    4.027    0.752
         9 -10.5442     14.4574     37.2384   1.2853130509e+02   6.6409597762e+01     1.448815    0.3675953 -49.91  0.006476403    2.567    0.610
        10 -12.0217     40.7864     15.9904   1.0897009246e+02   6.7701576292e+01     1.141796     0.579317 -38.63  0.006281196    1.680    0.405
        11 -12.1097     50.6408     10.8710   1.0241685106e+02   6.7151092102e+01    0.4263902    0.2832544  18.88 0.0005635447    1.529    0.346
        12 -12.1619     18.6528     13.8325   1.1807274400e+02   7.0340962346e+01    0.7025713    0.4046074 -43.76  0.004445508    1.399    0.285
        13 -11.1885     24.7334     36.4114   1.2398363889e+02   6.5788018508e+01    0.6973331    0.4021576 -78.41  0.002982111    4.128    0.758
        14 -11.7096     29.3145     26.1410   1.1830180902e+02   6.7265027145e+01     1.394514    0.5132803 -46.36  0.006755673    2.144    0.534
        15 -11.1291     13.3258      8.9194   1.1850508760e+02   7.1590427671e+01    0.3148758    0.2015481   4.06 0.0008499747    1.698    0.411
        16 -11.7584      7.7726     24.5689   1.2737895268e+02   6.9251414342e+01    0.8935868    0.4938418 -43.15  0.005759206    1.328    0.247
        17 -13.0274      4.7329      9.6117   1.2318112324e+02   7.2099046912e+01     1.381316    0.4958741 -42.69  0.007540668    1.960    0.490
        18 -12.3886     26.3333     89.6460   1.3644459589e+02   5.4488483798e+01     2.279001     0.907571 -55.65   0.01133093    1.935    0.483
        19 -10.8767     77.9836      7.1855   9.0754328034e+01   6.3119325679e+01    0.8142292    0.4326485  -1.63  0.003723259    2.365    0.577
        20 -11.4114    123.8593     68.3230   1.0154300501e+02   4.4546111837e+01     1.820423     0.560283 -43.97  0.005675678    3.291    0.696
        21 -12.8583     39.0783     51.1892   1.2306364652e+02   6.1573470960e+01     1.745123     1.120548 -33.75   0.01025905    1.455    0.313
        22 -10.5285    121.7928     38.3255   9.1550546587e+01   5.0031076220e+01     2.051453     1.192746  24.09  0.008427902    2.305    0.566
        23 -12.5161    136.0165      5.3735   7.5798985499e+01   5.0536838167e+01     1.243524    0.6895241  68.14  0.003979962    1.827    0.453
        24 -11.1071    147.5427     26.1415   8.1286935562e+01   4.5459905690e+01    0.7804082    0.5348155  22.75  0.003677865    1.673    0.402
        25 -11.1107    148.6256     16.7205   7.7698365446e+01   4.6258360524e+01     1.003237      0.66901  19.10  0.003937476    1.748    0.428
        26 -12.0812    162.1810     10.5283   7.3263838869e+01   4.3405222350e+01     1.393667     1.051397  16.55  0.007246414    1.486    0.327
        27  -9.8332     93.0197     15.5839   9.0065158159e+01   5.9237688491e+01    0.4544878    0.2455972  38.07 4.400369e-05    1.809    0.447
        28 -11.0774    123.5203     10.0977   8.0121822017e+01   5.3115873638e+01    0.3251081    0.3156491 -33.88 0.0006593202    1.167    0.143
        29 -12.3887    114.5163      8.5844   8.1493614921e+01   5.5362591037e+01     1.659467    0.6468401  45.83  0.005947432    2.308    0.567
        30 -12.8201    112.9277     22.4415   8.7588743939e+01   5.4176567011e+01    0.7423652    0.5402018  61.83 6.926389e-05    1.536    0.349
        31 -12.3721    131.1429     20.0902   8.2406766360e+01   5.0222427573e+01     1.076764    0.4928521  58.04  0.002682545    2.080    0.519
        32 -11.8149    127.7666     15.2858   8.1269007782e+01   5.1567518573e+01     1.560856    0.2701136  48.62  0.004407667    4.481    0.777
        33 -12.1102     93.0328      8.6399   8.6952331154e+01   6.0022069376e+01      1.07171    0.4729983  41.23  0.004785147    2.143    0.533
        34 -12.6273    100.0303      6.2037   8.3983977075e+01   5.8807686538e+01    0.5582144    0.4760388  -9.21 0.0004388643    1.147    0.128
        35 -11.1546     98.4256      1.6456   8.2351345901e+01   5.9585632836e+01    0.4053325    0.1693014  48.41  0.001635076    2.090    0.521
        36 -11.5884    184.5315     26.4173   7.5074036600e+01   3.5834144838e+01    0.7214857    0.4382842  16.52  0.001291598    2.372    0.578
        37 -10.7401    242.8365     19.0290   6.6162809260e+01   2.1894445513e+01    0.8305058    0.3907795  78.40   0.00362775    2.310    0.567
        38 -10.0896    242.6289     12.6127   6.4581226850e+01   2.2650226378e+01    0.4675688    0.2889908 -12.92  0.001498618    1.986    0.497
        39 -11.0135    247.3918      6.2876   6.2642172441e+01   2.2197538950e+01    0.5502167    0.4494475 -64.41  0.003365436    1.091    0.083
        40  -9.8279    236.9404     14.4616   6.5550580207e+01   2.3812338107e+01    0.3856699    0.2253322  80.07  0.001896122    1.750    0.429
        41 -10.2648    233.1212     11.7177   6.5198257664e+01   2.5033994613e+01    0.5038428    0.2734895 -24.72  0.002393925    1.893    0.472
        42  -9.5709    230.0106     20.8584   6.7873692209e+01   2.4793187467e+01     0.549813     0.236826 -50.82  0.002205858    2.424    0.588
        43  -9.6035    231.7744     18.0272   6.6956642116e+01   2.4677500284e+01    0.4297953     0.197407 -47.09  0.001851236    2.086    0.521
        44 -10.1777    221.8310     11.2271   6.6136881439e+01   2.7876531775e+01    0.4223778    0.2197908 -47.65  0.001514051    1.865    0.464
        45  -9.8826    217.1147     14.8092   6.7585332361e+01   2.8684852857e+01    0.4678019    0.2970567 -14.12  0.002261615    1.840    0.457
        46 -10.6162    211.9708     13.9683   6.7901456749e+01   3.0083079478e+01    0.6911456     0.256832 -29.06  0.002695451    2.537    0.606
        47 -10.1703    185.1746     14.6490   7.1316910837e+01   3.6972934435e+01    0.4602327    0.3104483  52.18   0.00215619    1.436    0.304
        48 -10.2306    177.5670     19.7965   7.4007181512e+01   3.8419632038e+01    0.3817922    0.2777527 -44.70  0.001044144    1.430    0.301
        49 -10.2594    178.3077     14.3593   7.2162082630e+01   3.8805563811e+01    0.4659573    0.3041672  79.18  0.001021955    1.590    0.371
        50 -10.5127    202.1651     19.1448   7.0504635316e+01   3.2050001274e+01    0.5027243    0.3815193  38.12     0.001688    1.465    0.318
        51  -8.9560    192.1707     12.2482   6.9688072404e+01   3.5387815909e+01    0.2225318    0.2012767 -37.10 0.0005787726    1.142    0.124
        52 -11.2732    193.5130      5.6342   6.7551995360e+01   3.5689375510e+01     1.113373    0.4231295  53.35  0.002000591    2.469    0.595
        53 -11.9190    204.6545      6.6679   6.6629338897e+01   3.2704670623e+01    0.6705251    0.3770873  59.07  0.001494727    1.685    0.406
        54 -11.3555    209.4907      3.7492   6.5315280455e+01   3.1747989265e+01    0.7007623    0.3385482  89.27  0.002273573    2.395    0.582
        55  -9.5969    230.9816      1.8610   6.2866671991e+01   2.6562467400e+01    0.4494039    0.2412264  46.60  0.002096477    2.218    0.549
        56 -10.4668    225.2862      5.9670   6.4419262650e+01   2.7555051218e+01      0.60122     0.262431 -41.33   0.00171808    2.094    0.523
        57 -11.0361    222.9086      2.0459   6.3604120733e+01   2.8531697450e+01    0.5720406    0.2361622  64.72  0.001077674    2.223    0.550
        58  -8.8973    180.4377      7.9544   6.9847430921e+01   3.8884737557e+01    0.3126202    0.1714286 -33.09  0.001424531    1.838    0.456
        59  -9.5179    173.6804      8.8795   7.1043785756e+01   4.0565492260e+01    0.2470774    0.2174265 -31.73 0.0005976617    1.196    0.164
        60 -10.2357    174.9479      4.4495   6.9447142126e+01   4.0648163716e+01    0.4054655    0.3521523  89.61  0.001294278    1.145    0.126
        61  -8.5844     36.5329      6.4391   1.0619790194e+02   6.9624691598e+01    0.1873235    0.1548128 -23.07 0.0007751568    1.218    0.179
        62  -8.9008     34.9944      3.2166   1.0522538264e+02   7.0256753874e+01    0.2502166    0.1515736  16.86  0.001522663    1.738    0.425
        63 -11.0955     26.4623      4.4181   1.0984048490e+02   7.1061505613e+01    0.5923893    0.2459524 -25.71  0.002830746    2.593    0.614
        64  99.0000     30.3776      5.2991   1.0843403745e+02   7.0506638459e+01    0.2255432    0.1329524 -13.02  0.001171091    1.705    0.414
        65  -8.3985     45.2625      5.4225   1.0188854895e+02   6.8632602712e+01    0.1388211    0.1116949  39.32 0.0007350708    1.592    0.372
        66  -8.7552    241.9217      1.6630   6.1944183374e+01   2.3953364363e+01    0.1859102    0.1520455 -80.99 0.0008744873    1.126    0.112
        67  -8.2428    189.4835      1.4607   6.6762239662e+01   3.7123497845e+01    0.1381713    0.1265551  67.11 0.0001093932    1.052    0.049
        68 -10.5124    124.2612      3.0344   7.7133809097e+01   5.3600734278e+01    0.4062748    0.3022505  39.68  0.001568125    1.220    0.181
        69  -8.0219    149.8931      1.0000   7.1841704066e+01   4.7430656898e+01     0.219642   0.07373828  67.31 0.0004065661    2.762    0.638
        70 -10.7900      4.7331    184.7578   1.5121530669e+02   3.6029852769e+01    0.4591761    0.1819548  47.59    0.0021235    2.159    0.537
        71 -10.1195     11.9038    184.4019   1.4991534893e+02   3.5468349302e+01    0.2608523    0.1405176 -75.46  0.001752193    1.557    0.358
        72  -9.7722     38.6690    177.2521   1.4435153447e+02   3.4234875217e+01    0.2889445    0.1565145 -65.59  0.001236975    1.729    0.422
        73 -11.3865     17.9477    186.3803   1.4895096494e+02   3.4526017502e+01    0.2874518    0.2739285  83.27 0.0005274908    1.515    0.340
        74  -9.3199     63.0240    167.6828   1.3841328286e+02   3.3338059636e+01    0.2283104    0.1624293 -70.96  0.001055486    1.295    0.228
        75  -9.5298      9.0682    167.5935   1.4935140476e+02   3.9040694500e+01    0.2237438     0.167881  71.22   0.00166581    1.156    0.135
        76 -10.1014     92.1772    120.1240   1.2395838357e+02   3.9601027846e+01    0.3270101    0.2635535 -23.58  0.001764101    1.620    0.383
        77 -10.3977    104.9863    119.7445   1.2058670936e+02   3.7528776357e+01    0.2694148    0.2214362  -1.70  0.001403401    1.676    0.403
        78  -9.3244     19.3722    119.0235   1.4265491488e+02   4.8517811707e+01    0.2138263    0.1645185  86.91 0.0009403329    1.151    0.131
        79  -9.8073     40.6695    116.9742   1.3690667435e+02   4.7052465145e+01    0.3831957    0.2014214  81.30  0.001753136    2.663    0.625
        80  -9.9131     13.2526    117.3089   1.4398757602e+02   4.9365001210e+01    0.2616629    0.2038241  45.93  0.001569846    1.504    0.335
        81  -9.5653     54.2742    116.1659   1.3318321691e+02   4.5755261707e+01    0.2543414    0.1765115 -43.14  0.001402013    1.605    0.377
        82  -9.9777     97.6023    114.9836   1.2144039318e+02   3.9854161955e+01    0.3399158    0.2665325  27.75  0.001741673    1.526    0.345
        83  -8.9100     27.7504    115.9796   1.4012956386e+02   4.8493220646e+01    0.1698865    0.1183346 -71.16 0.0003291672    1.140    0.123
        84  -9.5363     92.5563    112.2204   1.2215743883e+02   4.1306170824e+01    0.3565432    0.2732427 -38.70  0.001903838    1.411    0.291
        85 -10.1283    132.5138    110.7206   1.1153275383e+02   3.4196007232e+01    0.6162365    0.3816527 -36.38  0.002555907    1.739    0.425
        86  -8.6326     38.7851    107.2063   1.3586506321e+02   4.9441052783e+01    0.2346383    0.1299521 -42.93  0.001137536    2.038    0.509
        87 -10.5401     67.2710    107.9789   1.2812392700e+02   4.5996583712e+01    0.6787196    0.3510259 -38.83  0.002973762    2.481    0.597
        88  -9.4782     75.4918    102.4792   1.2465680243e+02   4.6104843371e+01     0.397516    0.2164737  31.47  0.001851219    2.231    0.552
        89  -9.2655     91.5856     96.8066   1.1877184758e+02   4.4882459251e+01    0.3250372    0.2596023 -64.26  0.001129356    1.240    0.194
        90  -9.2581     81.5000    102.4815   1.2297028001e+02   4.5220333526e+01    0.2527844    0.1989893  54.01 0.0009122663    1.401    0.286
        91 -10.8658     85.6157    100.7869   1.2142158083e+02   4.4964782208e+01    0.4573284    0.3411617  12.61 0.0004392148    1.862    0.463
        92 -10.0083     74.3576    108.4884   1.2627477269e+02   4.4913246340e+01    0.3315584    0.3054807 -79.25  0.001204061    1.062    0.059
        93  -9.2627    120.8580    108.8993   1.1398512851e+02   3.6935902141e+01    0.2225363    0.2060058 -11.45 0.0006799714    1.209    0.173
        94  -9.3914     13.5863    164.8779   1.4827869375e+02   3.9204707445e+01    0.2023713    0.1328463  57.70  0.001285691    1.404    0.288
        95  -8.4517     97.5030    103.5108   1.1879707317e+02   4.2411876063e+01    0.1429218    0.1310791 -69.42 0.0008099751    1.055    0.052
        96 -10.1650    105.7641    109.5407   1.1804441953e+02   3.9636835386e+01    0.4170974    0.3210406 -69.36  0.001859291    1.379    0.275
        97  -9.4868     35.0701    110.4651   1.3739686520e+02   4.9064311477e+01    0.2985077    0.1785149 -69.88   0.00171897    1.368    0.269
        98  -8.9885      1.8877     75.5016   1.4159772158e+02   5.9210379753e+01    0.1321677    0.1134767  -1.54 0.0009567028    1.553    0.356
        99 -10.5689      3.8876     99.3727   1.4431531579e+02   5.3919421453e+01     0.464806    0.2177822 -78.95   0.00234133    1.742    0.426
       100 -10.9616      4.8079     80.5020   1.4146620519e+02   5.7973072033e+01    0.6050367    0.2175004 -52.11  0.002570065    2.193    0.544
       101 -11.3765      3.4434     89.4250   1.4315997770e+02   5.6112972201e+01    0.5277304    0.3439375 -48.64  0.003534866    1.488    0.328
       102 -11.2163     13.1559     88.1051   1.4012326989e+02   5.5802467695e+01    0.3776677    0.2389725 -69.68  0.001134523    1.214    0.176
       103 -10.9749      9.8737     85.0920   1.4063593176e+02   5.6673980582e+01    0.2350444    0.1934677  89.09 0.0007689354    1.230    0.187
       104 -10.1127    114.4969    100.4609   1.1347236986e+02   3.9979442369e+01    0.3068953    0.2782393 -68.04 0.0008710818    1.117    0.105
       105 -10.7117    117.5155     98.4574   1.1214971001e+02   3.9817435617e+01    0.4770267     0.374386  57.32  0.001950416    1.386    0.279
       106  -9.0672      9.8454     99.6932   1.4272763797e+02   5.3474601468e+01    0.2051762    0.1359697  76.61 0.0008722726    1.574    0.365
       107  -9.5302    159.5737     96.5907   1.0137117649e+02   3.1047928937e+01    0.3214295     0.280281 -75.09   0.00146465    1.313    0.238
       108 -10.4795      2.5908    159.6266   1.5007296489e+02   4.1179029363e+01    0.5798379    0.1921432 -85.47  0.002826642    2.655    0.623
       109  -9.4339    187.6629     93.2177   9.4520107005e+01   2.4933811659e+01    0.3576266    0.2494079 -59.12  0.001479338    1.757    0.431
       110 -11.6597    104.1939     55.2436   1.0254690941e+02   5.1016991605e+01     1.029853    0.7749467  34.56  0.002686395    1.393    0.282
       111 -10.5442    126.8824     52.4018   9.5373806531e+01   4.6677505425e+01    0.6934007    0.6447253 -48.09  0.002118584    1.155    0.134
       112  -8.4238     54.3410    162.3049   1.3963776246e+02   3.5547909562e+01     0.111057   0.08996926 -43.65 0.0007040904    1.681    0.405
       113  -9.4186    129.6470     46.5606   9.2612521490e+01   4.6982421843e+01    0.3316589    0.2625903 -13.11  0.001078883    1.310    0.237
       114 -10.9595    141.3771     40.6062   8.7745505837e+01   4.5078658902e+01    0.7474925     0.632419 -64.59  0.002764789    1.397    0.284
       115 -10.1219    147.6837     35.1263   8.4454779220e+01   4.4278732044e+01    0.7929274    0.2147945  55.03  0.002494314    3.236    0.691
       116 -10.0156     89.4909     77.9958   1.1427097541e+02   4.9270126738e+01    0.4893646    0.2818566  37.92  0.002083744    1.923    0.480
       117 -12.5197    102.2721     81.8582   1.1167517470e+02   4.6212725406e+01      1.63173     1.194277 -83.98  0.007587305    2.041    0.510
       118 -10.4589    102.3960     70.5857   1.0820581924e+02   4.8472995918e+01    0.5740393     0.346132 -55.63  0.002084818    1.909    0.476
       119 -11.2904    114.7650     63.3778   1.0235563445e+02   4.7393757697e+01     1.022951     0.655307 -45.06  0.002722116    1.556    0.358
       120 -10.6862    109.1294     67.9586   1.0543697756e+02   4.7678754758e+01    0.6170513    0.4386998  33.97  0.002764754    1.529    0.346
       121 -10.8538    118.1671     86.3007   1.0859076154e+02   4.2219732608e+01    0.7389928    0.3742476  50.72    0.0025721    2.166    0.538
       122  -9.9967    113.0274     83.2090   1.0907417532e+02   4.3879896279e+01    0.3173707    0.2724164  73.44  0.000290178    1.373    0.271
       123 -10.6275    130.5550     40.0196   9.0025735860e+01   4.7759340167e+01    0.5151985    0.3786235  -1.77  0.001162133    1.546    0.353
       124 -10.3346    135.0345     34.1790   8.6843046439e+01   4.7516720642e+01    0.3466175    0.2587945  46.20  0.000529332    1.293    0.227
       125  -9.7262     82.2596     90.5914   1.1986471036e+02   4.7737300528e+01    0.2899824    0.2570109  41.21 0.0009102176    1.253    0.202
       126 -10.7824     88.2316     89.8612   1.1793812785e+02   4.6949104891e+01    0.5663729    0.3968174 -45.15  0.002932988    1.318    0.241
       127  -9.1357     92.3140     88.6818   1.1644551319e+02   4.6527396581e+01    0.2570891    0.1700381 -61.04 0.0006327123    1.599    0.375
       128  -9.1157    194.4472     89.7544   9.2258110211e+01   2.3878138764e+01    0.3038619    0.2290283   6.18  0.001132241    1.659    0.397
       129  -9.4700     74.3917     88.9992   1.2178218513e+02   4.9260727033e+01    0.2486911    0.2138256  40.26  0.001051217    1.310    0.237
       130  -9.8825    152.6743     87.0820   1.0022973180e+02   3.4476728735e+01    0.3272233    0.2956305  -1.32 0.0008576168    1.186    0.157
       131  -9.3354    160.5564     81.7428   9.6876147172e+01   3.3592320690e+01    0.4352279    0.2740936 -63.96  0.001682565    2.329    0.571
       132  -8.6863     76.9666     84.7295   1.1991062152e+02   4.9816901011e+01    0.1827009    0.1700554 -54.42 0.0004557784    1.052    0.049
       133 -10.1389    134.5237     81.3278   1.0288132540e+02   3.9732046649e+01    0.6954511    0.3307928 -30.07  0.002477036    2.558    0.609
       134 -10.4527    149.5579     75.5827   9.7498959043e+01   3.7350758861e+01     1.116649    0.4827293  38.84  0.003728186    2.885    0.653
       135 -10.2292    138.6906     74.4395   9.9731989848e+01   4.0098483130e+01     0.594731    0.2333849 -46.64  0.001984169    2.799    0.643
       136  -9.3477    144.0262     71.0466   9.7379144664e+01   3.9480048403e+01    0.3184453    0.2484149 -46.40 0.0007573702    1.311    0.237
       137 -10.0192    140.3350     67.3754   9.7088187432e+01   4.1002825261e+01     0.576762    0.4393374   0.19  0.002480438    1.616    0.381
       138 -10.6148    114.1232     51.4167   9.8386614781e+01   4.9645584111e+01    0.6786287     0.562194  85.28  0.003504709    1.636    0.389
       139  -9.0939    218.4478     77.9130   8.4837301614e+01   1.9934216977e+01    0.4126996    0.2425613  -0.22  0.001489402    2.937    0.660
       140  -9.5510     22.1262    138.2802   1.4413990501e+02   4.4068739424e+01    0.2907503    0.1392751 -55.29  0.001112889    2.071    0.517
       141  -9.5685     36.9138     75.6533   1.3030643303e+02   5.6645408233e+01    0.2262431     0.150986 -55.63 0.0005553885    1.201    0.167
       142 -10.9794     21.4621     73.1241   1.3484440897e+02   5.8492658287e+01    0.4001397    0.2815564  30.29  0.002629218    1.778    0.438
       143  -9.5350    214.9795     71.3111   8.3586342326e+01   2.1797287497e+01    0.3438532    0.2136838 -27.93  0.001150412    1.591    0.371
       144  -9.8112    132.3079     68.0426   9.9279547387e+01   4.2727662961e+01    0.4798836    0.2916912  61.99  0.001660489    2.015    0.504
       145  -9.9942    150.6537     67.1732   9.4609889947e+01   3.8583378688e+01     0.443932    0.2959783  44.49  0.001170397    1.520    0.342
       146  -9.0148    155.8379     66.8161   9.3336703962e+01   3.7381802466e+01    0.3063866    0.2364957  65.18  0.001453647    1.416    0.294
       147  -8.4199      7.5404     50.6907   1.3487580209e+02   6.4141457204e+01    0.3878407    0.3111477  76.98  0.002785049    1.615    0.381
       148 -11.7431     15.3817     62.0652   1.3458304479e+02   6.1287336682e+01    0.9296911    0.4757266 -12.93  0.004705224    3.155    0.683
       149 -10.6105      5.7645     71.3715   1.3967186726e+02   5.9887910537e+01    0.2285208    0.1880605  57.14 0.0003275992    1.512    0.339
       150  -9.1228      9.4617     70.5493   1.3831032662e+02   5.9850854219e+01    0.1521716    0.1429982  -3.58 0.0005504543    1.372    0.271
       151  -8.4871    233.8403     71.4015   8.0786227532e+01   1.7223679865e+01    0.2037302    0.1295886  46.51 0.0009406489    1.692    0.409
       152 -10.1255     85.9166     68.3576   1.1243979707e+02   5.1846372434e+01    0.5077693    0.4326618 -40.23  0.002931287    1.061    0.057
       153 -10.3881    250.2329     67.6071   7.7616787582e+01   1.3979680970e+01    0.5850614    0.1991827 -25.21  0.001953212    3.257    0.693
       154  -8.6189    202.0178     68.4635   8.4903814354e+01   2.5471935066e+01    0.2269026    0.1512043  61.24  0.001016376    1.557    0.358
       155 -11.5304    164.8843     62.6244   9.0080894178e+01   3.5833341409e+01    0.7884797    0.6112694  -1.69  0.002700003    1.523    0.343
       156 -10.4408    164.4504     57.2030   8.8445519684e+01   3.6812782247e+01    0.5873115    0.4393324  32.31   0.00239956    1.460    0.315
       157  -8.6234     65.5806     66.0440   1.1824981258e+02   5.5401791302e+01    0.2726483    0.1187751 -58.35 0.0008433609    2.646    0.622
       158 -10.7144     96.1445     63.8070   1.0785242667e+02   5.0957542991e+01    0.5631881    0.3898894  13.95  0.002664939    1.935    0.483
       159  -9.6226     17.1705     82.4940   1.3798180791e+02   5.6759336692e+01    0.2598164    0.1573722   6.06  0.001533557    2.410    0.585
       160 -10.1206     13.0184     56.6816   1.3422492449e+02   6.2571741428e+01    0.2424022    0.2278491  74.63  0.001887383    1.347    0.257
       161  -9.2737    178.4380     60.5010   8.6745156957e+01   3.2727968769e+01    0.2642033    0.2475368  42.02 0.0006451453    1.071    0.066
       162  -9.3205    149.6827     60.2168   9.2581005944e+01   4.0001184600e+01    0.3527474    0.2170561 -45.45 0.0008646885    1.713    0.416
       163  -8.9229    219.4834     60.4907   7.9920897083e+01   2.2289843764e+01    0.3458789    0.1929892  63.37  0.001481677    1.884    0.469
       164  -9.7291    221.9408     57.0779   7.8631537595e+01   2.2169055785e+01    0.3507279    0.3198751 -77.56  0.001225701    1.134    0.118
       165  -8.8623    219.2739     52.9982   7.7883688060e+01   2.3405365235e+01    0.2650664    0.2035027  -4.47 0.0007127125    1.529    0.346
       166 -10.1978    221.6885     48.3416   7.6269245661e+01   2.3442236707e+01    0.4233145    0.2994789 -29.98  0.002096521    1.372    0.271
       167 -10.6348    174.7881     57.4868   8.6502296430e+01   3.4132411263e+01    0.6058761    0.5111349  -8.65  0.002801557    1.277    0.217
       168 -10.4706    201.2893     57.0211   8.1723792940e+01   2.7385912547e+01    0.6374095    0.4227921   6.98  0.002664308    2.159    0.537
       169  -9.2088    158.3312     58.5635   9.0153879824e+01   3.8135582048e+01    0.4028995     0.240371  12.58  0.001406347    2.993    0.666
       170 -10.0354      2.9627     57.5908   1.3805586002e+02   6.2957077106e+01    0.2828482    0.2206792 -89.53  0.001594264    1.421    0.296
       171 -10.7042    149.8574     51.4186   8.9617838361e+01   4.1374632602e+01    0.4781806    0.4206664   1.72  0.001954537    1.186    0.157
       172 -11.2683    141.4738     51.6161   9.1567827763e+01   4.3389882883e+01    0.5480787    0.3821215  40.28  0.001121061    1.462    0.316
       173  -9.6158    134.8079     51.9335   9.3250066985e+01   4.4924624939e+01    0.3787436    0.2619928  -3.01  0.001498534    1.841    0.457
       174 -10.0509    186.1953     53.6684   8.3246516706e+01   3.1768294294e+01    0.3724806    0.2103966  -7.47  0.001350951    2.703    0.630
       175  -9.7864    157.1903     51.3460   8.8029924470e+01   3.9556447916e+01    0.5268108    0.3782884  13.55  0.002362073    1.748    0.428
       176  -9.5955    237.0924     50.0400   7.4749709514e+01   1.9444511404e+01    0.4302019    0.1568424 -39.59  0.001612115    2.428    0.588
       177  -9.3095    188.8470     49.0455   8.1386294577e+01   3.1750854305e+01    0.3531797    0.2280829 -48.84  0.001567039    1.646    0.392
       178  -9.1621    174.9971     47.6477   8.3361982505e+01   3.5548168179e+01    0.2874726    0.2017008 -53.93  0.001308877    1.598    0.374
       179  -9.5292     80.2046     46.8625   1.0694132005e+02   5.6895537387e+01     0.228908    0.1880942  10.16 0.0006837553    1.276    0.216
       180 -10.5897    202.3914     38.1698   7.6042970766e+01   2.9708415049e+01    0.4660271    0.3933689  44.23  0.001879556    1.239    0.193
       181 -10.1352    194.5777     30.9532   7.5008912371e+01   3.2653486945e+01     0.379296    0.2669852 -11.24  0.001007394    1.635    0.388
       182  -9.2895     24.2554    133.9722   1.4318948294e+02   4.4820421900e+01    0.2354397    0.1613751 -69.11 0.0006665419    1.228    0.186
       183 -10.7919     16.5379    158.8518   1.4722237634e+02   4.0187217277e+01    0.3965512    0.2388942 -48.29   0.00245591    2.248    0.555
       184 -11.8895     19.6654    147.9712   1.4562959424e+02   4.2200908254e+01    0.7248212    0.4536121 -63.23  0.003619664    1.496    0.332
       185  -9.2171     28.5458    121.9862   1.4072153527e+02   4.7084757456e+01    0.3052177    0.1595379 -76.24  0.001587308    1.613    0.380
       186 -10.1509     34.2343    156.0712   1.4327424476e+02   3.9099670545e+01    0.2369008    0.1620532  76.09 0.0004224948    1.277    0.217
       187 -10.6831    106.9217     30.1149   9.2273174961e+01   5.4474493007e+01    0.8079929    0.3443663  50.71  0.003296045    2.332    0.571
       188 -10.2381     26.9342    127.7142   1.4183210211e+02   4.5958843217e+01    0.4204708    0.3145421 -76.33  0.002861732    1.066    0.062
       189  -9.1330     52.6626    151.9467   1.3877934680e+02   3.7969727673e+01    0.1778523    0.1703662  64.95  0.001275572    1.306    0.234
       190 -11.4122     34.7725    150.2267   1.4255614857e+02   4.0295376469e+01    0.7596632    0.3024702  60.88  0.003409883    3.049    0.672
       191 -10.7045     38.9918    145.9452   1.4114367329e+02   4.0789686845e+01     0.467464     0.256891 -69.50  0.001840518    1.519    0.342
       192  -9.8373     67.4347    148.7110   1.3499540724e+02   3.6835502166e+01    0.3053359    0.1945606 -88.94  0.001499605    1.625    0.385
       193 -10.4423      6.7849    142.8004   1.4796060365e+02   4.4347921465e+01     1.155001    0.4054019  81.59  0.004700054    3.888    0.743
       194 -10.4594      3.5372    147.1670   1.4899440109e+02   4.3675110539e+01      0.44742    0.2193012  74.81   0.00223655    1.888    0.470
       195  -9.8908     18.9776    129.0088   1.4389208064e+02   4.6354889551e+01    0.3339722    0.1337948 -61.03  0.001453604    2.036    0.509
       196 -10.1381      4.5145    136.2460   1.4791023357e+02   4.5904232540e+01    0.3477134    0.2355726 -56.88  0.002204529    1.567    0.362
       197  -9.9648    207.1278     44.2718   7.7140932611e+01   2.7680934717e+01    0.6273928    0.4112278 -69.02   0.00278357    1.887    0.470
       198  -8.9519    248.8478     44.4415   7.1946810295e+01   1.7408744811e+01    0.2684999    0.1843622  -4.33  0.001310755    1.876    0.467
       199 -10.1937    233.0223     41.9357   7.3108752391e+01   2.1493956965e+01    0.6415777    0.3570466   8.11  0.002257723    3.688    0.729
       200 -10.8369    200.0296     31.5693   7.4430001517e+01   3.1155388979e+01     0.438608    0.2910656 -68.63 0.0003933808    1.781    0.438
       201  -8.3717      1.5044     44.4169   1.3573104770e+02   6.5740045132e+01    0.1142777   0.08027072 -50.61  0.000459543    1.079    0.073
       202  -8.6519    215.7693     41.8340   7.5253642966e+01   2.5799323213e+01    0.2462566    0.1411537  25.58 0.0009354496    2.762    0.638
       203  -9.7040    191.8303     39.2459   7.7926149884e+01   3.2316650368e+01    0.6219496    0.3865825  -1.10  0.001990889    2.252    0.556
       204 -11.3390    162.4446     38.0785   8.2560675173e+01   4.0129594219e+01    0.5294246    0.2990312 -25.22  0.002249727    1.836    0.455
       205  -8.7982      4.8785     41.1821   1.3358240954e+02   6.6215623642e+01    0.1147194   0.08459554  13.86 0.0008164119    1.721    0.419
       206  -9.4764    180.3242     38.6856   7.9593558370e+01   3.5400053475e+01    0.4971043    0.2771454 -55.17  0.001975825    2.237    0.553
       207 -10.5738    177.1702     29.5193   7.7188767317e+01   3.7394773409e+01    0.5739838    0.4040687 -16.47  0.002087537    1.548    0.354
       208  -9.7165      8.9975    134.7394   1.4677536004e+02   4.5896649799e+01    0.2221618    0.1645707 -85.46 0.0003742753    1.006    0.006
       209  -8.3383    229.3579     39.2384   7.2827946261e+01   2.2737672758e+01    0.1404433    0.1030189  38.76 0.0006916064    1.586    0.370
       210  -8.9673    173.7228     39.1596   8.0870254539e+01   3.7060645873e+01    0.2799556     0.194269 -85.41 0.0009255486    1.860    0.462
       211  -9.0840    168.2261     36.3827   8.0936313001e+01   3.8860290038e+01    0.3125274    0.1950156 -38.92    0.0014004    1.625    0.385
       212 -10.1686    210.5096     32.9913   7.3445234959e+01   2.8270129976e+01    0.4752248    0.2608165 -18.63  0.001714149    2.078    0.519
       213  -8.4206     38.0480     34.1075   1.1767942841e+02   6.4955125244e+01    0.4053684     0.238685 -23.09   0.00180708    1.824    0.452
       214 -11.1975    237.9946     32.8846   7.0175911457e+01   2.1427305737e+01    0.6723502    0.3902137  65.59  0.002618633    1.754    0.430
       215 -10.0223    246.8907     33.3605   6.9366878820e+01   1.9254715707e+01    0.4093966    0.2318985  54.94  0.001286384    1.891    0.471
       216  -8.5845      1.4186     35.4561   1.3349912900e+02   6.7529272397e+01    0.1112424   0.08189994 -52.87 7.376042e-06    1.043    0.041
       217  -9.8576    228.4966     31.5254   7.0865228081e+01   2.3912609355e+01    0.3104154    0.2577023  80.84  0.001049928    1.213    0.176
       218 -10.0897    225.5515     27.0586   6.9997744243e+01   2.5180240999e+01    0.4582585    0.3157838 -53.66  0.001503094    1.430    0.300
       219  -9.3499    162.5139     32.0034   8.0504246044e+01   4.0907174957e+01    0.4033589    0.2638714  30.76  0.001236252    1.756    0.430
       220  -9.3029    170.3846     23.1799   7.6213049428e+01   3.9923036272e+01      0.30961    0.2795303 -25.10  0.001520309    1.148    0.129
       221  -9.8343    166.3723     24.8466   7.7424559211e+01   4.0777797482e+01    0.4387585    0.3042072  10.62  0.002043229    1.773    0.436
       222  -9.6157    167.1130     29.5184   7.8857906227e+01   4.0024345473e+01    0.3199449    0.2410033  57.17  0.001110117    1.270    0.213
       223  -9.1296    170.4619     27.5787   7.7649783052e+01   3.9386601103e+01    0.2946335    0.2095727  78.09 0.0009889273    1.521    0.343
       224  -8.3539    157.9537     29.7635   8.0576559964e+01   4.2364279387e+01    0.1922389    0.1191245  59.54 0.0008594768    1.551    0.355
       225 -10.2400    154.2856     24.8975   7.9565670066e+01   4.3895514441e+01    0.3986433    0.2575067 -34.14   0.00188167    1.580    0.367
       226  -9.9127    159.6021     24.5524   7.8488238050e+01   4.2568972961e+01    0.3424366    0.3042944  79.58 0.0008997603    1.174    0.148
       227  -9.4005    241.0255     23.8285   6.7544200019e+01   2.1778308314e+01    0.3852534    0.1573022 -43.70  0.001323549    2.215    0.549
       228 -11.7117     13.4258    129.7440   1.4527847300e+02   4.6636989027e+01    0.7558432    0.4000785 -77.42  0.003668739    1.469    0.319
       229  -8.9719     97.5068    140.5140   1.2659493784e+02   3.4214330546e+01    0.1376158    0.1226975  89.24 4.192444e-05    1.035    0.034
       230  -8.9603     80.3165    140.0139   1.3062839295e+02   3.6971982466e+01    0.2167217   0.07947568 -44.05 0.0007046415    4.256    0.765
       231  -9.9652     54.7681    137.5367   1.3639099980e+02   4.0889753809e+01    0.2535566    0.1976463 -76.44   0.00105337    1.087    0.080
       232 -11.6084     55.3700    129.5974   1.3507615093e+02   4.2594186954e+01     0.825999    0.2722846 -59.23  0.003209202    2.509    0.601
       233  -9.3326    219.6749     25.1594   7.0142271065e+01   2.6877676797e+01    0.2387654    0.1833848 -86.00 0.0005136857    1.339    0.253
       234  -8.2834    201.4568     25.4846   7.2447320092e+01   3.1513972261e+01    0.1424282    0.1361915 -79.83 0.0001905854    1.006    0.006
       235  -8.8271    193.4585     24.4550   7.3203755720e+01   3.3721069108e+01    0.2448227    0.1619669  19.11 0.0009693551    2.005    0.501
       236  -8.8797     98.4818    135.4980   1.2543043920e+02   3.5156604703e+01    0.1384036    0.1249761 -86.97 0.0007644276    1.023    0.023
       237  -9.6908     42.8200    134.8229   1.3888865337e+02   4.2833848988e+01    0.1722775    0.1224808  80.42 0.0006506306    1.333    0.250
       238 -10.5366     64.8083    130.6029   1.3288063491e+02   4.1201163003e+01    0.3340489    0.2433316  36.68  0.001427767    1.577    0.366
       239  -8.4387    209.4631     18.5157   6.9459213755e+01   3.0234237118e+01    0.1390691    0.1322192 -83.64 4.056249e-05    1.018    0.018
       240  -9.9664    215.4476     20.6865   6.9386638667e+01   2.8462034588e+01    0.4011172    0.2834797  60.61  0.002073766    1.399    0.285
       241 -11.1965     68.1003    121.9192   1.3056013787e+02   4.2730098769e+01    0.6648517    0.3314375 -43.70  0.002974545    2.374    0.579
       242 -10.2514     68.1052    115.6431   1.2940059050e+02   4.4150486745e+01     0.655957     0.243059  47.98  0.002574723    3.187    0.686
       243 -11.3215     72.1585    129.7484   1.3089892002e+02   4.0416705516e+01    0.6023151    0.5478147 -43.15  0.003840617    1.293    0.226
       244  -9.8630     73.8092    125.3501   1.2970631436e+02   4.1179588659e+01      0.39231     0.191524  41.01  0.001834386    2.174    0.540
       245  -8.9554     95.5028    130.0041   1.2510646767e+02   3.6859735448e+01    0.2105093    0.1281366 -57.92 0.0008248892    1.551    0.355
       246 -10.2299     34.7574    129.5979   1.4016209200e+02   4.4813176421e+01    0.2725506    0.1687227  61.05 0.0003231555    1.699    0.411
       247  -9.4256    198.1326     16.8398   7.0322791265e+01   3.3349999436e+01    0.3358774     0.219384  62.04 0.0008610347    1.453    0.312
       248 -11.1532     22.2177     45.3663   1.2779740510e+02   6.4241671704e+01    0.5454101    0.4192306 -67.80  0.002890852    1.384    0.278
       249 -10.5276     38.1193    127.1093   1.3900941711e+02   4.5035803573e+01    0.2241518    0.1879648 -45.34 0.0008915071    1.430    0.301
       250 -10.4040     48.5474    125.2607   1.3613234125e+02   4.4351499933e+01    0.2648027    0.2238037 -84.57  0.001758117    1.044    0.042
       251  -8.9648    235.3466    249.6758   1.1770993907e+02  -7.1719206919e+00   0.09764867   0.07959118  53.24 0.0007049905    1.743    0.426
       252  -8.8058    183.3248    249.6768   1.2611074101e+02   7.9290458652e-01    0.1077908   0.07700404  61.60 0.0007047832    1.685    0.407
       253  -8.5485     25.6730    248.9525   1.5114045645e+02   2.2754405104e+01    0.1336668   0.08831428  72.52 0.0005140905    1.062    0.058
       254 -13.1729     13.6092    109.3097   1.4294553017e+02   5.1098671862e+01      1.94383     1.024848 -34.51   0.01032053    2.829    0.646
       255 -12.5800     50.9729     88.7764   1.2880205137e+02   5.2305881988e+01     1.954083     1.499151 -25.48   0.01170104    1.569    0.363
       256 -12.0022     71.1538     75.9096   1.1930598487e+02   5.2557281686e+01     1.433538     0.794634  34.33  0.006956793    2.074    0.518
       257  -9.6360     34.6545    245.8871   1.4967416514e+02   2.2269881325e+01     0.173513   0.07028063 -68.89  0.001106168    2.552    0.608
       258  -9.7666    141.9577    243.6646   1.3228220600e+02   8.0754518389e+00    0.2189369    0.1760462  15.13 0.0008606988    1.728    0.421
       259  -9.0726    210.7482    239.8345   1.2025876235e+02  -2.4095908708e+00    0.1710772    0.1274883   5.95  0.001026199    1.439    0.305
       260 -11.4441     49.2227     25.6169   1.0975194547e+02   6.5115437010e+01    0.3971352    0.2204318  31.89  0.001236005    1.998    0.500
       261  -9.0204     13.4576    238.4959   1.5245062290e+02   2.5671977475e+01   0.09740427   0.06459009  71.32 0.0001709286    1.017    0.016
       262  -8.7120    227.7848    231.6985   1.1624183380e+02  -4.2034927241e+00    0.2649667   0.08627502  44.34  0.001199828    2.621    0.618
       263 -10.2961    109.7585     38.0101   9.4600588577e+01   5.2723876560e+01    0.7195122    0.3957409 -15.54  0.002838207    2.303    0.566
       264  -9.0835    136.4308    224.7961   1.3104725741e+02   1.1720236361e+01    0.1410151    0.1140562 -40.19 0.0007553887    1.653    0.395
       265  -8.6084      2.2214    214.1896   1.5309393474e+02   3.0842563061e+01     0.138418   0.08961625 -49.34 0.0009567222    2.833    0.647
       266 -10.5441     26.7966    191.4951   1.4769885927e+02   3.2669024495e+01    0.3511847    0.2196192  84.45  0.002456906    1.258    0.205
       267 -12.3375     43.8048     67.0136   1.2587637042e+02   5.7821098301e+01     1.055342    0.7388008  65.55  0.005881871    2.113    0.527
