#   1 NUMBER                 Running object number                                     
#   2 MAG_AUTO               Kron-like elliptical aperture magnitude                    [mag]
#   3 X_IMAGE                Object position along x                                    [pixel]
#   4 Y_IMAGE                Object position along y                                    [pixel]
#   5 X_WORLD                Barycenter position along world x axis                     [deg]
#   6 Y_WORLD                Barycenter position along world y axis                     [deg]
#   7 A_WORLD                Profile RMS along major axis (world units)                 [deg]
#   8 B_WORLD                Profile RMS along minor axis (world units)                 [deg]
#   9 THETA_WORLD            Position angle (CCW/world-x)                               [deg]
#  10 FWHM_WORLD             FWHM assuming a gaussian core                              [deg]
#  11 ELONGATION             A_IMAGE/B_IMAGE                                           
#  12 ELLIPTICITY            1 - B_IMAGE/A_IMAGE                                       
         1 -12.5096     39.8021     32.4626   7.8874152078e+01   6.5791366221e+01    0.3817793    0.2537364 -21.36 0.0005221599    1.428    0.300
         2 -10.7354     70.4228     28.3026   6.4840911283e+01   6.1515134755e+01    0.4958133    0.2722499 -45.99  0.002399954    2.412    0.585
         3 -11.2840      2.0702     21.6738   9.3839680124e+01   7.1310508877e+01    0.2973104    0.1743149 -52.01  0.001032505    1.707    0.414
         4 -10.0894     20.3560     17.6741   8.2066865278e+01   7.0348427629e+01    0.3392803    0.1515176 -28.90  0.001744346    2.227    0.551
         5 -10.3077     74.3450     18.6913   5.9571013748e+01   6.1939373589e+01    0.3813729    0.2538043 -71.79   0.00167192    3.678    0.728
         6 -10.8627     72.0302     13.6671   5.8214728195e+01   6.2929007026e+01     0.255331    0.2283707 -24.49  0.001406172    1.303    0.233
         7 -11.7349     13.2945     15.9353   8.5120211880e+01   7.1315612497e+01    0.3732012    0.2384716  11.47  0.002378201    1.439    0.305
         8 -10.2725     14.6356      9.0691   8.1174903084e+01   7.2168737941e+01    0.2764536     0.149087 -10.94 0.0008686567    2.016    0.504
         9 -11.7756    234.9043     15.0912   3.2389108470e+01   2.6033814571e+01    0.2448949    0.1751643 -68.65 0.0003313352    1.118    0.105
        10 -10.6286     64.8143     12.0445   5.9931246718e+01   6.4459025564e+01    0.3642999    0.1662896 -39.73  0.001735304    2.766    0.638
        11 -11.5800     83.9880     14.7937   5.5036265623e+01   6.0430373480e+01    0.4629916    0.2561134  24.10  0.001363913    2.190    0.543
        12  -9.9342     89.5342     13.4830   5.2980477252e+01   5.9405219502e+01    0.2206957     0.174722  52.08   0.00050008    1.143    0.125
        13 -10.8607    208.0277     13.4357   3.4251067311e+01   3.1969991946e+01    0.1859763    0.1465916 -53.29 0.0006379686    1.226    0.185
        14  -9.9397     22.5263      9.4320   7.7048801527e+01   7.1247121650e+01    0.4000424    0.1945556  13.50  0.002023748    2.508    0.601
        15 -11.4055     34.5436     12.4846   7.2509175096e+01   6.9318489648e+01    0.3566641    0.2677297   9.74  0.001898868    1.101    0.091
        16 -11.8942     30.4530      7.4565   7.2032371693e+01   7.0492184110e+01    0.4368076    0.2660482  28.05  0.001735879    1.450    0.310
        17 -10.2251     28.0000      2.5175   7.0737253720e+01   7.1396880353e+01    0.2295365    0.1342532 -26.71   0.00132449    1.659    0.397
        18 -10.7117     40.6938      7.6848   6.7370767533e+01   6.8997847588e+01    0.3919933    0.2027282   5.13  0.001833222    2.892    0.654
        19 -10.0820     37.7536      6.0809   6.7899080969e+01   6.9618047150e+01    0.2399792     0.150198 -25.78  0.001016196    1.597    0.374
        20 -10.8117    171.9825     11.9845   3.7625896280e+01   4.0419051422e+01    0.1908315    0.1606441 -89.08  0.000340489    1.029    0.028
        21 -11.1645    134.4256     11.3661   4.2722659557e+01   4.9425172906e+01    0.2409926    0.2025162  88.49 0.0009300431    1.177    0.150
        22 -10.0871     44.9678     10.3113   6.6780350300e+01   6.8042094062e+01     0.300942    0.1503303  25.01  0.001534872    2.114    0.527
        23 -10.1744     57.6528      9.7329   6.1463491551e+01   6.5991283629e+01    0.3134783    0.2025302 -50.58  0.001688135    2.578    0.612
        24 -11.1170     57.4682      2.7560   5.8305946504e+01   6.6708687237e+01    0.3765846    0.2220457  16.61  0.000949999    1.815    0.449
        25 -10.0775      2.3427      6.8490   8.7347784736e+01   7.3607639599e+01    0.2368751    0.1780013 -19.59 0.0008926673    1.083    0.077
        26 -11.1826    218.0686      7.2358   3.2074137504e+01   3.0443304331e+01    0.1982877    0.1515192 -57.79 0.0008160451    1.183    0.155
        27 -11.1119    187.8209      7.4129   3.4773040163e+01   3.7178129557e+01    0.2789778    0.1619305  32.26  0.001311062    3.069    0.674
        28 -10.9745    151.0527      5.9887   3.8641272574e+01   4.5965087807e+01      0.19493    0.1624431  83.36 0.0003867722    1.055    0.052
        29 -10.2768     11.0774      5.8219   8.1616010512e+01   7.2969901414e+01    0.1976671     0.127957  20.96  0.000807752    1.444    0.308
        30 -10.8741    119.6170      3.7264   4.2812664051e+01   5.3567656388e+01    0.2815493    0.2145539  57.88  0.001078356    1.103    0.093
        31 -10.3604    236.4620      3.4176   2.9989154387e+01   2.7002285565e+01    0.2483204    0.1604796  40.27  0.001408152    2.782    0.640
        32  -9.8874    104.3030      3.4568   4.5680955588e+01   5.7079027543e+01    0.2575506    0.1501627 -22.07  0.001243699    1.990    0.497
        33  -9.6762     74.9967      3.9531   5.3160879570e+01   6.3272394359e+01    0.1990423      0.11829  29.00 0.0007601862    1.645    0.392
        34 -10.4257    134.8175      3.0203   4.0083407172e+01   5.0071093470e+01    0.2916957     0.148998 -79.49  0.001235786    2.935    0.659
        35 -11.0309     20.9844      2.0519   7.4128498358e+01   7.2351464169e+01    0.2701297     0.154121  20.76  0.001360344    1.567    0.362
        36  -9.6152    176.3037      2.6703   3.4781180899e+01   4.0306325374e+01    0.1307536   0.07928288 -67.98 0.0003023849    1.652    0.395
        37 -10.2075    162.7507      2.4163   3.6199997370e+01   4.3511187023e+01    0.1813323   0.09718105  63.53 0.0005769851    1.584    0.369
        38 -11.1161     80.1783      1.6989   5.0750616980e+01   6.2412024682e+01    0.2549471    0.1468934  55.06 0.0008980251    1.486    0.327
        39 -10.3055     11.5037      1.6297   7.9227998057e+01   7.3476257660e+01    0.1616888    0.1257987  39.13 0.0006791727    1.918    0.479
        40 -11.3785    125.5417     10.4315   4.3958525045e+01   5.1605635168e+01    0.3845572    0.2325545 -64.55   0.00102729    2.229    0.551
        41  -9.0984    247.4847    155.4478   5.9796597299e+01   2.3145997995e+00    0.1289608    0.1094627 -29.77 0.0002554937    1.016    0.016
        42 -10.7165     27.4846    250.4763   1.1990832828e+02   1.8383905727e+01    0.2278867    0.0945219  35.99  0.001207102    2.155    0.536
        43 -10.8009      1.8786    246.9649   1.2440001317e+02   2.1712553507e+01    0.3457241    0.1679381 -86.22  0.002105298    1.821    0.451
        44 -10.5168      6.0986    250.1262   1.2378913939e+02   2.0694122378e+01    0.2556893    0.1907542  88.22  0.001432764    1.241    0.194
        45 -11.2579      9.1881    237.6330   1.2262755600e+02   2.2835783090e+01    0.1977643     0.166886  42.60 0.0009888961    1.387    0.279
        46 -12.5446     10.2285    246.0045   1.2285236420e+02   2.1077634412e+01    0.5190556    0.3005511  61.87  0.002552466    1.329    0.248
        47 -12.0263      4.9309    240.5640   1.2355975265e+02   2.2668451955e+01    0.4714149    0.1896561  45.33  0.002672536    1.929    0.482
        48  -9.3134     27.4549    147.4795   1.1108834808e+02   4.1713662858e+01    0.1332122    0.1144586 -79.70 0.0003115281    1.004    0.004
        49 -10.6264     22.6503    146.9244   1.1237733020e+02   4.2289115256e+01    0.2305913    0.1807022 -15.22  0.001347287    1.667    0.400
        50  -9.4528    236.3391    139.2991   5.8280441212e+01   6.9114158071e+00    0.1324161    0.1000106  -3.57 0.0004767948    1.663    0.399
        51  -9.2411     24.6073    139.1530   1.1084800848e+02   4.4041646913e+01     0.197591    0.0990943 -59.15 0.0009401992    1.708    0.414
        52 -10.6099      1.5988    137.0552   1.1723416819e+02   4.6298025237e+01    0.2623302    0.1031768 -85.20  0.001105555    2.549    0.608
        53 -10.1476    212.5529    133.9686   6.1114836460e+01   1.2252698215e+01    0.2391432    0.2000114  78.03 0.0006402375    1.476    0.322
        54  -9.4568     95.9775    134.0105   8.8555902097e+01   3.5854988883e+01    0.1833872    0.1778572 -70.15 0.0005309389    1.003    0.003
        55  -9.2026      9.2852    135.3378   1.1485530463e+02   4.6201232258e+01    0.1320078   0.07943567 -49.20 0.0007015303    1.630    0.386
        56 -10.6027     11.9525    129.5785   1.1339282601e+02   4.7417968047e+01    0.2359834    0.1808845  75.48  0.001430033    1.334    0.250
        57 -10.6513     28.4649    128.2001   1.0815384724e+02   4.6411846309e+01    0.2013691    0.1873702  26.05  0.000331395    1.237    0.192
        58 -11.1972     24.1753    122.0623   1.0857993124e+02   4.8305159086e+01    0.2422856    0.2044785  34.98 0.0002648419    1.343    0.255
        59 -10.2443      1.7313    121.8159   1.1556503038e+02   4.9965428645e+01    0.2948087   0.09555998 -75.68  0.001180887    2.706    0.630
        60 -10.4409     17.9820    121.9492   1.1052887334e+02   4.8835146828e+01    0.1908612     0.163522 -62.75 0.0003240306    1.047    0.045
        61 -11.0192     10.1817    120.8885   1.1283818001e+02   4.9658154688e+01    0.3151919    0.1350679 -62.69  0.001319724    1.834    0.455
        62 -10.7443     69.1510    116.8308   9.2984818898e+01   4.4400883344e+01    0.2660553    0.2088592 -42.19            0    1.254    0.203
        63  -9.7037      1.8665    114.1421   1.1460433574e+02   5.1797044000e+01    0.1711043     0.118277 -53.83 0.0002801861    1.268    0.212
        64 -10.8487     65.1038    110.5375   9.2888683855e+01   4.6505939765e+01    0.4078543    0.2052242 -61.34   0.00115058    2.031    0.508
        65  -9.0544    139.3201    112.2600   7.1389545017e+01   3.2219457903e+01    0.1513353    0.1231822   9.69 0.0001655815    1.547    0.354
        66  -9.9181     35.6600    111.1469   1.0295163196e+02   4.9919258888e+01    0.2816216    0.1229218 -72.66  0.001095419    2.624    0.619
        67  -9.9044     45.0218    110.7024   9.9685077714e+01   4.9032338638e+01    0.1833864    0.1765049  13.29 0.0006077762    1.141    0.123
        68 -10.2187      2.0482    109.2479   1.1392030265e+02   5.2952891062e+01    0.2294408    0.1400369 -85.78 0.0008383153    1.598    0.374
        69 -10.9052     13.4146    108.9747   1.1010978041e+02   5.2313913721e+01    0.2092521    0.1945748  10.91 0.0004028488    1.265    0.210
        70 -11.0726     57.9464    107.6505   9.4634908972e+01   4.8181770391e+01    0.3669143    0.2364407  -3.65  0.001473364    2.268    0.559
        71 -10.6798     27.6093    107.2481   1.0498692598e+02   5.1617025014e+01    0.2635853    0.1805852 -52.29  0.001460421    1.268    0.212
        72 -10.5041      1.4499    104.5279   1.1348688795e+02   5.4102624627e+01    0.2558706   0.09905502 -69.29 0.0007861936    2.062    0.515
        73 -10.2977     55.5057    104.5464   9.4763421589e+01   4.9241234817e+01    0.2310335    0.1387214  11.71 0.0005317692    2.215    0.549
        74  -9.5509    246.6600    101.7019   4.8992001592e+01   1.1408921145e+01    0.1215492     0.100275  -0.45 0.0003918169    1.663    0.399
        75  -9.7471     91.8698     99.8866   8.1499009840e+01   4.4622891612e+01    0.1893777    0.1726778  85.33            0    1.248    0.199
        76  -9.5744     84.2467    100.0584   8.3980526534e+01   4.5938025453e+01    0.1965392    0.1841479 -45.35  0.000255004    1.045    0.043
        77 -11.0029     20.0298    100.0564   1.0634258892e+02   5.3958714286e+01    0.2426106    0.1884393 -10.64   0.00103197    1.466    0.318
        78 -11.4659      7.0272     85.3647   1.0846736933e+02   5.8243167228e+01    0.4821614    0.1927226  21.08  0.002285292    2.799    0.643
        79 -11.3740      3.1572     95.2197   1.1154331896e+02   5.6191376426e+01    0.2506347    0.1759281 -63.57 0.0002711198    1.159    0.137
        80 -12.1191      7.2333     91.1199   1.0940243057e+02   5.6912815148e+01    0.5136663     0.311591 -13.74  0.002845394    1.969    0.492
        81 -12.1463     20.3686     92.9034   1.0488145870e+02   5.5610838799e+01    0.3966644    0.2723083 -38.26 0.0004843206    1.373    0.272
        82 -10.3872     24.1416     88.0346   1.0247710314e+02   5.6432932741e+01    0.4264558    0.1602763 -55.08  0.001863235    2.105    0.525
        83 -12.0039    125.2135     93.3005   6.9941231395e+01   3.9287643794e+01    0.2726893    0.2594616  52.76 0.0002301342    1.045    0.043
        84 -10.0216     66.7471     92.0379   8.7739976595e+01   5.0567762976e+01    0.2016003    0.1897076  84.88  0.001162873    1.224    0.183
        85 -11.4693     58.1571     91.5005   9.0646402714e+01   5.1916811470e+01    0.3162873    0.2317882 -27.92  0.000474181    1.436    0.303
        86  -9.9522     29.0154     91.9895   1.0148523195e+02   5.5100323031e+01    0.1927616    0.1791445 -42.74  0.000564352    1.074    0.069
        87 -10.2814     43.3659     88.8887   9.5411507203e+01   5.4354845608e+01    0.2812988    0.2060988  56.03  0.000736278    1.764    0.433
        88  -9.6592    124.4737     86.4584   6.8190405658e+01   4.0819942412e+01    0.1490677    0.1463218  40.13 0.0001440159    1.009    0.009
        89 -10.8503     55.2174     85.7829   9.0207516226e+01   5.3591760564e+01    0.2276863    0.2167324 -88.72 0.0003240139    1.226    0.184
        90  -9.9714    145.7926     83.4201   6.2048706322e+01   3.6550443768e+01     0.273847     0.145292  56.84  0.001096394    1.948    0.487
        91  -9.5782     76.3633     83.1438   8.1898272747e+01   5.0981424772e+01    0.2260024    0.1652486 -29.00  0.000731136    1.432    0.302
        92  -9.7364     88.8139     80.0356   7.6795891381e+01   4.9422101346e+01    0.3895153    0.2579308  85.77  0.001418434    3.504    0.715
        93  -9.2808    250.3244     80.7007   4.4232871918e+01   1.4054511627e+01    0.1310256   0.08354616 -65.58 0.0006058926    1.631    0.387
        94  -9.4948    141.9723     79.9949   6.1966993074e+01   3.8070257847e+01     0.182499    0.1690366  58.65 0.0004172703    1.053    0.050
        95  -9.3982     80.6443     79.7843   7.9434983651e+01   5.0948373780e+01    0.1920827    0.1325473 -54.93 0.0002178538    1.589    0.371
        96 -10.6577     23.7419     78.1158   1.0041700003e+02   5.8699821909e+01    0.3698055    0.2634262  87.26  0.002009729    1.980    0.495
        97 -11.3122     15.5845     75.4216   1.0309000010e+02   5.9922540743e+01    0.3579567    0.2439291  -3.24  0.001756525    1.633    0.388
        98  -9.1158    124.4679     79.4485   6.6143561649e+01   4.2169701401e+01    0.1477486    0.1436399  63.82 0.0001511935    1.032    0.031
        99  -9.7286     47.8865     79.1938   9.1178526080e+01   5.5973433898e+01    0.1834385    0.1407109 -25.23 0.0003704164    1.287    0.223
       100 -11.0889      7.8331     76.9310   1.0653991208e+02   6.0090523907e+01    0.3682289    0.2004391  51.35  0.001642898    2.721    0.632
       101  -9.8509    176.4850     76.9303   5.3999316519e+01   3.0491752151e+01    0.2302786    0.1925746  66.27   0.00123392    1.180    0.152
       102 -11.3841     54.9691     75.2548   8.7344179313e+01   5.5894452359e+01    0.3319288     0.235843 -23.94            0    1.476    0.323
       103 -10.3429     37.2284     74.9814   9.4216130369e+01   5.8105984932e+01    0.5098175    0.1383383 -53.28 0.0003872628    3.048    0.672
       104  -9.8356     33.4574     73.2816   9.5281098664e+01   5.8861254415e+01    0.3325364    0.1935486  21.92 0.0009308535    1.856    0.461
       105  -9.8320     41.2500     74.5812   9.2501963254e+01   5.7749868520e+01    0.1771792    0.1215294   3.93 0.0006050274    1.654    0.395
       106  -9.2989    216.9999     72.0537   4.6475714287e+01   2.2121789140e+01    0.1633113    0.1320945 -50.88 0.0003400609    1.123    0.109
       107 -12.7135    105.8097     70.7775   6.8661602586e+01   4.7833158742e+01    0.2985257    0.2834899 -58.33 0.0005015928    1.143    0.125
       108  -9.6834     91.6805     70.9290   7.3035471933e+01   5.0660134247e+01    0.3613323    0.2244438 -80.51  0.001075745    5.378    0.814
       109  -9.2045    100.2652     70.6225   7.0262982014e+01   4.9009964976e+01    0.1432467    0.1150092 -75.78 0.0006986508    1.676    0.403
       110 -10.5451     81.2107     68.3886   7.5677099587e+01   5.3099604515e+01    0.3999304     0.275143 -61.77  0.001898272    1.963    0.491
       111 -10.3986     77.4062     68.1916   7.6923980808e+01   5.3812999864e+01    0.3729227    0.2310792 -32.01   0.00118365    1.699    0.411
       112 -10.8877     45.6961     69.4868   8.9265355919e+01   5.8294527937e+01    0.2421543    0.2320901  12.56 0.0005876273    1.175    0.149
       113 -10.5465     10.0526     70.1040   1.0417989864e+02   6.1451191139e+01    0.1831427    0.1546815 -43.60 0.0004566672    1.038    0.036
       114 -10.8644      3.4255     67.4004   1.0637501631e+02   6.2415795404e+01    0.4128121    0.1638118  40.34  0.001820648    3.580    0.721
       115 -10.1889     51.3531     66.4117   8.6073763984e+01   5.8193901911e+01    0.2753303    0.1739815 -22.69 0.0007588841    1.784    0.440
       116 -12.8017     20.7124     57.7723   9.6418205624e+01   6.3260178665e+01    0.3553207    0.2684714 -41.46 0.0008435861    1.117    0.105
       117  -9.1206     17.5210     63.5495   9.9404992068e+01   6.2328139771e+01    0.2030094    0.1748032  62.23 4.309962e-05    1.574    0.365
       118 -11.3051     97.6015     63.7392   6.8851804208e+01   5.0796836744e+01    0.4843348     0.254134  31.08  0.001945634    2.346    0.574
       119  -9.1214    130.7658     62.9783   5.9599809321e+01   4.3641855371e+01    0.1761392    0.1227893 -36.34 0.0004244521    1.510    0.338
       120 -10.6867     62.5857     62.0710   8.0306361994e+01   5.7419382637e+01    0.3068766    0.2132369 -44.74  0.001638956    1.437    0.304
       121 -10.5054      6.3486     63.5546   1.0426489279e+02   6.3073572443e+01    0.3025852    0.1608125  51.61    0.0014414    3.164    0.684
       122  -9.7676     38.7223     61.4068   8.9678269661e+01   6.0755973273e+01    0.1878669    0.1542499  -8.17  0.001157913    1.156    0.135
       123  -9.2186     40.7321     58.6688   8.7966802667e+01   6.1061238801e+01    0.2183511    0.1560319 -22.03 0.0004928437    1.354    0.261
       124 -10.0014     85.3293     59.2946   7.1269654668e+01   5.3993362804e+01    0.2395601     0.161427  28.00 0.0006198594    1.558    0.358
       125 -12.1493     86.2927     54.4716   6.9292537720e+01   5.4631314701e+01    0.5337513    0.3445747  17.52  0.001644637    1.990    0.497
       126 -10.4001     10.0627     59.5234   1.0165012197e+02   6.3689146295e+01    0.1649803    0.1140162   8.39 0.0004918533    1.562    0.360
       127  -9.4753    193.4509     58.8298   4.6636392635e+01   2.9427210461e+01    0.2588565    0.1011887  65.70 0.0009828839    2.692    0.629
       128  -9.7580    109.5623     58.0769   6.3506376218e+01   4.9233573959e+01    0.2165935    0.1755206  46.73 2.884979e-05    1.171    0.146
       129  -9.5204     48.4548     58.4435   8.4679459223e+01   6.0135795878e+01    0.1320379    0.1138664 -15.26 1.945371e-06    1.025    0.024
       130  -9.2422     44.4809     58.5000   8.6339741890e+01   6.0636781524e+01    0.1324858     0.112088 -18.26 1.673601e-05    1.043    0.041
       131 -10.5364      5.7221     57.0596   1.0297864542e+02   6.4462690646e+01    0.3416904    0.1665239 -19.07  0.001360369    2.318    0.569
       132  -9.8406     71.6159     56.7397   7.5138692257e+01   5.6922459069e+01    0.1773962    0.1264317 -48.83 0.0005684552    1.569    0.363
       133 -10.5814     32.6362     56.1104   9.0634098906e+01   6.2465814927e+01    0.2836541    0.1532383 -28.25 0.0007131587    1.953    0.488
       134 -10.3489     37.8715     48.8631   8.5922367012e+01   6.3249549235e+01    0.3039742    0.1861789  12.55  0.001630481    1.768    0.434
       135 -10.5467     96.3310     55.9479   6.6635189916e+01   5.2385807869e+01    0.2637038    0.1990771  44.39 0.0003943077    1.267    0.210
       136  -9.9527     93.5795     53.4573   6.6624965355e+01   5.3354211836e+01    0.2126426    0.1869576  40.80 7.578197e-05    1.102    0.092
       137 -10.9107    114.3417     53.5271   6.0725850548e+01   4.8903925509e+01    0.2734068    0.2434285  19.87 0.0005899704    1.165    0.142
       138 -12.2134     66.7511     52.7585   7.5526935793e+01   5.8438800299e+01    0.3930735    0.2112297  33.96 0.0006265472    1.846    0.458
       139 -10.0841    149.1992     52.0809   5.2325159335e+01   4.0970554139e+01     0.250888    0.1896776  58.65 0.0005947276    1.237    0.191
       140 -10.9730    105.9791     50.6503   6.2026527877e+01   5.1190925098e+01    0.2906742     0.201271 -29.15 0.0006052276    1.556    0.357
       141 -10.5925     14.3681     63.7117   1.0081663296e+02   6.2525711166e+01    0.3219453    0.1529863 -62.67 0.0009624644    2.018    0.504
       142 -10.2360      4.1181     51.0801   1.0218145784e+02   6.5766887122e+01      0.19573    0.1215506 -36.95 0.0006336299    1.316    0.240
       143 -10.5129      9.4500     47.9114   9.8771952838e+01   6.6062922177e+01     0.315989    0.1799376   1.44  0.001738139    1.899    0.473
       144 -10.6614    120.2831     49.1458   5.7785662739e+01   4.8222959383e+01    0.4042665    0.2384371 -63.28  0.001633168    2.767    0.639
       145  -9.5369     76.4533     49.5197   7.0857597720e+01   5.7294730354e+01    0.1348385    0.1223853   9.51 0.0001003608    1.012    0.012
       146  -9.3150    102.1526     48.3718   6.2324417246e+01   5.2362502487e+01    0.1881251    0.1270105  58.82 0.0005524165    1.576    0.365
       147  -9.8621     52.8405     47.9489   7.9228937773e+01   6.1436214376e+01    0.2482562    0.1546131  18.59  0.001285097    1.724    0.420
       148  -9.2683    154.5649     47.5033   4.9982882597e+01   4.0337312387e+01    0.1920716    0.1279542 -49.70 9.207572e-05    1.582    0.368
       149  -9.8547    152.2348     44.6328   4.9584470988e+01   4.1299035524e+01    0.1980571    0.1717743 -87.37 0.0001876487    1.146    0.128
       150  -9.9111    136.5487     46.8155   5.3332579062e+01   4.4757175144e+01    0.2606648    0.1854493  59.42 0.0007456754    1.305    0.234
       151  -9.6349     79.1212     45.8526   6.8603081102e+01   5.7386798850e+01    0.1841098    0.1819757 -82.15 0.0003820843    1.248    0.199
       152 -11.2903     18.3564     44.5675   9.3463683732e+01   6.6026671692e+01    0.3559456     0.244109  26.75  0.001960591    1.614    0.380
       153  -9.0949     36.5062     45.4817   8.5335529023e+01   6.4021126004e+01    0.1281806    0.1043151 -15.03 0.0001053356    1.055    0.052
       154 -10.3435     25.8964     43.9828   8.9681832427e+01   6.5441945230e+01    0.2227776    0.1759181 -57.99 0.0009131107    1.546    0.353
       155 -10.3505      3.2280     43.0005   1.0036945061e+02   6.7402014061e+01     0.363887    0.1088448 -40.05   0.00161746    2.690    0.628
       156  -9.8039     69.2486     41.9756   7.0634140225e+01   5.9778524239e+01     0.177661     0.157918  -4.22            0    1.062    0.059
       157 -10.2546     59.6106     41.8733   7.4243172256e+01   6.1411190453e+01    0.2372982    0.1628266  51.66 0.0007923823    1.864    0.464
       158 -10.0992     35.8595     41.5585   8.4198713829e+01   6.4787204316e+01    0.2549526     0.172364 -28.98  0.001263738    1.333    0.250
       159  -9.9109    229.8133    247.8778   7.9487692063e+01  -9.2915202329e+00    0.1688925    0.1259275  -0.71 0.0004726951    1.091    0.083
       160  -9.9021    139.2772     40.5794   5.0859904250e+01   4.4962046250e+01    0.2599396    0.1292427  64.74  0.000777057    1.984    0.496
       161  -9.4181     42.8217     40.6696   8.0756155540e+01   6.4064617050e+01     0.163747    0.1075323  36.38 0.0004639521    1.625    0.385
       162  -9.5692    152.0216     39.2509   4.8064834612e+01   4.2071915237e+01     0.197681    0.1664385  66.84 0.0008142277    1.082    0.076
       163 -11.7953    121.2137     37.3426   5.3697424664e+01   4.9646240506e+01     0.376932    0.3526587  29.68  0.001098382    1.099    0.090
       164 -10.1960     97.1997     37.3045   5.9828420276e+01   5.5002102961e+01    0.2575762     0.206118  21.55  0.001053092    1.276    0.216
       165 -10.3526     22.0789     38.0924   8.9429630441e+01   6.6869388375e+01    0.1782986    0.1509176 -16.97  0.000584154    1.079    0.074
       166  -8.7748    239.2882     37.3235   3.6504270181e+01   2.2419078510e+01    0.1043906   0.09680103  26.86 0.0003792199    1.605    0.377
       167  -9.4753    184.2920     36.1882   4.2264540826e+01   3.4727268005e+01    0.1826269    0.1535105  67.80 0.0006973605    1.166    0.142
       168 -11.4299     27.2804     34.3998   8.5516914329e+01   6.6977876658e+01    0.2874436    0.2025626 -13.23 0.0006889465    1.290    0.225
       169  -9.9271    133.6885     34.6267   5.0138623133e+01   4.7062017546e+01    0.1957111     0.134352  35.65 0.0007669995    1.629    0.386
       170  -9.2936     90.4633     35.4863   6.1129542047e+01   5.6655536066e+01      0.21198    0.1314173 -28.44 0.0003073223    1.735    0.424
       171 -10.4910     92.4758     32.5471   5.9442558481e+01   5.6624451898e+01    0.5180598    0.3326877  82.28  0.002213651    3.041    0.671
       172 -10.7668     48.2501     33.2907   7.5502023525e+01   6.4487646754e+01     0.408331     0.255558  32.39   0.00158757    1.525    0.344
       173 -10.3151      7.2108     34.1048   9.5540316090e+01   6.8804350030e+01    0.1792981    0.1604108   8.28 0.0008772055    1.324    0.245
       174  -9.4826    241.8208     33.1921   3.5449731485e+01   2.2438561492e+01    0.1417722    0.1309277 -74.28 0.0003667199    1.266    0.210
       175 -10.2874    225.1286    247.3792   8.0247408268e+01  -8.6329269591e+00    0.2130706    0.1553817 -28.28  0.001435785    1.395    0.283
       176  -9.7656     55.3471     33.0736   7.2471673198e+01   6.3438483166e+01    0.1692049    0.1378845 -13.65 0.0002988887    1.142    0.125
       177 -10.0737     17.5772     32.5661   8.9641563290e+01   6.8248031838e+01    0.3066657    0.1550908   0.89  0.001308245    2.464    0.594
       178 -10.9422    128.2796     39.0708   5.2680450311e+01   4.7771034554e+01    0.3509527    0.2098508 -48.29  0.001034192    1.921    0.480
       179 -11.6143     10.4690     29.8553   9.2321819264e+01   6.9312477500e+01       0.3074    0.1836511  32.31   0.00181458    1.998    0.500
       180 -10.0308    151.0612     29.5591   4.5417909817e+01   4.3510683391e+01    0.1826295     0.172952  88.71 0.0003459871    1.082    0.076
       181  -9.9467    126.9291     30.4515   5.0193698385e+01   4.9170477837e+01    0.2060187    0.1208984  59.62 0.0004143609    1.523    0.344
       182  -9.7082    141.0075     27.6576   4.6591860800e+01   4.6151285958e+01    0.3557964    0.1689921  87.61   0.00113728    4.428    0.774
       183  -9.0264     35.2789     28.4109   7.9287282714e+01   6.7001935170e+01    0.1302393   0.07912738 -12.11 0.0001509622    1.793    0.442
       184 -10.1255    113.8880     26.5177   5.1730687149e+01   5.2655455463e+01    0.2216113    0.1867083 -24.69 0.0005995239    1.324    0.245
       185 -10.4656    170.8354     40.1746   4.5222418741e+01   3.7413963983e+01    0.3771833    0.2310458  88.93   0.00161212    1.895    0.472
       186 -10.1548      2.7840     26.7090   9.5316277683e+01   7.0407214233e+01    0.1981408    0.1346349   2.25 0.0007142753    1.407    0.289
       187  -9.5174    170.7824    247.1575   9.0595709957e+01  -1.0320019941e+00    0.1725391    0.1320484   3.90 0.0006628081    1.347    0.258
       188  -9.8646     59.6308     25.7893   6.7766763408e+01   6.3752131211e+01    0.2013045    0.1539862 -35.82 0.0006366344    1.472    0.321
       189  -9.6216     52.8561     26.0934   7.0582084849e+01   6.4823515843e+01    0.1673502    0.1519733  10.30 0.0003107399    1.180    0.153
       190 -11.2961     15.0258     21.7512   8.6688128056e+01   7.0260551033e+01    0.4482766    0.2060639  31.30  0.002455013    2.308    0.567
       191 -11.9371     18.0905    248.8525   1.2155817374e+02   1.9714237887e+01    0.2938454    0.2456996 -44.24  0.002129668    1.857    0.461
       192 -10.5872     74.4975     21.9938   6.0881859036e+01   6.1531068475e+01    0.4210877    0.2339709  63.20  0.001941001    2.576    0.612
       193  -9.0915    116.2389    246.6268   1.0175384181e+02   7.3088736785e+00    0.1232388   0.08893126  68.92 0.0006923309    1.617    0.382
       194 -10.6855     70.3094     16.7017   6.0068049761e+01   6.2932254916e+01    0.2295156    0.1922504 -43.84   0.00141994    1.536    0.349
       195 -11.1317      5.6593    153.3651   1.1768016168e+02   4.2079409936e+01    0.5908402    0.1745772  17.30  0.002190433    4.729    0.789
       196 -10.5572    229.9570     21.4589   3.4067728429e+01   2.6318786711e+01    0.3162006    0.1685561 -81.30  0.001288992    1.897    0.473
       197 -10.0794     97.0726     22.0159   5.4241391756e+01   5.6904095001e+01    0.1901273    0.1637798  38.03  0.001186309    1.029    0.028
       198  -9.0734    100.8282     21.1577   5.2959364005e+01   5.6179414011e+01     0.251443    0.1331849  40.16  0.001209284    1.815    0.449
       199 -10.4610     54.6274     22.0367   6.8121913632e+01   6.5074850858e+01    0.2132263    0.1501425  26.97 0.0004574555    1.259    0.206
       200 -10.6168     30.0838     21.1931   7.8675792988e+01   6.8721336376e+01    0.2716789    0.1622691  24.69 0.0009035862    1.568    0.362
       201 -10.0535    181.4240     20.8290   3.8757075386e+01   3.7247480198e+01    0.1588523    0.1285023 -13.04 0.0006093535    1.654    0.395
       202  -9.7588    132.0146     20.5220   4.6015709868e+01   4.9084959227e+01     0.191014    0.1752866 -32.26 0.0006741968    1.239    0.193
       203  -9.5225     45.9828     20.7633   7.1149397540e+01   6.6602910079e+01    0.1736436    0.1382151  18.39  0.001037881    1.092    0.084
       204 -11.1526     38.2942     19.2499   7.3897104596e+01   6.7919301508e+01    0.2980953    0.2102581  46.59  0.001818176    1.862    0.463
       205  -8.9573      6.3217     20.6627   9.1037585178e+01   7.1171769674e+01   0.09479975   0.08948402  52.80 0.0002586197    1.712    0.416
       206 -11.1417    209.0394     18.2124   3.5216976486e+01   3.1212438913e+01    0.2045877    0.1622987 -55.92 0.0004643231    1.188    0.158
       207  -9.2165     61.5520     18.5187   6.3930836364e+01   6.4327641506e+01    0.1248371    0.1038173  18.38 3.471683e-05    1.008    0.008
       208  -9.3775    202.4700    240.4623   8.3358294847e+01  -4.6095916961e+00    0.1243948    0.1007448   9.31 0.0001389815    1.021    0.021
       209  -9.6227     35.9643    240.4666   1.1765072222e+02   1.9396647425e+01      0.17299   0.09934422  40.15 0.0005181205    1.552    0.356
       210  -9.7830    117.9971    239.7379   1.0054562804e+02   8.3148136639e+00    0.1773867   0.09823316  37.13 0.0008917206    1.549    0.355
       211  -9.3364    145.6542     17.1554   4.2661134096e+01   4.6180671577e+01    0.1563098    0.1253741  -4.29 0.0002330837    1.596    0.373
       212  -9.9027     91.0852    237.1723   1.0598866783e+02   1.2834455064e+01    0.1749965     0.168981  13.29 0.0005709904    1.270    0.213
       213  -9.1980     48.3497     13.9190   6.7045821318e+01   6.7089639506e+01    0.2067026    0.1209659   5.89  0.001082343    2.074    0.518
       214 -10.6221    202.6915     16.1354   3.5352884419e+01   3.2865791830e+01    0.2051921    0.1298596 -60.52 0.0008482707    1.453    0.312
       215 -11.2438     25.3046    235.9946   1.1944927639e+02   2.1496231446e+01    0.2127011    0.1580629  39.79  0.000672147    1.384    0.278
       216  -9.7790    249.3190    233.9172   7.3836775067e+01  -9.8432142427e+00    0.1600809    0.1190481 -11.04 0.0004824795    1.080    0.074
       217  -9.5234     27.1096     16.7227   7.8140865919e+01   6.9716958319e+01     0.207761    0.0896985  37.15  0.001011078    2.416    0.586
       218 -10.8121    217.3429     14.9870   3.3772899904e+01   2.9754310695e+01    0.1689816    0.1366621 -63.86 0.0005577664    1.109    0.099
       219  -9.4521     98.9556     14.7679   5.1059760292e+01   5.7250558690e+01    0.1823016    0.1275335  21.83 0.0006522354    1.577    0.366
       220 -10.6277    222.1887     13.7957   3.3118338035e+01   2.8844989981e+01    0.1496196    0.1340906  74.07 0.0004341191    1.326    0.246
       221 -12.0161      3.9599    232.7232   1.2336394460e+02   2.4332394794e+01    0.2926391    0.2087769  85.72  0.002076191    1.173    0.148
       222 -12.7993      9.7087    228.6336   1.2205562692e+02   2.4617262350e+01    0.5537835    0.3259315  82.33  0.003469839    1.432    0.302
       223 -10.9551      2.4809    220.4235   1.2302793406e+02   2.7013844175e+01    0.3074013    0.1360799 -88.63  0.001644838    1.995    0.499
       224  -9.2562    243.2047    230.3719   7.4287515484e+01  -8.6149468720e+00    0.1474827   0.09991898  33.81 0.0008470081    1.597    0.374
       225  -9.3915     47.7809    229.8288   1.1445795845e+02   2.0175874960e+01    0.1724895    0.1130571  62.02  0.001017681    1.316    0.240
       226 -10.9520      1.5109    224.9571   1.2344681441e+02   2.6154586773e+01    0.2883107    0.1496347  62.87  0.001412448    1.568    0.362
       227  -9.7543    209.4844    229.5196   8.0246220418e+01  -3.9597789449e+00    0.1257644    0.1040177   5.25 1.770707e-05    1.002    0.002
       228  -9.4093      7.5943     14.1893   8.7575448657e+01   7.2087362489e+01    0.1419374     0.081161 -29.72 9.220468e-05    1.452    0.311
       229 -10.6595    140.2616    228.0957   9.4184583881e+01   7.0046363764e+00    0.3173735    0.1886724 -65.81  0.001509334    2.343    0.573
       230  -9.9314    223.0522    226.7638   7.7255592071e+01  -5.4518131046e+00    0.1721266    0.1367211   5.67 0.0004209003    1.057    0.054
       231  -9.2706    233.2403    218.9688   7.4083329791e+01  -5.6931103843e+00    0.1501735   0.09193561 -33.82 0.0004285731    1.534    0.348
       232 -10.4770      8.4645    218.0787   1.2171193232e+02   2.6955310521e+01    0.2253424    0.1889003  40.42  0.001440751    1.380    0.275
       233  -9.7859     15.4227    213.2487   1.1999330279e+02   2.7325918633e+01     0.163442   0.09352314  84.16 0.0002974256    1.541    0.351
       234  -9.8521    205.5091    212.4906   7.8092103905e+01  -6.6501361959e-01    0.1309207    0.1123787   1.84 8.718302e-05    1.006    0.006
       235  -9.0734    249.3355    211.3335   6.9971789540e+01  -6.7157148927e+00    0.1274676    0.0786545  -5.49 0.0007052154    1.738    0.425
       236  -9.4985    209.4683    211.4758   7.7150336215e+01  -1.1032081458e+00    0.1294691    0.1118516   0.41 0.0001349686    1.017    0.016
       237  -9.8982      3.7448     10.5829   8.8224930323e+01   7.2945770282e+01    0.1247451   0.09151492  16.37  0.000261234    1.405    0.288
       238  -9.9568      3.3044    211.6479   1.2239036235e+02   2.8812834523e+01    0.1286324   0.06502178  65.52 0.0006059593    1.706    0.414
       239  -9.6351     20.2099    209.7451   1.1874671045e+02   2.7617537281e+01    0.1981648    0.1160103  56.41  0.000933456    1.482    0.325
       240  -9.2471     10.6822    203.7028   1.2037125826e+02   2.9885097309e+01     0.109777   0.08569878 -52.08 0.0007017577    1.612    0.380
       241  -9.5032    193.5087    202.4672   7.8668752756e+01   2.9610059376e+00    0.1345501    0.1212841   4.70 0.0001945503    1.023    0.023
       242 -10.1828      3.5060    201.5278   1.2176101100e+02   3.1014063888e+01     0.118113   0.09476808  83.33 0.0001520075    1.063    0.059
       243 -10.1850     23.7297    196.6825   1.1698579814e+02   3.0209119484e+01    0.3551273    0.1912973 -40.75  0.001655384    2.957    0.662
       244 -10.0823      1.4250    191.6826   1.2160270279e+02   3.3400522794e+01    0.2635989    0.1091074  84.88 0.0009823834    2.339    0.572
       245  -9.9004      5.7773    191.9977   1.2066453543e+02   3.2962967406e+01    0.2259426    0.1753678 -69.51  0.001505615    1.306    0.234
       246  -9.7462     13.9102    192.6305   1.1889206828e+02   3.2093212933e+01    0.1669923    0.1274522  60.48 0.0005397982    1.183    0.155
       247 -10.2833      4.2207    167.5877   1.1925275449e+02   3.8778872681e+01    0.1478094    0.1214081  -2.04 0.0009553499    1.678    0.404
       248  -9.6316    226.4382    163.9982   6.4975486448e+01   4.2945566170e+00    0.2051971    0.1191208 -37.62 0.0006776432    1.552    0.356
       249  -9.3483     22.2108    160.5609   1.1402400566e+02   3.8969250957e+01    0.1550356    0.1280046  -3.16 0.0009354252    1.611    0.379
