#   1 NUMBER                 Running object number                                     
#   2 MAG_AUTO               Kron-like elliptical aperture magnitude                    [mag]
#   3 X_IMAGE                Object position along x                                    [pixel]
#   4 Y_IMAGE                Object position along y                                    [pixel]
#   5 X_WORLD                Barycenter position along world x axis                     [deg]
#   6 Y_WORLD                Barycenter position along world y axis                     [deg]
#   7 A_WORLD                Profile RMS along major axis (world units)                 [deg]
#   8 B_WORLD                Profile RMS along minor axis (world units)                 [deg]
#   9 THETA_WORLD            Position angle (CCW/world-x)                               [deg]
#  10 FWHM_WORLD             FWHM assuming a gaussian core                              [deg]
#  11 ELONGATION             A_IMAGE/B_IMAGE                                           
#  12 ELLIPTICITY            1 - B_IMAGE/A_IMAGE                                       
         1 -14.1998    215.2370      4.2391   4.3230942352e+01   2.9871463622e+01     1.893807    0.9627296  69.21  0.006681505    2.029    0.507
         2 -15.2376    191.2486     33.2395   5.4508871769e+01   3.2881148805e+01     3.519885     1.968244  17.71   0.01355293    2.668    0.625
         3 -13.0104     42.2582      4.4033   8.0873120621e+01   7.1953988147e+01    0.5254123    0.4295418  -8.96  0.002015921    1.103    0.093
         4 -10.0937     80.9292    220.4980   1.1723838512e+02   2.1627396066e+01    0.1635348   0.08385126  38.32 0.0004847508    1.541    0.351
         5 -16.9284     70.2957    145.1051   1.1195806989e+02   3.6989114448e+01     14.60306     6.448443  76.56   0.03845252    7.253    0.862
         6 -12.9008     54.0842    210.2563   1.2159358121e+02   2.6376217400e+01    0.4238332    0.1442158  52.11  0.002197415    2.412    0.585
         7 -12.1682     48.4990    206.2341   1.2241872776e+02   2.7662703346e+01    0.2011323    0.1653251  68.31  0.000645257    1.125    0.111
         8 -10.2577     32.6911    211.7015   1.2572443095e+02   2.8339880013e+01   0.09733059   0.06864071  57.60 0.0007414078    1.039    0.037
         9 -11.6228     70.6793    210.0114   1.1837901500e+02   2.4534011667e+01    0.1824461    0.1228179  46.78 0.0002763487    1.159    0.137
        10 -10.5305     37.1292    206.6127   1.2463207219e+02   2.8770729451e+01    0.1613744   0.08200353  42.64    0.0010465    1.520    0.342
        11 -12.6500    132.7558    202.7599   1.0554296942e+02   1.7457712117e+01    0.3985874    0.2666294 -83.90  0.002263188    2.587    0.613
        12 -12.0553     36.4482    200.0446   1.2441294071e+02   2.9988049351e+01    0.1738562    0.1317754  50.00 0.0004343115    1.132    0.117
        13  -9.0144     71.3317    204.6187   1.1783044916e+02   2.5361948357e+01    0.1225984     0.064354  61.22 0.0006254803    1.866    0.464
        14 -10.1791     81.7564    195.4263   1.1493212993e+02   2.5663213011e+01    0.2211574    0.1993384  -5.22  0.001619915    1.525    0.344
        15 -12.5885    150.2878    190.0927   1.0043161713e+02   1.6729229374e+01    0.5381964    0.3594121  85.54  0.002538764    3.522    0.716
        16 -13.0416     69.6160    189.0511   1.1686820436e+02   2.8311032457e+01    0.5719244    0.5406581  84.75  0.003208844    1.239    0.193
        17 -16.8600     57.9119    248.3129   1.2307163228e+02   2.0103042363e+01     7.139254     2.156502  27.21   0.02553605    7.006    0.857
        18 -10.8918     60.0451    217.0507   1.2090050503e+02   2.4595941692e+01    0.2287173    0.1380181 -89.34  0.001267382    1.809    0.447
        19 -10.6155     48.3776    217.1118   1.2308176746e+02   2.5849166563e+01    0.2643733    0.1397676  49.04   0.00142717    1.403    0.287
        20 -11.9939    192.9438    194.6790   9.3207619710e+01   9.5129250795e+00     0.868153    0.5493217 -63.85  0.003756227    5.001    0.800
        21 -10.8763     39.1205    212.5907   1.2456526101e+02   2.7553343267e+01    0.1881719     0.100308  42.85 0.0005597504    1.441    0.306
        22 -11.8363     44.2202    213.4675   1.2365528864e+02   2.6885796403e+01    0.2712729    0.1135543  52.67   0.00118202    1.843    0.457
        23 -11.8311     99.4340    180.7555   1.0964193857e+02   2.5902773802e+01    0.2357801     0.196822  63.48 0.0006235974    1.136    0.120
        24 -11.1209    149.1368    180.1726   9.9175969377e+01   1.8432186974e+01    0.1990762     0.182424  80.02 0.0007482306    1.361    0.265
        25 -12.7879    135.3757    199.0617   1.0456802845e+02   1.7632199721e+01    0.3182669    0.2723374 -87.88    0.0022387    1.515    0.340
        26  -9.4532    169.3666    178.1319   9.4870422449e+01   1.5462971665e+01    0.1538117     0.117415 -52.27 0.0006160876    1.715    0.417
        27  -9.2827     68.4329    177.4936   1.1605187263e+02   3.0618670498e+01    0.1187828   0.09686472  61.87 0.0001282321    1.032    0.031
        28 -10.3906     48.4255    172.4238   1.2004881848e+02   3.3929844888e+01     0.210472    0.1923276  -2.71  0.001530377    1.534    0.348
        29 -10.5907    164.4598    170.9236   9.4614378702e+01   1.7354924198e+01    0.2091506    0.1910618  70.59  0.000736784    1.404    0.288
        30 -10.2265    201.5157    169.4738   8.7399141113e+01   1.1368234470e+01    0.2120622    0.2038292  -9.24  0.001087322    1.354    0.262
        31 -10.6378    204.8584    166.3162   8.6225417213e+01   1.1228555511e+01    0.3495288    0.2375196 -33.01   0.00166066    1.585    0.369
        32 -11.3584    193.0984    165.3125   8.8148704477e+01   1.3333758201e+01    0.3723038    0.2726181 -48.67  0.001329264    1.849    0.459
        33 -19.3825     15.7087    130.5847   1.2480055681e+02   4.5935933008e+01     17.48231     1.961475 -79.05   0.03970365   10.202    0.902
        34  -9.9421     61.1746    187.4597   1.1850965635e+02   2.9606907621e+01     0.226109      0.20143  50.25   0.00145073    1.187    0.158
        35 -10.4691    159.2494    162.6208   9.4210056430e+01   1.9547650248e+01    0.2203839    0.1544797 -14.87 0.0007336395    1.788    0.441
        36  -8.9154    117.2754    161.6743   1.0308125709e+02   2.6734544351e+01    0.1268103   0.09505671  71.42 0.0003787529    1.585    0.369
        37 -12.7567     96.6329    153.8840   1.0668913465e+02   3.1446437716e+01    0.5915895    0.4602312 -26.63  0.003386507    1.748    0.428
        38 -10.8791    189.3168    154.9723   8.6877666298e+01   1.5453056007e+01    0.3845002    0.2622127  44.95  0.001863024    1.481    0.325
        39 -11.5701    133.8559    145.4642   9.6541086496e+01   2.6985765263e+01     1.027183    0.2915565 -54.62  0.002932373    5.640    0.823
        40 -10.2329    113.2433    151.3498   1.0235494783e+02   2.9355479925e+01    0.2429674     0.202089  85.36 0.0007532146    1.358    0.264
        41 -10.2458    174.5355    148.8451   8.8518504233e+01   1.9036831778e+01    0.2397313     0.212575  70.69 0.0007578703    1.487    0.328
        42  -9.7537    159.7840    146.8658   9.1137916426e+01   2.2057918097e+01    0.1755125    0.1608614  80.72 0.0005898684    1.367    0.268
        43 -11.2093    143.8576    146.6062   9.4515509278e+01   2.4994307855e+01    0.2646114    0.2050193 -53.07  0.001478075    1.456    0.313
        44 -11.6373     44.4643    210.4922   1.2344367118e+02   2.7360422339e+01    0.2501249    0.1138221  46.67 0.0009864046    1.627    0.385
        45 -11.8338    107.8106    139.6943   1.0166843397e+02   3.2578028139e+01     0.523115    0.3173223 -34.32  0.002424387    2.248    0.555
        46 -12.5433     96.0367    139.5123   1.0458013455e+02   3.4499816422e+01    0.2705886    0.2629786  84.49 0.0004242371    1.076    0.071
        47  -9.7096    128.2536    139.3969   9.6682535018e+01   2.9132839389e+01    0.1945525    0.1215656  49.17  0.000943779    1.589    0.370
        48 -11.3220    106.0591    130.8270   1.0048270397e+02   3.4711634337e+01    0.3911796    0.3225291  75.74  0.001154164    1.328    0.247
        49 -11.2245    102.6976    126.0823   1.0044120199e+02   3.6282423498e+01    0.2802763    0.2334709 -24.81  0.001069973    1.460    0.315
        50 -11.1135    115.0390    129.9943   9.8048087630e+01   3.3345338318e+01      0.31198    0.2594654 -10.88 0.0009542059    1.505    0.335
        51 -10.8503    135.8014    128.3857   9.2663257789e+01   2.9882033609e+01    0.3909819    0.1812734 -48.61  0.001605633    2.291    0.563
        52 -10.2300    160.4526    127.6926   8.6954247678e+01   2.5241907793e+01    0.3060536    0.1992732 -59.42  0.001387167    2.166    0.538
        53 -10.9673    120.1166    124.1272   9.5570698723e+01   3.3643717054e+01    0.3099691     0.218069 -16.66  0.001432563    2.091    0.522
        54 -10.0506    135.0000    120.4006   9.1093320162e+01   3.1589973546e+01    0.3045916   0.08132101 -45.42 0.0009229978    3.841    0.740
        55 -10.1204    110.2207    119.0454   9.7029381544e+01   3.6487209362e+01    0.2219971    0.1930927  44.98 0.0002653621    1.133    0.117
        56 -10.0910    168.0175    112.9663   8.1882398225e+01   2.6275902479e+01    0.3343545    0.2424969 -79.85  0.001465445    2.423    0.587
        57  -9.7062    135.0000    112.9578   8.9356817057e+01   3.3054656397e+01    0.2397291   0.08225597 -44.44 0.0008040805    2.954    0.661
        58 -11.4289    119.5096    110.5050   9.2673964448e+01   3.6576062049e+01    0.5371231    0.3221006  52.01  0.002405145    1.786    0.440
        59 -10.3249    205.6182    110.1014   7.4012487337e+01   1.8940506710e+01    0.2561016    0.1909026  32.58 0.0006081997    1.329    0.248
        60  -9.1116     98.2915    213.6634   1.1337323312e+02   2.0524563347e+01    0.1129204   0.06977606  60.48 0.0007024115    1.641    0.390
        61 -10.3491     41.7226     91.9500   1.1234180593e+02   5.2722653299e+01    0.2001522    0.1887021  55.90 0.0004368823    1.172    0.147
        62 -13.5252     60.2244    203.4111   1.1993432235e+02   2.6861112040e+01     0.489386    0.4109509  79.44  0.002824025    1.194    0.163
        63 -10.1798     70.3342     72.1696   9.7651560688e+01   5.3769211558e+01     0.231166    0.1974556  51.94 0.0004130827    1.279    0.218
        64 -11.8242    164.8918     65.4017   6.9161717445e+01   3.5034063613e+01    0.4823343    0.3803091 -55.83  0.000785513    1.434    0.303
        65 -10.6651     60.5790    230.4294   1.2163111190e+02   2.2432183472e+01    0.1504777   0.09537607  67.77 0.0006344339    1.449    0.310
        66 -13.6267    176.0896     48.1282   6.1559899875e+01   3.4820358655e+01    0.9281551    0.7384793  -7.67 0.0008405658    1.308    0.236
        67 -10.5342     72.1612    230.3120   1.1955066793e+02   2.1154419079e+01    0.1488819   0.09018803  51.30 0.0005014655    1.258    0.205
