#   1 NUMBER                 Running object number                                     
#   2 MAG_AUTO               Kron-like elliptical aperture magnitude                    [mag]
#   3 X_IMAGE                Object position along x                                    [pixel]
#   4 Y_IMAGE                Object position along y                                    [pixel]
#   5 X_WORLD                Barycenter position along world x axis                     [deg]
#   6 Y_WORLD                Barycenter position along world y axis                     [deg]
#   7 A_WORLD                Profile RMS along major axis (world units)                 [deg]
#   8 B_WORLD                Profile RMS along minor axis (world units)                 [deg]
#   9 THETA_WORLD            Position angle (CCW/world-x)                               [deg]
#  10 FWHM_WORLD             FWHM assuming a gaussian core                              [deg]
#  11 ELONGATION             A_IMAGE/B_IMAGE                                           
#  12 ELLIPTICITY            1 - B_IMAGE/A_IMAGE                                       
         1  -9.8102     40.7629     12.6830   7.5686219815e+01   6.8463341457e+01    0.2325101    0.1427738 -26.06  0.001390115    1.448    0.309
         2  -9.5079     85.1847     11.3986   5.8995440696e+01   6.0904568326e+01    0.1784469    0.1202201  63.35 0.0009584907    1.752    0.429
         3  -8.9260    103.6465      9.3221   5.3328344279e+01   5.7166331578e+01    0.1282636    0.1001991 -68.18 0.0007047093    1.756    0.430
         4 -10.0719     57.3452      9.9126   6.7499336268e+01   6.6249104397e+01    0.2056334    0.1617452  41.41  0.001324072    1.390    0.280
         5  -9.6315     35.6692      7.1190   7.5151508763e+01   6.9869094557e+01    0.2326121    0.0914732 -38.36  0.001107359    2.667    0.625
         6  -9.8895     71.5482      6.7555   6.1022362385e+01   6.4042117743e+01    0.2329701    0.1578336  45.08   0.00101784    1.379    0.275
         7  -9.8429    144.5113      4.5159   4.3882549971e+01   4.7962994016e+01    0.1320177    0.1176243  64.46 0.0008103722    1.001    0.001
         8  -9.1583     24.3365      4.6780   7.9354769179e+01   7.1609928370e+01   0.09621074   0.09067171 -31.40 0.0003686514    1.711    0.416
         9 -10.1733    169.6117      2.8043   4.0025697278e+01   4.1946428244e+01    0.1806895    0.1115725 -40.28 0.0009483555    1.675    0.403
        10 -10.1148    183.3366      4.3115   3.8914530459e+01   3.8450521318e+01    0.1332994   0.09006213  43.73 0.0004644551    1.686    0.407
        11 -10.9458    164.0083    225.7510   9.6438138399e+01   4.1346557924e+00    0.3485114    0.2595198  50.25    0.0018175    1.361    0.265
        12 -11.5208     99.4648    226.0431   1.0943310740e+02   1.4415141833e+01    0.3295442    0.2357465  31.50  0.001904474    1.521    0.343
        13 -10.1916    116.5324    227.5025   1.0618545140e+02   1.1522920328e+01    0.1265651    0.1087394  52.36 5.252519e-05    1.013    0.013
        14 -11.7906    125.9188    221.1219   1.0345420354e+02   1.1210301971e+01    0.3157144    0.2868163 -22.91 0.0008661078    1.355    0.262
        15  -8.9728    157.6432    221.7170   9.7093223705e+01   5.8684166034e+00    0.1309176   0.09565011  10.95  0.000701798    1.668    0.400
        16 -10.0124    108.8543    222.8774   1.0716342376e+02   1.3586199054e+01    0.1889326    0.1736519  24.70  0.001243147    1.285    0.222
        17  -9.6772     75.0377    220.0000   1.1367605425e+02   1.9126888437e+01    0.1981618   0.06275964  37.39 0.0007994059    2.921    0.658
        18  -9.2588    143.6601    217.3111   9.9270857189e+01   8.9859487549e+00    0.1340977   0.09631296  66.16 0.0007045435    1.693    0.409
        19 -10.3564    131.5007    214.7030   1.0140418233e+02   1.1499521780e+01    0.2176888    0.1906471 -20.16 0.0009171253    1.404    0.288
        20  -9.8119    100.2797    207.2838   1.0697872188e+02   1.8012524787e+01    0.2861236    0.1271745  55.64  0.001176666    2.551    0.608
        21 -10.1695     89.3696    199.7956   1.0836777035e+02   2.1257336098e+01    0.2923855    0.1731002  61.76  0.001293769    1.775    0.437
        22 -11.6078    173.4349    195.0326   8.9387917438e+01   7.8694287216e+00    0.4841036    0.3245319 -38.15  0.001972847    1.578    0.366
        23  -9.9005    126.6627    197.4745   9.9844241090e+01   1.5711488786e+01    0.2411985    0.2168883 -48.44  0.001435307    1.219    0.180
        24  -9.8218     67.1988    195.3635   1.1267182321e+02   2.5391162966e+01    0.2950606    0.1140164  55.91  0.001157084    2.966    0.663
        25  -9.4673     44.5041    194.4768   1.1746355676e+02   2.8448015659e+01    0.1265707    0.1001065  78.18  0.000196215    1.035    0.034
        26  -9.7396    113.3869    198.5971   1.0293313532e+02   1.7715509907e+01    0.2752242   0.09452256  49.99 0.0009501722    3.212    0.689
        27  -9.9724     87.9895    189.9933   1.0737997774e+02   2.3604561173e+01    0.2308171    0.1463428  68.57  0.001137073    1.749    0.428
        28  -9.7574    156.8646    188.1222   9.1639853730e+01   1.2204685937e+01     0.218512    0.1922301  63.58  0.001227118    1.247    0.198
        29 -11.7028     96.9497    187.8304   1.0503970096e+02   2.2697594416e+01    0.5988994    0.2168425  46.41  0.002290562    2.657    0.624
        30  -9.9906     56.4276    188.1465   1.1423155712e+02   2.8409043618e+01     0.265505    0.1300766  64.54  0.001194329    2.332    0.571
        31  -9.2479    121.0000    187.0041   9.9426685627e+01   1.8884259939e+01    0.2219718   0.07957432 -54.60 0.0007975281    2.909    0.656
        32 -10.7400    110.3286    186.6947   1.0180966362e+02   2.0769048885e+01    0.3176976    0.2140138  71.55  0.001530845    1.795    0.443
        33 -10.5279     13.5745    184.6825   1.2313393515e+02   3.3838267202e+01    0.2372409    0.1990249 -31.80  0.001642804    1.811    0.448
        34  -9.3656     44.7992    182.7733   1.1624052580e+02   3.1038756204e+01    0.2009759    0.0740755  45.17 0.0008791412    2.508    0.601
        35  -9.8532    148.4602    181.5177   9.2269596976e+01   1.5089720296e+01    0.1419607    0.1358253  47.69 5.772232e-05    1.027    0.026
        36 -10.8163     77.8672    176.5152   1.0785550094e+02   2.8168101247e+01    0.5164666     0.171151  48.86  0.001842086    3.223    0.690
        37 -10.0397    211.9402    183.1702   7.9411111722e+01   3.0493838433e+00    0.2680522     0.178506  18.21    0.0013461    1.654    0.395
        38 -10.0905    204.6928    175.7071   7.9293746541e+01   5.6382139318e+00      0.26281    0.1622796 -27.78  0.001247764    1.676    0.403
        39 -10.1466    106.6843    175.9799   1.0092912324e+02   2.3766435947e+01    0.3088886    0.1561475  59.84  0.001176645    2.673    0.626
        40  -9.3281     45.3378    172.6733   1.1502519275e+02   3.3308594328e+01     0.139503   0.08323622  69.91 0.0007051652    1.726    0.421
        41  -9.8305    122.5254    170.5108   9.6207562696e+01   2.2234768306e+01    0.3395916    0.1830781  63.08  0.001247325    2.838    0.648
        42 -10.3183    208.1537    170.2744   7.7494326653e+01   5.9586388309e+00     0.227637     0.166265  17.70 0.0007381378    1.475    0.322
        43  -9.3519     75.6541    169.3048   1.0735063301e+02   3.0175951825e+01    0.1464699   0.09599675  70.43 0.0006441225    1.692    0.409
        44  -9.9468     55.9608    170.2037   1.1222469759e+02   3.2610877800e+01    0.2306449    0.1242707  61.59  0.001075202    2.046    0.511
        45  -9.7426    112.2431    167.6718   9.8160155806e+01   2.4706820241e+01    0.3616428    0.2011826  76.52  0.001155412    4.038    0.752
        46 -10.1369    101.4496    167.2990   1.0072355096e+02   2.6637565018e+01    0.4568098    0.1356723  46.72  0.001440728    3.591    0.721
        47  -9.7615    140.3448    166.1679   9.1171332977e+01   1.9876332038e+01    0.3376877    0.1647253  60.07  0.001091694    3.496    0.714
        48 -10.2328     80.8764    165.1050   1.0543235157e+02   3.0407076389e+01    0.4553243    0.2289934  71.40  0.001549653    3.726    0.732
        49  -9.5418     38.3871    165.2131   1.1582149580e+02   3.5839163862e+01    0.1828343    0.1049776 -84.30 0.0004958289    1.616    0.381
        50  -9.8417    148.3148    164.0218   8.8887394959e+01   1.8799179080e+01    0.2079493    0.1969896 -55.32 0.0006552782    1.079    0.073
        51  -9.5271     70.3541    163.6784   1.0782494269e+02   3.2262698983e+01    0.1484809   0.09560333  71.16 0.0007046779    1.756    0.431
        52 -10.3286     93.9254    161.1223   1.0152103965e+02   2.9325783574e+01    0.3617733     0.181908  48.75  0.001518017    2.065    0.516
        53  -9.4666     62.8166    161.2370   1.0934648689e+02   3.3867620898e+01    0.2412017    0.1231993  68.79 0.0009515731    2.793    0.642
        54  -9.1613      9.9899    161.6815   1.2210400451e+02   3.9350234630e+01    0.1908102   0.04615364  49.09 0.0007032193    4.168    0.760
        55  -9.2964     23.9981    160.3307   1.1872016511e+02   3.8440165371e+01    0.2052979   0.05180638  49.35  0.000705207    4.367    0.771
        56 -10.4020    107.4306    159.1454   9.7781435329e+01   2.7523912622e+01    0.5214637    0.1799671  46.33  0.001754928    3.034    0.670
        57  -9.9233    120.6520    156.3918   9.3958181873e+01   2.5789683051e+01    0.3330736    0.2081436  77.48  0.001254829    2.740    0.635
        58 -10.4734     51.0519    156.2282   1.1160189324e+02   3.6550679243e+01    0.4393829    0.1879875  59.00  0.001676198    3.190    0.687
        59 -10.1408    219.0382    156.0334   7.2385167597e+01   6.4359181662e+00    0.2116337    0.1946337 -16.64 0.0004161159    1.055    0.053
        60 -10.4466     83.1627    155.6704   1.0331523382e+02   3.2322371669e+01    0.4590354    0.1964895  56.42  0.001571862    3.387    0.705
        61 -10.0260    213.4867    155.5217   7.3305102796e+01   7.5811354201e+00    0.2449792    0.1292221  32.99  0.001023977    2.179    0.541
        62 -10.2492     69.1174    154.7312   1.0677334689e+02   3.4590291854e+01    0.3583294    0.1882881  50.40  0.001501282    2.025    0.506
        63 -10.2936    134.7366    154.0988   9.0035927781e+01   2.3635359967e+01    0.3628593    0.2116022  57.25  0.001464904    2.085    0.520
        64 -10.0193     99.3638    151.7047   9.8425986277e+01   3.0670665419e+01    0.2784573    0.1704753  51.40   0.00114378    1.730    0.422
        65  -9.3833    191.6536    151.3253   7.6648930402e+01   1.2677816983e+01    0.1484142    0.1204183 -83.34 0.0007050047    1.745    0.427
        66  -9.5338     29.8424    151.1437   1.1629883129e+02   4.0067124092e+01    0.3187425    0.1107693  53.80  0.001197242    3.650    0.726
        67 -10.5336     40.3674    148.3360   1.1327205449e+02   3.9672100290e+01    0.4697336    0.2015903  55.77  0.001933875    2.889    0.654
        68 -10.9663    108.6330    146.4039   9.4980550068e+01   3.0320553909e+01    0.6816646    0.3554539  65.15  0.002213282    3.621    0.724
        69 -11.0746     57.3624    146.6606   1.0858307028e+02   3.8107653481e+01    0.5908331    0.2747459  60.77  0.002244163    3.133    0.681
        70 -10.5859    150.0932    146.0253   8.4593306114e+01   2.2351937170e+01    0.4800469    0.3034622  70.89   0.00181042    2.615    0.618
        71  -9.7615     14.1648    146.6987   1.1972236374e+02   4.2516937899e+01    0.2235589   0.08793795  36.95  0.001075709    2.647    0.622
        72 -10.2938    126.3891    144.2544   8.9982844892e+01   2.7505550553e+01    0.4783709    0.2947639  80.95  0.001622252    3.362    0.703
        73 -10.4464     89.5203    144.8315   9.9693588403e+01   3.3951710616e+01    0.4637367    0.2108746  47.60  0.001811715    2.382    0.580
        74 -10.4770    197.3108    143.3615   7.3689303159e+01   1.3054234873e+01    0.2826549     0.248734 -30.19   0.00063372    1.075    0.070
        75 -10.1787    215.2260    141.2012   6.9764302185e+01   9.8245595107e+00    0.2409851    0.2353609   4.44 0.0006333641    1.114    0.102
        76 -10.4529     24.0587    138.8280   1.1631514796e+02   4.3566021487e+01    0.4252915    0.1951619  63.86  0.001824895    2.885    0.653
        77 -10.2485     39.7872    136.5493   1.1178864314e+02   4.2607272544e+01    0.3066474    0.1800123  58.77  0.001245736    1.954    0.488
        78 -10.4379    114.4695    134.4107   9.0865979412e+01   3.2089135666e+01     0.451655    0.2167034  58.65  0.001458149    3.359    0.702
        79 -11.2352     85.0049    132.6542   9.8509818501e+01   3.7639003594e+01    0.6550323    0.2961047  51.58  0.002419825    2.779    0.640
        80 -10.7933    133.8326    132.7872   8.5484286153e+01   2.8652187866e+01    0.4560387    0.2746173  57.98  0.001830669    2.032    0.508
        81 -10.0405    144.4321    132.6197   8.2817880988e+01   2.6489606272e+01    0.3133181    0.1357383  56.35 0.0009548323    3.398    0.706
        82 -10.9905    100.9035    129.4169   9.3400520210e+01   3.5759681975e+01    0.6713393    0.3555213  62.44  0.002311693    3.187    0.686
        83 -10.1851     13.6087    130.2770   1.1807215820e+02   4.6473868553e+01    0.3312573    0.1712485  63.67  0.001642157    2.290    0.563
        84  -9.7523    170.2042    130.8151   7.6384987437e+01   2.1333095626e+01    0.3419631    0.1187704  52.35  0.001013857    3.510    0.715
        85  -9.5304    153.9891    130.5002   8.0011522079e+01   2.4919124707e+01    0.2217717    0.1385694  69.51  0.000810369    2.544    0.607
        86 -10.8386     74.1614    130.2877   1.0108455555e+02   3.9864897091e+01    0.3923517    0.1725762  49.48  0.001486781    2.750    0.636
        87  -9.1680      2.3165    130.6413   1.2110845502e+02   4.7172812812e+01    0.1278527   0.07482324  72.80 0.0007043903    1.754    0.430
        88 -10.5430    120.2648    126.8837   8.7574531787e+01   3.2735875025e+01    0.7546082    0.3301938  57.97   0.00217117    4.166    0.760
        89 -11.3173     60.8231    125.3822   1.0396694188e+02   4.2903490537e+01     0.625867    0.3440147  62.38  0.002582272    2.637    0.621
        90 -11.1615     45.2901    124.1754   1.0827588895e+02   4.5054124334e+01    0.7367575    0.3755873  67.57  0.002847438    3.286    0.696
        91  -9.7857    181.2834    125.8466   7.2768780522e+01   1.9918504269e+01    0.3011142    0.1864072  63.34  0.001211634    2.135    0.532
        92 -11.0954     29.4770    123.3676   1.1272875605e+02   4.6832957391e+01    0.7188914    0.3327441  73.97  0.002554837    4.124    0.757
        93  -9.8500    160.4874    122.7676   7.6566718357e+01   2.5157118558e+01    0.3297342    0.1249663  57.10 0.0008876483    4.288    0.767
        94 -10.7404    143.0679    120.2864   8.0083638867e+01   2.9509283875e+01    0.4569933    0.3253118  76.01  0.001576435    2.014    0.503
        95 -10.1348     72.4278    120.9432   9.9671902416e+01   4.2406065917e+01    0.4417736    0.1980409  50.15    0.0016648    2.846    0.649
        96 -10.2712    132.3562    119.7274   8.2639511364e+01   3.1914914647e+01    0.5598701    0.2772179  62.34  0.001690415    3.762    0.734
        97 -10.4450      4.1596    118.3505   1.1927069512e+02   4.9961045086e+01    0.3642637    0.1624301  59.02  0.001677294    2.928    0.658
        98 -10.7236    110.5451    115.6203   8.7428549936e+01   3.7246611780e+01    0.5589917    0.3578021  78.95  0.002026617    2.949    0.661
        99 -11.2766     95.3279    113.9002   9.1325587685e+01   4.0445189750e+01    0.7083191    0.3134026  46.37  0.002637276    2.523    0.604
       100 -10.9548     80.4796    113.9970   9.5732190069e+01   4.2882013186e+01    0.5493867    0.3515291  67.40  0.002332045    2.312    0.568
       101 -10.3822    124.1706    113.3610   8.3133554319e+01   3.5051350547e+01    0.5761138    0.1914866  43.97  0.001802396    3.119    0.679
       102 -10.9188     68.1689    111.9123   9.8986436604e+01   4.5207521245e+01    0.4562536    0.2671818  52.31  0.002041716    2.108    0.526
       103 -10.6978     14.7248    111.0206   1.1524585096e+02   5.1004115185e+01     0.391172    0.2297406  81.27  0.002034731    1.981    0.495
       104  -9.7315    134.2904    110.3156   7.9675268557e+01   3.3596170212e+01    0.3159885     0.192263  66.60  0.001168864    2.482    0.597
       105 -11.4638     46.9502    103.6624   1.0386182286e+02   4.9863352381e+01    0.8338714    0.4340859  65.61  0.003013862    3.955    0.747
       106 -10.4893    141.0418    105.8557   7.6753519509e+01   3.3085404208e+01    0.4167778    0.2517194  69.83   0.00149141    2.716    0.632
       107 -11.3082     23.7754    103.2480   1.1121741929e+02   5.2177047962e+01    0.7500123    0.3672134  66.60    0.0029472    3.736    0.732
       108 -10.2769    151.0798    104.5949   7.3962332186e+01   3.1093921931e+01    0.3328197     0.234987  80.65  0.001356457    2.108    0.526
       109 -10.3763      7.7423    103.9748   1.1635602144e+02   5.3139918019e+01     0.264498    0.1294113  37.30   0.00126334    2.423    0.587
       110 -10.3600    130.0204    103.0842   7.8804349627e+01   3.6093258993e+01    0.4569093    0.2258379  59.76  0.001513114    3.029    0.670
       111 -11.3801    112.1249    100.9207   8.3075033099e+01   4.0286699425e+01       0.9429    0.4603992  60.44  0.002933764    3.765    0.734
       112 -10.0813     83.4531    101.0235   9.1618638648e+01   4.5480649176e+01     0.363387     0.227367  60.71  0.001534442    2.292    0.564
       113 -10.6214     97.1421     98.1020   8.6654098552e+01   4.3782681599e+01    0.5947581    0.2590155  44.74  0.002215779    2.495    0.599
       114 -11.1717     65.7348     97.4110   9.6322330791e+01   4.9003462661e+01     0.755848    0.3901578  51.17   0.00310433    2.643    0.622
       115 -10.2831    140.6307     93.3888   7.3333516672e+01   3.5783044655e+01    0.4465063    0.2490887  67.35  0.001534915    2.918    0.657
       116 -10.6758    127.6167     92.4529   7.6396786584e+01   3.8876760367e+01    0.7318661    0.3015083  53.43  0.002420537    2.918    0.657
       117 -10.2254      6.7559     92.8294   1.1498848533e+02   5.5809742943e+01    0.3846858    0.1665386  38.97  0.001896378    2.838    0.648
       118 -10.9856     35.6413     90.7946   1.0484933443e+02   5.4082993822e+01    0.4313132    0.2770876  77.55  0.002072236    2.390    0.582
       119 -11.1251     88.7557     88.1594   8.6399313445e+01   4.7498915055e+01    0.7701007    0.3727141  54.38  0.002751504    3.136    0.681
       120 -11.0281     50.6066     86.2291   9.8578797005e+01   5.3540797828e+01    0.6563011    0.3443573  57.18  0.002543101    3.525    0.716
       121 -10.7742    107.3397     85.1185   7.9842819244e+01   4.4662110543e+01    0.6600224     0.371408  62.43  0.002412281    2.875    0.652
       122  -9.2715    160.6643     84.3324   6.6025573754e+01   3.2865544129e+01    0.1628473    0.1214338 -74.04 0.0007052165    1.736    0.424
       123  -9.7843    142.7190     84.4304   7.0178151629e+01   3.7087955539e+01    0.3097319    0.1545795  55.46   0.00115261    2.202    0.546
       124 -10.6374     25.7753     81.6614   1.0629680548e+02   5.7069647333e+01    0.4674604    0.2506209  47.45  0.001926171    2.566    0.610
       125 -10.2843     75.6532     81.5066   8.8683248455e+01   5.1136427423e+01     0.326975    0.2296133  66.72  0.001362204    2.209    0.547
       126 -10.3957     12.2385     82.2407   1.1125915211e+02   5.7919911984e+01    0.2827001    0.1238423  35.22  0.001388925    2.775    0.640
       127  -9.5194    120.3213     81.3463   7.5005521840e+01   4.2731017812e+01    0.3020695    0.1920751  69.93  0.001170902    2.473    0.596
       128  -9.5212     62.4110     78.2072   9.2243564853e+01   5.3821601208e+01    0.2008679    0.1254967 -60.44 0.0007292194    1.731    0.422
       129  -8.8597    159.3243     77.3319   6.4259888583e+01   3.4475846955e+01     0.159145    0.1214923  13.86 0.0007050608    1.706    0.414
       130 -10.2569    130.6496     77.0937   7.0938360752e+01   4.1273752622e+01    0.5749973    0.2557595  58.00  0.001954243    2.868    0.651
       131  -9.7073    142.4658     76.4889   6.7825359250e+01   3.8656123717e+01    0.3264394    0.1531068  52.84  0.001214335    2.190    0.543
       132 -10.6033     83.8169     74.2405   8.3729932447e+01   5.1324966437e+01    0.5213036    0.3668366  81.97  0.002184857    2.773    0.639
       133  -9.7921     43.9573     73.7244   9.7630203598e+01   5.7104837696e+01    0.2907191    0.1397266  43.06  0.001288738    2.699    0.629
       134  -9.3922      8.0988     73.5386   1.1104145376e+02   6.0136582191e+01    0.3280863    0.1162889  42.95  0.001317708    4.392    0.772
       135  -9.2360    116.9516     73.6331   7.3488828847e+01   4.4968471213e+01    0.2460822    0.1304233  69.04 0.0007038169    4.555    0.780
       136  -9.7235    106.9732     72.8682   7.6082254230e+01   4.7214186706e+01    0.3164706     0.199306  60.53  0.001341131    2.100    0.524
       137 -10.1990     96.1090     72.4680   7.9227595946e+01   4.9444279230e+01    0.4005152    0.2979673  82.46  0.001800271    2.223    0.550
       138 -10.6239     52.6822     70.9014   9.3579394711e+01   5.6685920424e+01    0.5052109    0.3732127  81.65  0.002520218    2.295    0.564
       139 -10.2587     17.8096     71.0553   1.0683402479e+02   6.0064722226e+01    0.2719644    0.1621481  36.01  0.001528991    2.090    0.522
       140  -9.7871    148.7697     69.2091   6.4113492619e+01   3.8467148966e+01    0.3879723     0.183678  59.46  0.001427995    2.353    0.575
       141  -9.5552    123.2465     67.2983   6.9718798539e+01   4.4763807554e+01    0.3004307    0.1931459  74.51  0.001181934    2.508    0.601
       142 -10.2690     39.1725     65.7083   9.7152631692e+01   5.9351384418e+01    0.3777189    0.2062404  48.12  0.001756744    2.741    0.635
       143  -9.9478    112.6488     65.1728   7.1896169359e+01   4.7473503725e+01    0.4497452    0.2057418  58.20  0.001564855    3.019    0.669
       144  -9.8096    101.7962     61.9176   7.3931135368e+01   5.0329553721e+01    0.3739319    0.2421152  78.54  0.001373141    3.422    0.708
       145 -10.6803     75.3192     60.7409   8.2091482465e+01   5.5449757238e+01    0.6129899    0.2816275  50.08  0.002378558    3.006    0.667
       146 -10.1779     27.1351     60.4228   1.0039438070e+02   6.1627558073e+01    0.3629631     0.178189  41.19  0.001747049    2.768    0.639
       147  -9.5992    132.3065     58.8668   6.4632177921e+01   4.4146241388e+01    0.2902712    0.1827862  70.08  0.001212828    2.091    0.522
       148 -10.9071      9.4356     58.5025   1.0712742666e+02   6.3337881433e+01     0.398035    0.2060428  41.16  0.002095234    2.713    0.631
       149  -9.9171    121.2512     57.4660   6.6940410560e+01   4.6924250631e+01    0.3834776    0.2377865  70.66  0.001562451    2.372    0.578
       150 -10.3235     55.3603     55.5451   8.7581667636e+01   5.9467988148e+01    0.3766682    0.2801633 -86.87  0.001822214    2.645    0.622
       151 -10.2508     45.7407     56.8709   9.1796478587e+01   6.0436627587e+01    0.3453269    0.1906768  48.36  0.001591461    2.751    0.636
       152 -10.3793     64.6249     55.7000   8.4143389665e+01   5.8106135676e+01    0.4459224    0.2450997  50.83  0.001963612    2.630    0.620
       153  -9.4853    107.7418     55.0094   6.9766829586e+01   5.0301311654e+01     0.287876    0.1934829  78.67  0.001178985    2.660    0.624
       154 -10.4048     32.9252     52.9266   9.5713434713e+01   6.2626915793e+01    0.4502965    0.2308051  46.70  0.002051119    3.168    0.684
       155  -9.9180     21.9632     53.5831   1.0053415015e+02   6.3482521735e+01    0.3158919    0.1468414  32.84  0.001595718    2.578    0.612
       156 -10.4142     93.9686     51.8508   7.2725068548e+01   5.3659325079e+01    0.4322252    0.3186758  73.07  0.002064562    2.107    0.525
       157  -9.4527    114.4378     48.3115   6.5528073946e+01   4.9927572137e+01    0.2592553     0.129228  52.00  0.001073367    1.998    0.499
       158 -10.0130     83.6951     47.8720   7.4536937612e+01   5.6290343594e+01    0.3720821    0.2243464  61.61  0.001586223    2.697    0.629
       159  -9.5371    124.2463     47.1084   6.2590570666e+01   4.7884732027e+01    0.2840721    0.1750827  65.48  0.001248341    1.923    0.480
       160 -10.4100     46.3641     45.5834   8.7555694149e+01   6.2524116345e+01    0.3048951    0.2174576  43.21  0.001743229    1.803    0.445
       161 -10.3745     19.0313     45.7563   9.9379468254e+01   6.5289948688e+01    0.4075221    0.1831145  30.99   0.00208722    2.623    0.619
       162 -10.3311     70.9696     42.7214   7.6936104511e+01   5.9393505658e+01    0.4388236    0.2632956  58.43   0.00194303    2.780    0.640
       163 -10.0205     59.2839     43.7026   8.1681673117e+01   6.1082625969e+01    0.2563882    0.2257705 -80.70  0.001522394    1.767    0.434
       164 -10.5548      6.3065     43.1878   1.0432338464e+02   6.6676248045e+01    0.2975911    0.2361649  68.10  0.001697218    1.973    0.493
       165  -9.9236    107.5910     42.4276   6.5230053710e+01   5.2324244484e+01    0.3484575    0.1782821  59.67  0.001426404    2.345    0.574
       166 -10.0239     38.3387     41.7695   8.9495010213e+01   6.4185735643e+01    0.2895379    0.1898562  43.03  0.001616271    2.052    0.513
       167  -9.7905     96.9954     39.4619   6.7124726492e+01   5.5005636817e+01    0.2716217    0.1838389  67.94  0.001260974    2.105    0.525
       168  -9.7349     82.3872     38.0878   7.1147884302e+01   5.8090901087e+01    0.2675529    0.1867308  63.14  0.001328653    2.069    0.517
       169 -10.3957     27.2217     36.5961   9.2464432015e+01   6.6303928733e+01    0.2383355    0.1963297  62.40  0.001489654    2.075    0.518
       170  -9.8287    113.7560     36.1220   6.1250894996e+01   5.1852300881e+01    0.3454119    0.1947369  74.25  0.001329841    2.988    0.665
       171  -9.1192    105.6252     35.8113   6.3271974394e+01   5.3694910273e+01    0.1935752    0.1234708 -39.64 0.0009383661    1.679    0.404
       172  -9.6187    121.8105     34.1782   5.8566127908e+01   5.0265522792e+01    0.3155114    0.1129726  63.08  0.001021768    3.539    0.717
       173 -10.3373     62.4141     33.5970   7.6376295146e+01   6.2254294449e+01    0.3456852    0.2308964  54.93  0.001787983    2.193    0.544
       174 -10.2950     51.1636     33.5950   8.0818426501e+01   6.3952229645e+01    0.3047376    0.2289558  54.21  0.001733685    2.040    0.510
       175 -10.5598     14.3835     31.6110   9.6646287394e+01   6.8335145952e+01    0.2875171    0.2199302  46.56  0.001634251    2.031    0.508
       176  -9.7062    102.7669     30.1769   6.1868627193e+01   5.5063237247e+01    0.3123703    0.1823501  62.03  0.001440061    2.000    0.500
       177 -10.3499     83.3337     29.0035   6.7118695763e+01   5.9205645440e+01    0.3963645    0.2729449  83.13  0.001720663    3.227    0.690
       178 -10.2377     74.6914     32.6244   7.1509807087e+01   6.0313042232e+01    0.4235975    0.2233895  57.20  0.001809583    2.867    0.651
       179 -10.2561      4.8593     28.6591   1.0028822546e+02   6.9543106340e+01     0.252672     0.174933  49.80  0.001551063    2.500    0.600
       180 -10.1324     93.5924     27.8828   6.3529255805e+01   5.7297797884e+01    0.3642702    0.2288714  69.21  0.001677256    2.369    0.578
       181  -9.2181     40.3361     25.6669   8.2000982391e+01   6.6665591515e+01    0.1075532     0.100132 -68.80 0.0006920358    1.739    0.425
       182 -10.4724     65.3589     21.5889   7.0025253890e+01   6.3472153282e+01    0.3737487    0.2319289  53.44  0.001959473    2.051    0.512
       183 -10.5615     50.5974     22.1485   7.6011749101e+01   6.5765381113e+01    0.4014584    0.1720649  44.70  0.001840498    2.733    0.634
       184  -9.4423     20.7896     22.2211   8.9686075532e+01   6.9405530608e+01    0.1605773    0.1316113  79.32 0.0009492505    2.754    0.637
       185 -10.3304     75.9326     20.5347   6.5884085035e+01   6.1700833421e+01    0.4008892    0.2310208  60.63  0.001897474    2.440    0.590
       186  -9.3690     12.2842     21.4318   9.3672624578e+01   7.0286227445e+01     0.135716    0.1023555  21.66 0.0008218528    1.557    0.358
       187  -9.6361     40.5172     19.3337   7.9018947462e+01   6.7586382678e+01    0.2095323    0.1965291  56.52  0.001446501    1.727    0.421
       188  -9.8948     89.8765     18.1486   6.0560465897e+01   5.9228315145e+01     0.275356    0.1648048  54.91  0.001406927    1.689    0.408
       189  -9.9014     31.8897     17.1763   8.1960516914e+01   6.8991755714e+01    0.2698928    0.1478859  40.43  0.001453996    2.298    0.565
       190  -9.9728     98.5948     16.0459   5.7309447498e+01   5.7613379201e+01    0.2519521    0.1870309  74.65  0.001370413    1.716    0.417
       191  -9.0854      8.5000     15.9908   9.3330947094e+01   7.1489080636e+01    0.1355217   0.09698643 -66.91 0.0008094264    2.451    0.592
       192  -9.3653     18.0338     14.5271   8.7593852115e+01   7.0890072484e+01    0.1340239   0.09568031  46.87 0.0008090388    2.463    0.594
       193 -11.0120    166.1297    248.9262   9.9355487521e+01   1.9203121214e-01    0.2330678    0.1594095  28.45  0.001410143    1.298    0.229
       194 -10.2942    246.6084    247.6366   8.4760661247e+01  -1.1217200631e+01    0.2295206     0.116669  37.25   0.00135426    1.890    0.471
       195  -9.4465     48.3187     10.6349   7.1425466712e+01   6.7614671104e+01    0.1086307   0.09571043 -50.78 0.0007039678    1.778    0.438
       196  -9.2444    107.6524    248.6856   1.1031901988e+02   9.1262286406e+00    0.1102293   0.09056574   9.77 0.0007047197    1.720    0.419
       197 -10.6800    173.5111    243.9965   9.7286762764e+01  -2.2638402483e-01    0.1654405    0.1211244 -41.06  0.001043273    1.622    0.383
       198  -9.1842     29.9763     10.0000   7.9336662330e+01   7.0231251889e+01    0.1759991   0.06081146  35.06 0.0008054852    2.964    0.663
       199 -10.0594    237.3877    240.0595   8.5098966103e+01  -9.1141776617e+00    0.2133049    0.1278988  21.10 0.0008521213    1.436    0.304
       200 -10.5995    107.2367    235.9475   1.0902135373e+02   1.1411213987e+01    0.2729568    0.1180042  56.77  0.001184166    2.681    0.627
       201  -9.8478     73.7814    229.0097   1.1480437219e+02   1.7524793959e+01    0.1893697    0.1046725  57.47  0.001045352    1.609    0.378
       202 -11.5085     87.6191    227.5610   1.1195480241e+02   1.5865785602e+01    0.2660733    0.2037783  26.74  0.001639074    1.605    0.377
       203  -9.5635    160.6659    227.2998   9.7332622984e+01   4.4277830124e+00    0.1951729    0.1699003  48.03 0.0007490637    1.156    0.135
