#   1 NUMBER                 Running object number                                     
#   2 MAG_AUTO               Kron-like elliptical aperture magnitude                    [mag]
#   3 X_IMAGE                Object position along x                                    [pixel]
#   4 Y_IMAGE                Object position along y                                    [pixel]
#   5 X_WORLD                Barycenter position along world x axis                     [deg]
#   6 Y_WORLD                Barycenter position along world y axis                     [deg]
#   7 A_WORLD                Profile RMS along major axis (world units)                 [deg]
#   8 B_WORLD                Profile RMS along minor axis (world units)                 [deg]
#   9 THETA_WORLD            Position angle (CCW/world-x)                               [deg]
#  10 FWHM_WORLD             FWHM assuming a gaussian core                              [deg]
#  11 ELONGATION             A_IMAGE/B_IMAGE                                           
#  12 ELLIPTICITY            1 - B_IMAGE/A_IMAGE                                       
         1 -14.5690     68.5978    144.1452   1.0022245185e+02   3.7408309245e+01     4.904648     2.381946  64.76    0.0153336    4.296    0.767
         2 -13.1404    197.8613     42.2906   4.2813301964e+01   3.0575470217e+01     1.035995    0.9038482 -67.79  0.003275916    1.054    0.051
         3 -13.7450    207.1027     33.3433   3.9530774738e+01   2.9604514975e+01     1.208266    0.8809023 -17.70  0.001355524    1.794    0.443
         4 -11.4241     32.6724     16.3376   7.6298293375e+01   6.8839083114e+01    0.5513266    0.1010648 -38.92  0.001827205    5.293    0.811
         5 -13.0722    231.9352      6.8095   3.1424852078e+01   2.7232093222e+01    0.8265784    0.6490245 -80.19  0.004506789    1.061    0.057
         6 -10.0283     61.5281      8.0079   6.0263367416e+01   6.5309221522e+01    0.1722761    0.1124232 -19.80  0.000715587    1.567    0.362
         7 -10.7599     51.5943      3.7330   6.1908437944e+01   6.7470646795e+01    0.2352993    0.1820441 -45.03  0.001493319    1.937    0.484
         8 -10.1595     29.9739      3.7597   7.1367844533e+01   7.0773933608e+01    0.1497232   0.08315814  32.27 0.0008818388    1.633    0.388
         9 -10.8255    203.5156    200.4997   7.8167003958e+01   1.7023588843e+00    0.2928676    0.1591268  23.58  0.001332829    2.060    0.514
        10 -11.3644    139.9540    247.7133   9.8825043491e+01   3.7523828191e+00    0.6457798    0.2778855 -56.89  0.002928537    3.081    0.675
        11 -11.6028    119.8216    246.0074   1.0272355746e+02   7.0826149505e+00    0.3924672    0.3101093  26.91  0.001542461    1.244    0.196
        12 -11.4058    125.4307    246.9126   1.0168589915e+02   6.0824595657e+00    0.5661403    0.3023325 -60.89  0.002908905    2.372    0.578
        13 -11.4966    114.6441    245.1888   1.0368760714e+02   8.0009507393e+00    0.4991794    0.2969295 -58.86  0.002762538    1.977    0.494
        14 -15.2033     47.5940    199.8908   1.1320947512e+02   2.6631759916e+01     8.876912     3.033341  62.16   0.02359149    6.011    0.834
        15 -11.1453    107.5200    203.9413   9.9830305173e+01   1.7271359937e+01    0.3316609    0.2562349  83.29  0.001169928    1.501    0.334
        16 -10.8811    110.9955    202.9896   9.8881065460e+01   1.6917130559e+01    0.2892045    0.2340977  89.24 0.0009406036    1.401    0.286
        17  -9.7367     31.8001    203.3844   1.1703519167e+02   2.7630256490e+01    0.2764737    0.1795261  88.57  0.001625969    1.388    0.280
        18 -11.2279    121.5583    197.4862   9.5553670660e+01   1.6356062324e+01    0.4986321    0.3058534 -68.06  0.001853493    2.036    0.509
        19 -10.7392     60.9114    198.3696   1.0999095354e+02   2.5322459908e+01     0.257026    0.2382984  33.28 0.0008392939    1.252    0.201
        20  -8.9444     81.9007    194.8598   1.0460247633e+02   2.3230336467e+01    0.2032568    0.1930481 -24.93   0.00123687    1.264    0.209
        21 -15.9453      2.4784     87.4851   1.1162387938e+02   5.7544551670e+01     18.85608     2.140947 -69.70   0.04041297   10.047    0.900
        22 -10.5003    104.5375    209.1323   1.0125870614e+02   1.6630947022e+01    0.3063697    0.1924466 -51.02  0.001542735    1.736    0.424
        23 -12.9486     56.5136    185.2987   1.0951455606e+02   2.8921006165e+01    0.9300886    0.7050447  47.21  0.005367015    1.283    0.221
        24 -10.5654     65.7585    179.3959   1.0647811783e+02   2.9124001076e+01    0.3645023    0.3063875  74.28 0.0007845091    1.129    0.115
        25 -10.4171    147.7642    187.5578   8.7702853760e+01   1.3879129396e+01    0.4759775    0.3122182 -62.98  0.001816149    1.924    0.480
        26  -8.7860     72.1234    188.3672   1.0609866960e+02   2.6128640828e+01      0.18644     0.154112  60.15 0.0004540069    1.139    0.122
        27  -9.4730    120.3517    186.2187   9.3962864060e+01   1.9032693440e+01    0.1965552    0.1371795 -66.32 0.0003895095    1.624    0.384
        28  -8.6337     77.3529    186.1239   1.0451345218e+02   2.5914551185e+01    0.2245778    0.1711861  75.51 0.0005450618    1.357    0.263
        29  -9.1411     80.2378    183.6769   1.0345333315e+02   2.6071725465e+01     0.276277    0.1942907  62.23  0.001160659    1.484    0.326
        30  -9.0030     69.7881    183.8525   1.0607202266e+02   2.7514787495e+01    0.1900922    0.1754215 -79.67 0.0004202354    1.083    0.077
        31  -9.8700     99.3746    180.9912   9.8257775457e+01   2.3747786672e+01     0.267738    0.2087362  38.92 0.0005996191    1.260    0.207
        32  -8.5881     89.9931    181.0303   1.0061768762e+02   2.5225524917e+01    0.1677349    0.1542195 -82.18 0.0003269899    1.062    0.059
        33  -8.8647     42.9907    179.9928   1.1219708976e+02   3.1797783799e+01    0.1878434    0.1717767 -82.74  0.000312311    1.114    0.102
        34  -9.7455     46.3109    176.9839   1.1103627333e+02   3.2136853130e+01    0.2798567    0.2497359 -87.09   0.00103148    1.050    0.048
        35  -8.4132     92.4411    178.2546   9.9562564535e+01   2.5498408281e+01    0.2008528    0.1356806 -77.44 0.0009424817    1.682    0.406
        36 -10.3769    187.0152    175.5132   7.6637439918e+01   9.1031426572e+00    0.3686698    0.3026128 -44.30  0.001173004    1.274    0.215
        37 -11.3839    111.6925    197.3000   9.7851136861e+01   1.8039892649e+01     1.036751    0.5607629   8.48  0.002744299    6.744    0.852
        38 -11.9988     83.1494    158.8824   9.8761136611e+01   3.1623117783e+01     1.081764    0.7224824  84.81 0.0006921859    1.971    0.493
        39 -12.9852     71.6739    153.6716   1.0101558541e+02   3.4603650462e+01    0.6462835    0.5127491 -63.39   0.00109343    1.186    0.156
        40  -9.6118    190.3192    208.0097   8.2198428914e+01   2.5671423164e+00    0.2199653   0.09663602 -24.51 0.0007047469    4.267    0.766
        41  -8.8341    147.9998    174.3284   8.5114488191e+01   1.6648492907e+01    0.2042821    0.1898929  33.91 0.0003564855    1.052    0.049
        42  -8.3847    193.3379    170.2813   7.4244630208e+01   8.9427068776e+00    0.1471585    0.1076098   2.02 0.0004738398    1.622    0.384
        43 -10.5305    240.0624    169.2971   6.5298245153e+01   1.0492818215e+00    0.1822271    0.1605738  -1.03 0.0003968454    1.108    0.098
        44  -9.0039    184.8130    167.8370   7.5509874273e+01   1.1007091483e+01    0.1951412    0.1797302 -73.57 0.0009833362    1.332    0.249
        45  -9.0837     36.5121    167.5186   1.1240157522e+02   3.5507558854e+01    0.2152738    0.1407532  72.87 0.0008853486    1.578    0.366
        46  -9.6561     32.8652    165.2689   1.1307578186e+02   3.6430264175e+01    0.2943329     0.197029  54.95 0.0009927037    1.508    0.337
        47 -11.5348     71.1439    171.5549   1.0399560421e+02   3.0278589972e+01    0.4167787     0.305364 -27.65  0.001918341    1.849    0.459
        48 -11.4642     90.2885    151.8139   9.5514171727e+01   3.2236754647e+01    0.7051091    0.4959328 -22.11  0.003164732    1.979    0.495
        49 -10.8536    133.8332    145.3620   8.2484329153e+01   2.5862546445e+01     1.292709    0.3408248 -54.62  0.002956394    5.925    0.831
        50 -11.1436     54.1080    148.7647   1.0513610941e+02   3.8145103687e+01    0.6532933    0.4099468 -73.48  0.003196048    1.550    0.355
        51  -9.1346    174.8558    149.0790   7.3571680536e+01   1.6741145667e+01    0.2267452    0.2074328 -72.16 0.0005083379    1.260    0.206
        52  -8.9496    111.0535    149.0485   8.9280334741e+01   2.9337237684e+01    0.3066868    0.1915762  62.76  0.001225517    2.187    0.543
        53  -9.3617     39.7024    146.8914   1.0891642425e+02   4.0249376357e+01    0.2598161    0.1903878  43.04  0.001448414    1.457    0.314
        54  -8.9145    143.6482    145.3194   8.0005700329e+01   2.3905557410e+01     0.159734    0.1246498  82.44 0.0007047553    1.744    0.427
        55 -10.1810    103.5475    138.0791   8.8993410875e+01   3.3328452103e+01    0.5766514    0.3401428 -26.21  0.002130707    2.660    0.624
        56 -10.2010    105.9581    130.8295   8.6677228045e+01   3.4631311353e+01    0.3703296     0.333291 -72.31  0.001253626    1.168    0.144
        57 -11.6225     90.9826    137.6643   9.2482762514e+01   3.5598200122e+01    0.2890303    0.2614319 -37.78 0.0003979235    1.129    0.114
        58 -11.2226     43.8900    129.7604   1.0503837966e+02   4.4069977177e+01    0.4743273    0.3224038 -89.49  0.001831716    1.672    0.402
        59 -10.1189     32.9907    130.5976   1.0847699047e+02   4.4971826102e+01    0.3694202    0.2057913 -73.54   0.00178336    1.679    0.404
        60 -10.2662    112.7958    129.0354   8.4330580567e+01   3.3774436399e+01     0.521395    0.3052147  24.06 0.0009369472    2.273    0.560
        61 -11.0473    118.4171    123.4605   8.1415873950e+01   3.3979448339e+01    0.6111766    0.4011003 -16.02  0.002362587    2.397    0.583
        62  -9.1139    160.3779    128.1248   7.1912470909e+01   2.4161251855e+01    0.2344296    0.1417137 -53.34 0.0009537648    1.809    0.447
        63 -10.2950     99.4825    124.9486   8.7167244395e+01   3.7211956333e+01    0.3261575    0.2545491 -12.04 0.0008679167    1.604    0.377
        64  -9.0313     92.8873    125.2836   8.9189738836e+01   3.8289476590e+01    0.2219312    0.2009196  73.06 0.0007114632    1.214    0.176
        65 -10.3060    135.0000    121.9216   7.6589134333e+01   3.0933060587e+01    0.6257722   0.08829316 -45.81  0.001257603    6.990    0.857
        66 -10.2484     39.4571    124.0221   1.0542688126e+02   4.5962571201e+01    0.2444199    0.1915256 -15.73 0.0007083344    1.538    0.350
        67  -9.2918    108.2989    118.1708   8.2951363157e+01   3.7175109499e+01    0.2390217     0.207129  21.43 0.0004034294    1.232    0.189
        68 -12.2688     43.3804    109.0317   1.0134666016e+02   4.9226962544e+01    0.6666724    0.4302126 -50.18   0.00344636    1.361    0.265
        69 -10.0626     49.0095    116.4871   1.0098911511e+02   4.6781185061e+01    0.1950125    0.1384532  29.98 0.0005228174    1.558    0.358
        70  -9.9711    231.3504    113.7302   5.4903064314e+01   1.2076011023e+01    0.2615989    0.2339312 -48.81 0.0007678581    1.070    0.066
        71 -12.0685     52.4690    107.5570   9.7979429150e+01   4.8544014759e+01    0.8182298    0.3808457 -58.71  0.003475053    1.947    0.486
        72  -9.3494    205.3396    110.2615   5.8377561509e+01   1.7963295503e+01    0.2847912    0.2035912  44.92  0.001113517    1.521    0.342
        73 -11.0757    115.5358    108.6722   7.8416490544e+01   3.7912797677e+01    0.4655135    0.3127234 -26.75  0.001989814    1.790    0.441
        74  -9.6739    134.5467    106.2941   7.2618711501e+01   3.4431026374e+01    0.3108208    0.1494782 -48.18  0.001143779    2.137    0.532
        75 -10.8706     32.9809     99.8621   1.0304010042e+02   5.2471998459e+01    0.4140768    0.2712515  43.01  0.002197357    1.812    0.448
        76  -8.6320     66.2514    100.0398   9.1537905963e+01   4.8509187340e+01    0.1936114     0.180723 -38.41 0.0004658147    1.024    0.023
        77  -9.1753    128.6813     95.9357   7.1287498829e+01   3.7875929836e+01    0.2124844     0.200027 -46.03 0.0004661839    1.073    0.068
        78  -9.5168     37.8350     96.6056   1.0063505924e+02   5.2773174077e+01     0.183075    0.1192111  39.64 0.0009454202    1.781    0.439
        79 -11.3838     51.2974     92.2625   9.4795956914e+01   5.2290725382e+01    0.4940861    0.4139833  59.27  0.002421235    1.485    0.327
        80  -9.5260    156.2147     88.4125   6.2458420234e+01   3.3104355614e+01    0.3521475    0.2390849 -66.69 0.0008219809    1.966    0.491
        81 -11.3586     75.0000    167.0114   1.0229289344e+02   3.0839213506e+01    0.3837819    0.3285675 -22.05 0.0008579997    1.439    0.305
        82  -8.4596    117.2453     86.3463   7.1618242941e+01   4.2290984078e+01    0.2103668     0.140967  53.09 0.0008031602    1.603    0.376
        83  -9.4255     75.1459     84.9722   8.4384962217e+01   5.0543008438e+01    0.2252274    0.2017073  23.71 0.0003429366    1.152    0.132
        84  -8.7149    157.8884     82.8524   6.0540667446e+01   3.3736177761e+01    0.2087323    0.1784637 -73.19 0.0004662572    1.297    0.229
        85  -9.4567     59.0238     67.7517   8.4947682088e+01   5.6580081121e+01     0.230459     0.181122 -36.90 0.0003707273    1.167    0.143
        86 -12.8017    186.7439     50.9640   4.6567485875e+01   3.1994961535e+01     0.889041    0.8630544  -9.47 0.0008130468    1.200    0.167
        87 -15.5817      5.6581    210.2271   1.2295298512e+02   2.8698441092e+01     3.107359    0.9106389 -62.47   0.01389434    3.213    0.689
        88  -9.9580     32.3526     36.1438   8.4981849946e+01   6.5841416430e+01    0.1776268    0.1405465 -27.63  0.001154053    1.130    0.115
        89  -8.7508     71.8640     53.8263   7.5400756908e+01   5.7186558447e+01    0.1746774     0.166266  55.40 0.0009124374    1.335    0.251
        90  -8.5752    158.4565    235.4826   9.3317394833e+01   2.9647776484e+00    0.1302716    0.1109178  22.64  0.000227365    1.034    0.033
        91 -17.4383     11.0540    244.4695   1.2378151997e+02   2.1261113808e+01     5.288951     2.115776  25.20   0.02217261    3.661    0.727
        92 -11.0357    192.9581    195.0977   7.9268541395e+01   4.4047253627e+00    0.9138337    0.4815184 -61.55  0.003042658    4.663    0.786
        93  -8.3195    168.6977    233.7307   9.0944615919e+01   1.6576743773e+00    0.1270845   0.09118544   6.72 0.0002779971    1.529    0.346
        94  -9.1149    189.3474     14.9938   3.7045246050e+01   3.5815627249e+01    0.1742811    0.1542246 -63.78 0.0005990072    1.124    0.110
        95 -10.6347    164.2736    212.3487   8.8415189836e+01   6.1179301410e+00    0.3097761    0.2071802 -61.53  0.001526752    2.058    0.514
        96 -10.8890    183.8387    212.3483   8.4298585309e+01   2.8751104663e+00    0.3087552     0.227089 -31.79  0.001729981    1.393    0.282
        97  -9.4345     89.3990    211.3546   1.0500391220e+02   1.8464079747e+01    0.2195091     0.194535  77.47 0.0002096326    1.086    0.079
