#   1 NUMBER                 Running object number                                     
#   2 MAG_AUTO               Kron-like elliptical aperture magnitude                    [mag]
#   3 X_IMAGE                Object position along x                                    [pixel]
#   4 Y_IMAGE                Object position along y                                    [pixel]
#   5 X_WORLD                Barycenter position along world x axis                     [deg]
#   6 Y_WORLD                Barycenter position along world y axis                     [deg]
#   7 A_WORLD                Profile RMS along major axis (world units)                 [deg]
#   8 B_WORLD                Profile RMS along minor axis (world units)                 [deg]
#   9 THETA_WORLD            Position angle (CCW/world-x)                               [deg]
#  10 FWHM_WORLD             FWHM assuming a gaussian core                              [deg]
#  11 ELONGATION             A_IMAGE/B_IMAGE                                           
#  12 ELLIPTICITY            1 - B_IMAGE/A_IMAGE                                       
         1 -14.3249     68.8840    145.2373   1.0045580351e+02   3.6730356210e+01     4.839757     2.134534  59.31    0.0054118    4.890    0.796
         2 -14.3359    207.7659     38.3847   4.0508625384e+01   2.9090505158e+01     1.853085     1.448087  27.12  0.007511084    1.765    0.434
         3 -13.9314    222.9336     23.2605   3.5435504056e+01   2.7616976324e+01    0.9530799    0.8556521  48.11  0.002719863    1.397    0.284
         4 -12.7340    246.0277      3.4012   2.9539184922e+01   2.5064937655e+01    0.6274275    0.3299957  81.82  0.003763993    1.797    0.443
         5 -10.1475      2.1755      3.3385   8.6408402552e+01   7.3487362653e+01    0.2090781   0.06385149 -41.75  0.001010425    2.707    0.631
         6 -10.4571     49.4615      3.0028   6.2444333632e+01   6.7613846843e+01    0.2048407      0.16013  48.72  0.000671556    1.585    0.369
         7 -10.1051     44.6699      1.4019   6.3576128301e+01   6.8548405580e+01    0.2575771    0.1104883  50.31  0.001216602    2.789    0.641
         8 -10.0435     90.6248    213.9462   1.0522049222e+02   1.7546252376e+01    0.3620911    0.2131243  82.90  0.001171135    2.524    0.604
         9 -13.8573      3.7957    184.9324   1.2165854624e+02   3.3852650867e+01     1.455591    0.6007796 -84.81  0.001760723    2.150    0.535
        10 -13.2617     34.5715    202.5905   1.1638257679e+02   2.7054090501e+01    0.6607836    0.3844378 -46.35  0.001354518    2.224    0.550
        11 -16.4815     42.4132    192.7750   1.1372571630e+02   2.8425913096e+01     11.24744     5.011873  63.85   0.04714611    2.847    0.649
        12 -15.1515      9.1727    207.4867   1.2202515194e+02   2.8437654686e+01      1.41179     1.064962 -57.48  0.006490149    1.554    0.356
        13 -14.1969     57.5330    240.3581   1.1486427194e+02   1.6546826857e+01    0.9551894    0.7308981  59.56 0.0004265833    1.086    0.079
        14  -9.4451     99.2429    180.8096   9.8447642227e+01   2.3631581079e+01    0.2074719    0.1868546  77.13 0.0006368906    1.136    0.120
        15 -12.1658     62.2369    175.8495   1.0699128685e+02   3.0068510710e+01    0.4508451    0.3125948 -36.10  0.002308987    1.811    0.448
        16 -11.9313     67.2577    170.7729   1.0500564563e+02   3.0647527162e+01    0.3432028    0.2779632 -34.15 0.0004301235    1.453    0.312
        17 -15.7477     37.1395    249.3636   1.1937190241e+02   1.7190672477e+01     9.458944     2.645422  25.46   0.02015139   16.234    0.938
        18 -12.4984     84.2502    154.9493   9.7917973537e+01   3.2137429323e+01     0.989521    0.5176857 -43.18  0.002127291    2.071    0.517
        19 -13.1821     58.2264    131.2924   1.0103257416e+02   4.1583752828e+01     2.919771    0.9290128 -71.43  0.006000443    8.933    0.888
        20 -12.0383     76.9253    161.2638   1.0099198244e+02   3.1651861391e+01    0.4431642    0.3767168 -45.26  0.000599128    1.212    0.175
        21 -11.3272    192.4338    193.5807   7.9315125330e+01   5.0750738068e+00    0.7040733    0.3963379 -64.62  0.002252423    5.220    0.808
        22  -8.5949    112.2968    150.6468   8.9477219497e+01   2.8600393055e+01    0.1549047    0.1201655  82.99 0.0003607094    1.691    0.409
        23 -10.0294    174.8017    148.7201   7.3681296668e+01   1.7049500219e+01     0.299879    0.2455011 -70.48 0.0008463206    1.583    0.368
        24 -10.5568     31.9485    143.6875   1.1065981326e+02   4.1310995536e+01    0.3392797     0.279533 -39.25  0.002053115    1.330    0.248
        25 -10.0806     98.4752    141.5031   9.1336511771e+01   3.3178345449e+01     0.289966    0.2546143 -33.93 0.0007407885    1.158    0.136
        26  -9.8176    101.1999    138.2358   8.9869532489e+01   3.3509983044e+01    0.3482507    0.2506393 -16.67  0.001073647    1.836    0.455
        27 -10.1036    198.2509    139.8997   6.6748434115e+01   1.4178184272e+01    0.3197114    0.2115484 -57.41  0.001024448    1.898    0.473
        28 -12.4496     86.4431    139.9132   9.4416820975e+01   3.5507662953e+01    0.3014497    0.2606082 -43.13 0.0004905533    1.129    0.115
        29 -11.4553     77.2275    137.6241   9.6619698001e+01   3.7457612824e+01    0.5235498    0.3134661  65.94  0.001422873    2.595    0.615
        30  -9.8814     26.3830    134.8804   1.1103537304e+02   4.3986099490e+01     0.202183    0.1686856  53.04 0.0005951033    1.332    0.249
        31 -10.8784    135.3338    128.2993   7.8271967982e+01   2.9436498620e+01    0.4982807    0.2632161 -47.21  0.001959324    1.856    0.461
        32 -11.1291     67.3595    126.9377   9.7412158287e+01   4.1490086878e+01    0.5617058    0.2553014 -60.11  0.002239234    2.078    0.519
        33 -10.9195    107.6658    130.8013   8.6369617061e+01   3.4160114408e+01     0.602876    0.3719083  30.30  0.002583632    1.782    0.439
        34 -10.4122    146.2470    171.8957   8.5271178150e+01   1.7585325698e+01    0.2220217    0.2059785 -84.36   0.00120255    1.255    0.203
        35  -9.8996    161.1639    127.9978   7.1858126451e+01   2.4164648071e+01    0.2592248    0.1807919 -67.08  0.001085797    1.991    0.498
        36 -10.7190     96.9744    126.2817   8.8385113717e+01   3.7115416032e+01    0.3502584     0.266657  -6.63  0.001635901    1.661    0.398
        37 -14.5984     17.0352    217.1205   1.2108316457e+02   2.5675299964e+01     1.364739    0.7490794  50.38   0.00653462    1.590    0.371
        38  -9.2523    163.4466    121.2340   6.9645288224e+01   2.5095357409e+01    0.2181648    0.1438124 -51.84 0.0009397364    1.616    0.381
        39  -9.5218    135.0000    119.9861   7.6269113416e+01   3.1357202827e+01    0.2654536   0.08722518 -45.18 0.0008047242    2.958    0.662
        40  -9.8786    106.6500    119.1436   8.3844759544e+01   3.7093542231e+01    0.2195716    0.2062716  44.92 0.0002998921    1.133    0.117
        41 -13.4989     64.1937    157.4122   1.0379762416e+02   3.4321528426e+01     0.525692    0.3575367 -45.05   0.00166171    1.533    0.348
        42  -9.2193    168.0137    112.9806   6.6517090295e+01   2.5793183734e+01    0.2498668    0.1926303 -77.19  0.001131973    1.774    0.436
        43 -10.0809    205.3102    110.2618   5.8426719537e+01   1.8316556910e+01     0.324976    0.2203932  34.51  0.001176233    1.740    0.425
        44  -9.5129     30.2135    108.1592   1.0558766417e+02   5.0233144808e+01     0.174712    0.1484389  86.07 0.0004317768    1.318    0.241
        45  -9.5651    134.6160    105.8342   7.2625289567e+01   3.4503966404e+01    0.2272775    0.1433135 -52.44 0.0007822217    1.716    0.417
        46 -11.4352    241.3015     99.7740   5.0337967756e+01   1.2962285508e+01    0.3201773    0.1343607 -45.40  0.001200209    2.141    0.533
        47 -10.7130    134.0000    146.0452   8.2797576669e+01   2.5670001432e+01     0.750351     0.207905 -52.16  0.002022084    4.171    0.760
        48  -9.0175     27.3560     93.7379   1.0375500766e+02   5.3926717789e+01    0.1231432   0.09781706  65.03 0.0006040472    1.623    0.384
        49 -10.8143     53.1421     90.9427   9.3873849139e+01   5.1960477241e+01    0.3501751    0.1864009 -52.84  0.001491528    1.665    0.399
        50  -9.4004     41.5096     91.9255   9.8281243872e+01   5.3039459164e+01    0.2033303    0.1186333 -55.54 0.0004032485    1.486    0.327
        51  -9.1829     71.9030     82.9401   8.5030262461e+01   5.1174237674e+01    0.2036134    0.1757839  78.87 0.0005490897    1.605    0.377
        52  -9.2577    160.4630     82.4959   5.9950707933e+01   3.3316235642e+01    0.1487008    0.1442143  -3.62 7.235361e-05    1.047    0.045
        53 -10.5901    243.0147     77.5007   4.5225537013e+01   1.6142457550e+01    0.1800541    0.1285505  64.04 0.0006542532    1.588    0.370
        54  -9.9043     47.0753     61.9425   8.7819280307e+01   5.8956047096e+01       0.1956    0.1708041 -22.39 0.0004117565    1.062    0.058
        55 -11.0209     13.4574     59.9549   1.0129991853e+02   6.2516932483e+01    0.2510958    0.1911453 -53.87 0.0004320508    1.199    0.166
        56 -13.2757    198.4356     44.2812   4.3120971147e+01   3.0426299529e+01     1.112598     0.660357  37.19  0.002507249    2.365    0.577
        57 -15.8674      7.0350    245.7954   1.2450052853e+02   2.0933746624e+01     1.880478      1.82361  71.74   0.01619794    1.473    0.321
        58  -9.3985    107.2858    210.3136   1.0099661120e+02   1.5848195191e+01    0.1288892    0.1043688 -16.01 0.0002570874    1.580    0.367
        59 -10.3435    136.3513     42.5711   5.3120817554e+01   4.5276957711e+01    0.2547643    0.2238709 -79.49 0.0004963651    1.307    0.235
        60  -9.6198    136.4714     34.9672   5.0650384621e+01   4.6230465600e+01    0.3537645    0.2193736 -78.52   0.00118126    2.758    0.637
        61 -12.4548    216.1073     29.9634   3.7610947764e+01   2.8296395778e+01    0.4586878    0.3392925  53.97  0.001096814    1.519    0.342
        62  -9.5729    189.6936     15.0152   3.6851196033e+01   3.5903348497e+01    0.1717897    0.1555572 -63.48 0.0005957212    1.107    0.096
        63 -10.9365    108.1998    203.6744   9.9835479528e+01   1.7116396577e+01    0.3077802     0.226763 -25.66  0.001143027    1.779    0.438
        64  -9.9541    172.7142    239.8003   9.1327736469e+01   2.8791872675e-01    0.3213262    0.1689281 -55.41  0.001515836    2.843    0.648
        65 -10.9051    207.8117    194.4334   7.6388805069e+01   2.4013783128e+00    0.2498808    0.1793626 -32.81 0.0007189261    1.324    0.245
