#   1 NUMBER                 Running object number                                     
#   2 MAG_AUTO               Kron-like elliptical aperture magnitude                    [mag]
#   3 X_IMAGE                Object position along x                                    [pixel]
#   4 Y_IMAGE                Object position along y                                    [pixel]
#   5 X_WORLD                Barycenter position along world x axis                     [deg]
#   6 Y_WORLD                Barycenter position along world y axis                     [deg]
#   7 A_WORLD                Profile RMS along major axis (world units)                 [deg]
#   8 B_WORLD                Profile RMS along minor axis (world units)                 [deg]
#   9 THETA_WORLD            Position angle (CCW/world-x)                               [deg]
#  10 FWHM_WORLD             FWHM assuming a gaussian core                              [deg]
#  11 ELONGATION             A_IMAGE/B_IMAGE                                           
#  12 ELLIPTICITY            1 - B_IMAGE/A_IMAGE                                       
         1 -14.0131    187.9887     31.9523   6.4969037861e+01   3.4611800625e+01    0.9331537    0.8269591 -86.49   0.00289677    1.053    0.050
         2 -14.5610    195.9494     20.8089   6.1331653060e+01   3.4081242684e+01    0.8704487    0.8263856   1.92  0.001630166    1.430    0.301
         3 -10.3895     82.0415      5.9781   7.7397603233e+01   6.0780918337e+01    0.1452316    0.1148557  35.13 0.0003712103    1.026    0.026
         4 -12.2059     57.4998      2.9405   8.3606309636e+01   6.5347580578e+01    0.3131169    0.1651997  40.19  0.001877993    1.574    0.365
         5  -9.9740     95.1957     41.8302   8.6657267345e+01   5.4338171267e+01    0.2766346   0.08865884 -39.87  0.001022123    3.443    0.710
         6 -16.1300    119.0972    236.6985   1.2505651942e+02   8.2685271315e+00     7.094539     3.163329  39.05   0.03131776    2.042    0.510
         7 -12.3716     38.1033    200.6348   1.3798427316e+02   2.8058131384e+01    0.2312565    0.1827346  70.67 0.0005773476    1.126    0.112
         8 -14.5156     53.3453    230.9794   1.3782014694e+02   1.9409162680e+01     1.249984    0.9021735 -67.79  0.007796513    1.424    0.298
         9 -10.2259     81.6327    194.9364   1.2753370727e+02   2.3521725488e+01    0.3191445    0.1963355  26.58  0.001476235    2.088    0.521
        10 -10.6718     46.7018    218.0574   1.3791775729e+02   2.3073511921e+01    0.4206328     0.304786   2.83  0.002226318    2.689    0.628
        11 -10.7712    147.0887    185.8542   1.1055096312e+02   1.4066163064e+01     0.234554    0.2022949  79.61 0.0005693273    1.285    0.222
        12 -11.4065    208.0121    184.8180   9.7106877298e+01   2.5127773887e+00     0.296158    0.2654755   6.24  0.001248926    1.105    0.095
        13 -11.5976    211.7682    181.1245   9.5608889249e+01   2.5299287246e+00    0.3996757    0.2760759  10.67   0.00136892    1.902    0.474
        14 -12.1191     79.5262    180.5365   1.2589957906e+02   2.7300352686e+01    0.4695517    0.2845425 -39.79  0.002086778    2.169    0.539
        15 -12.3390     83.0958    175.3107   1.2418907684e+02   2.8026183226e+01     0.530713    0.2581935 -56.30  0.001143855    1.931    0.482
        16 -11.0548     99.4565    180.5406   1.2101350580e+02   2.4089808992e+01    0.2595838    0.2393062  76.00 0.0007072976    1.030    0.029
        17 -11.0666    197.8035    175.4027   9.7237436855e+01   6.3055158880e+00    0.4045719     0.278625 -57.23  0.001220086    1.679    0.404
        18 -11.2301    137.9717    170.9811   1.0977517431e+02   1.9255587588e+01    0.2544753    0.1907934  81.97  0.001140225    1.714    0.416
        19 -11.0836    203.7710    168.0554   9.4471997195e+01   6.6214848394e+00    0.4578548    0.3852082  52.49  0.002365551    1.301    0.231
        20 -13.9862     60.4233    210.7085   1.3428525189e+02   2.2924116061e+01     1.099916    0.6315008  47.96  0.002694857    1.627    0.385
        21  -9.7090     66.7729    233.1670   1.3537388538e+02   1.7114495960e+01    0.1471809    0.1315187 -84.34 0.0002521673    1.226    0.184
        22 -10.3006    141.4687    158.0606   1.0621460711e+02   2.1570539227e+01    0.2628902    0.2118186  63.91  0.000414347    1.351    0.260
        23 -10.0311     36.3374    231.0870   1.4111144053e+02   2.1529003534e+01    0.2949457    0.1049434 -64.93  0.001375883    2.573    0.611
        24 -10.6777    174.8728    149.1114   9.6400689865e+01   1.6559142018e+01     0.243647    0.2139853 -85.87 0.0007833111    1.283    0.220
        25 -11.3675    133.6408    144.2544   1.0509212465e+02   2.6411458153e+01     1.110767    0.2676108 -54.53   0.00239823    6.303    0.841
        26 -11.9305    107.4276    141.8724   1.1142216356e+02   3.2104930729e+01    0.6149613    0.3423516 -34.75  0.002337502    2.353    0.575
        27 -12.3782     95.5373    142.5677   1.1480601150e+02   3.4053195848e+01    0.2892742    0.2756425 -20.08  0.001593117    1.155    0.134
        28 -19.3362     12.0608    130.0744   1.3596149551e+02   4.7259089999e+01     18.79201     1.847564 -69.10   0.03763855   10.989    0.909
        29  -9.3906     37.9514    226.4990   1.4041979785e+02   2.2312186261e+01    0.1485849    0.1011219  55.60 -0.0005882683    1.301    0.232
        30 -10.5255     43.7140    209.8219   1.3772425047e+02   2.5288498969e+01    0.3544663    0.1447929  56.43  0.001547387    2.538    0.606
        31 -11.2470    114.7081    131.8332   1.0716300874e+02   3.3128319664e+01    0.3309211    0.2854519  -4.93 0.0006766611    1.389    0.280
        32 -10.7942    105.9762    130.9865   1.0935127992e+02   3.4983894245e+01      0.37701    0.3248159  84.37  0.001222031    1.307    0.235
        33 -11.1174    102.4715    128.1441   1.0966042728e+02   3.6301330567e+01    0.3258925    0.2359555 -31.45 0.0009677192    1.578    0.366
        34 -10.8334    160.8416    128.0871   9.4619544332e+01   2.4239083070e+01    0.2573471    0.2191801 -82.26  0.001247209    1.321    0.243
        35  -9.7881    125.6757    127.3204   1.0314759616e+02   3.1993737425e+01    0.1605227    0.1241361  86.84 0.0004645027    1.678    0.404
        36 -11.3157    118.6258    126.3099   1.0477930057e+02   3.3650969310e+01    0.4004918    0.2547482 -17.82  0.001465794    2.735    0.634
        37 -10.5740    135.5143    124.9802   1.0001734519e+02   3.0471811284e+01    0.2536682    0.1527836 -45.70  0.001045528    1.635    0.388
        38 -10.2855    110.0913    120.0882   1.0558251088e+02   3.6756869376e+01    0.2236158    0.2150619 -48.66 0.0003392081    1.006    0.006
        39 -11.7722     64.3343    114.1015   1.1762075797e+02   4.5689386690e+01     0.256403     0.205934  41.56 0.0007167804    1.386    0.278
        40 -10.0112    167.8611    112.7216   8.9211210856e+01   2.5920924087e+01    0.3096731    0.1992672 -68.56  0.001225109    2.138    0.532
        41 -10.1318    205.4179    110.1332   8.1084688738e+01   1.7886954117e+01    0.2430082    0.2041204  45.84 0.0006079471    1.306    0.234
        42 -12.2797    116.0578    211.5217   1.2211269317e+02   1.4057515501e+01    0.4231694    0.2699004  84.81  0.001347823    2.216    0.549
        43  -9.4223    153.6700     78.6570   8.3333274041e+01   3.5814575021e+01    0.1531594    0.1175087  16.38 0.0007051015    1.749    0.428
        44  -9.8839     70.1154     72.2615   1.0463149467e+02   5.3761044953e+01    0.1789788    0.1638046  12.06  0.000419545    1.115    0.104
        45 -11.5440    168.8042     68.6724   7.7512022259e+01   3.3927110276e+01    0.4762851    0.2961278 -88.38  0.001344081    2.445    0.591
        46 -11.9211     45.2791    201.7271   1.3655798287e+02   2.6946669168e+01      0.70158    0.3168549  69.69 0.0009796041    2.967    0.663
        47 -12.5530     40.3576    213.4238   1.3876658104e+02   2.4887304285e+01    0.2635889    0.1761751  61.89  0.001131959    1.334    0.250
        48 -13.7413    177.6680     40.7442   6.8654825443e+01   3.5932320798e+01    0.8132585    0.6345773  -7.24 0.0008180335    1.792    0.442
        49 -16.0953     72.0007    149.9380   1.2269774686e+02   3.5958229423e+01     5.670464     3.116294  81.37   0.01586012    3.646    0.726
        50 -12.2232    106.2481    201.7973   1.2284825705e+02   1.7926464640e+01     0.453622     0.255157  37.93  0.001431365    1.779    0.438
        51 -12.9324    195.8665    195.9512   1.0179872987e+02   2.6020500690e+00    0.8903255    0.7033951  81.97  0.004443908    1.904    0.475
        52 -13.1855     67.9896    196.2711   1.3086361349e+02   2.5219274722e+01    0.7320426    0.5514328 -74.89  0.002431417    1.217    0.179
