#   1 NUMBER                 Running object number                                     
#   2 MAG_AUTO               Kron-like elliptical aperture magnitude                    [mag]
#   3 X_IMAGE                Object position along x                                    [pixel]
#   4 Y_IMAGE                Object position along y                                    [pixel]
#   5 X_WORLD                Barycenter position along world x axis                     [deg]
#   6 Y_WORLD                Barycenter position along world y axis                     [deg]
#   7 A_WORLD                Profile RMS along major axis (world units)                 [deg]
#   8 B_WORLD                Profile RMS along minor axis (world units)                 [deg]
#   9 THETA_WORLD            Position angle (CCW/world-x)                               [deg]
#  10 FWHM_WORLD             FWHM assuming a gaussian core                              [deg]
#  11 ELONGATION             A_IMAGE/B_IMAGE                                           
#  12 ELLIPTICITY            1 - B_IMAGE/A_IMAGE                                       
         1 -18.2795    232.8125     67.3606   5.4480686074e+01   1.8086602840e+01     6.442476      5.68051 -36.73   0.02612235    1.091    0.083
         2  -9.3305    154.6050     11.9590   5.0080655411e+01   4.5159401543e+01    0.3052518    0.2374815  23.27 0.0007787399    1.448    0.309
         3  -7.7833    168.8762     11.1744   4.7671563963e+01   4.1562907541e+01    0.1764693    0.1480623  39.07 0.0002594751    1.263    0.208
         4  -9.5735    135.9704      9.5367   5.2470843404e+01   5.0102633583e+01     0.289196    0.2035227 -11.22  0.001513278    1.590    0.371
         5  -8.6336    212.8211      9.5124   4.2015517258e+01   3.0539685969e+01    0.1891406    0.1635632 -64.94 0.0007621266    1.070    0.065
         6  -9.1965    131.7205      3.9555   5.1216137124e+01   5.1662967228e+01    0.5543365    0.2520104  -3.33  0.002134846    3.238    0.691
         7  -9.7398    181.8621      2.4304   4.3372551853e+01   3.9062825608e+01    0.3239235     0.267449  78.59  0.001898735    1.082    0.076
         8  -9.7748    218.6972      1.3638   3.9418657200e+01   2.9944435306e+01    0.2880468    0.1126513  73.85 0.0008522567    2.349    0.574
         9  -8.7436    214.0820      1.0000   3.9728765130e+01   3.1103879709e+01    0.3039531   0.08787209  70.79 0.0007796271    3.016    0.668
        10 -11.4181      5.1340    151.9621   1.2661936450e+02   4.2147323275e+01     1.048311     0.465323 -86.74  0.005606429    1.886    0.470
        11 -12.9540     23.0333    147.4717   1.2210815060e+02   4.1690218624e+01      2.27015      1.01226  59.15   0.01108608    2.436    0.590
        12 -10.8135    191.2439    151.1743   8.2470702230e+01   1.2833088151e+01    0.7123781    0.3165517 -50.82  0.002540485    2.883    0.653
        13  -9.2162    162.1270    154.5312   8.9455080133e+01   1.8281506932e+01    0.2378852    0.2100596  -1.89 0.0008235032    1.275    0.215
        14  -9.4150    135.5273    153.5168   9.5374878703e+01   2.3886991103e+01    0.4285018    0.3020689 -38.96  0.001690851    1.588    0.370
        15 -10.5001    134.0004    147.4203   9.4491028613e+01   2.5519545484e+01      1.45751    0.3795256 -54.94  0.003661977    5.400    0.815
        16 -10.3747    245.7966    179.3506   7.8157194566e+01  -2.1902862017e+00    0.4384355    0.2090915  35.31  0.001803389    2.069    0.517
        17  -8.0278    205.5283    151.5381   7.9685776284e+01   9.7975103335e+00    0.1439061    0.1362259   4.94 1.405538e-05    1.031    0.030
        18  -8.7637     73.9779    178.6576   1.1387470872e+02   2.8731673846e+01    0.1701302    0.1437106  64.74 0.0003884844    1.089    0.082
        19  -9.4631    151.3397    149.4078   9.0814448607e+01   2.1574544329e+01    0.2974072    0.2148309  87.61  0.001042636    2.031    0.508
        20 -10.1191    173.1610    148.9613   8.5810889323e+01   1.7081767966e+01      0.43268    0.2173995  55.81  0.001618123    2.409    0.585
        21 -13.5152     65.5991    138.0605   1.1016843873e+02   3.9214716129e+01     1.641076     1.475196 -11.06  0.004360076    1.462    0.316
        22 -10.4490    250.1797    191.2928   7.9742730331e+01  -4.5512648959e+00    0.2805648    0.1682465 -30.43  0.000883467    1.616    0.381
        23  -9.3525    191.9883    144.1261   8.0733800315e+01   1.3993842272e+01     0.343681    0.2098634 -39.17 0.0004063818    1.647    0.393
        24 -11.6393    190.4731    139.4932   7.9979121565e+01   1.5195348742e+01    0.8246895    0.6896826  77.51  0.003225439    1.502    0.334
        25 -11.0726    194.5027    137.5170   7.8692715571e+01   1.4692277704e+01    0.8415912    0.4519832 -53.97    0.0027546    2.442    0.590
        26  -8.5954    250.6207    143.2720   6.9787117690e+01   2.3144664705e+00    0.2997144    0.2124632 -13.72  0.001096596    1.405    0.288
        27  -9.2355    250.3574    137.8905   6.8643826667e+01   3.1947450083e+00    0.3542277    0.1614412 -34.06  0.001145638    1.978    0.495
        28 -12.1153    178.3457    140.2462   8.2713653446e+01   1.7689344651e+01     1.162931    0.7716175 -56.80  0.005117833    1.809    0.447
        29 -11.8418    184.1913    120.1539   7.6613849678e+01   2.0323298601e+01      1.33584    0.6762202 -37.42  0.005194165    1.983    0.496
        30  -9.4407    158.4853    142.9339   8.7748101977e+01   2.1430954062e+01    0.3030955    0.2543981  50.74 0.0007563152    1.180    0.152
        31 -10.2773    153.8902    138.2339   8.7745826502e+01   2.3398249164e+01    0.4844915    0.2899204 -26.16  0.001303535    2.387    0.581
        32  -9.6165    166.1477    137.6461   8.4798275770e+01   2.0871990501e+01    0.3075683    0.2258901 -51.23 0.0007197164    1.434    0.303
        33  -9.7082    166.1488    133.8616   8.3909821041e+01   2.1647524870e+01    0.2838567    0.2570704 -67.91 0.0006616421    1.200    0.167
        34  -9.4695    159.0157    137.2056   8.6319981606e+01   2.2512154056e+01    0.2725133    0.2308923 -43.74  0.001376287    1.199    0.166
        35 -11.1689    161.2465    128.2795   8.3688954842e+01   2.3885601943e+01    0.5747496    0.5467656  -1.60  0.001933114    1.098    0.090
        36 -11.7442     53.6344    141.8237   1.1384954696e+02   3.9829256006e+01    0.4438575    0.4147223  87.84 0.0008912832    1.144    0.126
        37 -10.4153    159.5338    110.6040   7.9609352537e+01   2.7940350626e+01    0.5722566    0.3804334 -46.22  0.001831138    1.512    0.339
        38 -11.0998    171.1136    124.0099   8.0406217142e+01   2.2546079985e+01    0.7774292    0.5013397 -44.94  0.003270488    1.563    0.360
        39 -11.9612    167.5524    115.5463   7.9061866233e+01   2.5076961210e+01     1.217955    0.8085774  25.36  0.005006932    1.982    0.495
        40 -10.2565    143.9127    145.7327   9.1763072279e+01   2.3886730150e+01    0.6772444    0.3844098 -70.89  0.002362135    3.141    0.682
        41  -8.1786     97.8832    124.6508   9.8920065993e+01   3.7487332302e+01    0.1968372    0.1831346  63.53 0.0005210032    1.096    0.087
        42 -10.0178    152.4163    120.7796   8.3909823732e+01   2.7426996869e+01    0.5006939     0.330993  13.36  0.001889469    2.553    0.608
        43 -10.6672    154.6296    115.0336   8.1919801947e+01   2.8142540779e+01    0.7656977    0.3938811 -62.85            0    3.539    0.717
        44  -8.1695     30.3772    120.2581   1.1699857218e+02   4.7359176591e+01    0.1763045    0.1019099 -79.43 0.0004223943    1.558    0.358
        45  -9.2438    196.1097    179.9534   8.7478801673e+01   6.7217641251e+00    0.3232534    0.2488622  70.73  0.001198279    1.870    0.465
        46  -8.8873    139.4304    108.7105   8.3989836323e+01   3.2890103165e+01    0.2200967    0.1491974 -33.65 0.0009452814    1.598    0.374
        47  -7.9946     78.6552    107.8356   1.0067098242e+02   4.4563972437e+01    0.2016043    0.1253185 -64.82 0.0004237546    1.620    0.383
        48 -10.0301    144.6554    106.1618   8.2000399367e+01   3.2268854379e+01    0.3311231    0.3060369 -88.50 0.0005696014    1.165    0.142
        49  -9.8670    249.3187    171.9000   7.6058223225e+01  -1.7231774950e+00    0.3244465    0.2092118  32.58  0.001518245    1.519    0.342
        50  -8.5102     98.9025     90.8065   9.0261157876e+01   4.5081028908e+01    0.2083436    0.1907602 -23.80 0.0002839241    1.116    0.104
        51  -9.5428    193.5694    170.9295   8.6189007759e+01   8.7748719228e+00    0.2505481     0.185927  31.03  0.000704426    1.302    0.232
        52 -10.1940    185.0705    169.6222   8.7657761575e+01   1.0694446025e+01    0.3876243     0.213368 -38.85  0.001719638    1.921    0.480
        53  -9.3279      7.4344     82.7534   1.1832844801e+02   5.7689105889e+01    0.1811389   0.07948344 -59.46 0.0009545377    1.663    0.399
        54 -10.4826    243.0868    165.2512   7.5749267775e+01   3.3473866804e-01    0.4726125    0.3102087  52.53  0.002453865    1.895    0.472
        55  -8.0997    146.4220     75.4397   7.2668433805e+01   3.8019202364e+01    0.1530111    0.1503198  -0.65 0.0001181014    1.017    0.017
        56  -9.3392    151.0745     71.2406   7.0267915489e+01   3.7660802108e+01    0.3040685    0.2167779 -41.25 0.0005248296    1.405    0.288
        57 -10.1871    114.0269     69.8363   7.9411051002e+01   4.6453467820e+01     0.260941    0.2319665 -45.72 0.0002377906    1.143    0.125
        58 -10.1843    188.5317    180.6296   8.9127619824e+01   8.0584432630e+00    0.2519514    0.2314266  33.25 0.0004372372    1.064    0.060
        59  -8.9155    110.9380     63.8412   7.8314625161e+01   4.8245153140e+01    0.2492594    0.2038356 -34.63 0.0004842697    1.190    0.160
        60 -10.1338    199.3361    162.6909   8.3324254649e+01   9.0811248691e+00    0.3289536    0.2443926 -77.41  0.001507454    2.268    0.559
        61 -10.1302    123.2277     30.6444   6.3037121088e+01   5.0806478253e+01    0.3693184    0.2657625   3.95  0.001217367    1.622    0.384
        62 -10.2016    117.4483     39.2882   6.7737952616e+01   5.0939875733e+01    0.4448747    0.1950077  44.64  0.001743163    2.219    0.549
        63 -11.1761    124.0937     37.9072   6.5516729052e+01   4.9605034162e+01    0.5915619    0.3700157  53.41  0.001927094    1.551    0.355
        64 -10.8113     21.5329    161.9157   1.2379495567e+02   3.8571978971e+01    0.3977031     0.244174  54.13   0.00246685    1.550    0.355
        65 -10.0387    152.8414     25.8986   5.5056718290e+01   4.4078541447e+01    0.5207509    0.1802797  48.07  0.001813883    2.787    0.641
        66  -8.2698     43.1572     25.8852   8.8033052558e+01   6.6303053828e+01    0.1706069    0.1468256 -27.90 0.0003243513    1.197    0.165
        67 -10.3065    194.5206    162.6409   8.4280723438e+01   1.0059720757e+01    0.3484934    0.2170212  26.37  0.001555572    1.855    0.461
        68  -8.4788    138.6277     21.2454   5.6174536181e+01   4.8214225315e+01    0.1856744    0.1356999  -7.35 0.0006429912    1.552    0.356
        69  -8.1434    141.0446    181.3646   9.9303871007e+01   1.7014792702e+01     0.187156    0.1632683  51.79 0.0009085458    1.050    0.048
        70  -8.7018    208.9504    164.2324   8.1762601366e+01   6.9041208136e+00    0.1916814    0.1818709  40.28 0.0002975989    1.170    0.145
        71  -8.2328    232.9158    216.8861   8.7400836633e+01  -5.1487880930e+00    0.1776804    0.1315421  11.11 0.0002895074    1.175    0.149
        72  -8.3024     74.1924    163.1225   1.1178337208e+02   3.2181848204e+01    0.1782505    0.1634214 -75.64 0.0003160601    1.162    0.139
        73 -10.5234    208.4624    209.2483   9.0498048429e+01  -1.0731925151e-01    0.3991252    0.2177558  47.63 0.0005923792    1.899    0.473
        74 -10.8716    203.4776    200.8704   8.9959703295e+01   1.9994789469e+00    0.4737739    0.2418332  23.72  0.002015266    2.537    0.606
        75 -11.2800    192.8732    194.5745   9.0873646034e+01   4.8997287182e+00    0.9437541    0.5761496 -64.36  0.003972571    3.240    0.691
        76  -9.9014    213.8553    164.7423   8.0929802684e+01   5.8604925028e+00    0.3451307    0.2204354 -36.13  0.001141752    1.573    0.364
        77  -9.7999    231.1786    199.0649   8.4516780391e+01  -2.5055549523e+00    0.2775987     0.248882 -76.88  0.001730877    1.844    0.458
        78 -10.0144    121.6253    242.1343   1.1160808258e+02   9.3309823072e+00    0.2042981    0.1653473  49.67 0.0002992521    1.066    0.062
        79  -9.5646    215.2035    158.7243   7.9393039772e+01   6.6062944372e+00    0.2834564    0.2349338  60.29 0.0007097463    1.480    0.324
