#   1 NUMBER                 Running object number                                     
#   2 MAG_AUTO               Kron-like elliptical aperture magnitude                    [mag]
#   3 X_IMAGE                Object position along x                                    [pixel]
#   4 Y_IMAGE                Object position along y                                    [pixel]
#   5 X_WORLD                Barycenter position along world x axis                     [deg]
#   6 Y_WORLD                Barycenter position along world y axis                     [deg]
#   7 A_WORLD                Profile RMS along major axis (world units)                 [deg]
#   8 B_WORLD                Profile RMS along minor axis (world units)                 [deg]
#   9 THETA_WORLD            Position angle (CCW/world-x)                               [deg]
#  10 FWHM_WORLD             FWHM assuming a gaussian core                              [deg]
#  11 ELONGATION             A_IMAGE/B_IMAGE                                           
#  12 ELLIPTICITY            1 - B_IMAGE/A_IMAGE                                       
         1  -9.5375     31.6698     13.4008   1.0192946482e+02   6.7970971763e+01    0.4321019    0.3046681 -42.73  0.002472172    1.938    0.484
         2 -10.4963     19.3752      6.8379   1.0434131764e+02   7.0101112297e+01     1.363089    0.8691357 -55.14   0.00696222    4.425    0.774
         3 -10.2807     10.4529     18.5458   1.1338295434e+02   6.9355513014e+01     1.180215    0.4560453 -15.71  0.004013697    6.596    0.848
         4  -9.3261      2.3212     14.4831   1.1552946659e+02   7.0544858898e+01    0.3698835    0.1846236 -53.12  0.001646213    2.657    0.624
         5 -10.3636      4.8840      4.6089   1.1012175382e+02   7.1691426389e+01    0.4218837    0.3018188  -6.31  0.001467365    1.113    0.101
         6 -10.7229     23.4249     34.1350   1.1366002873e+02   6.5898782833e+01    0.6690648    0.3906249 -30.85  0.002380332    1.385    0.278
         7 -10.3648      4.4713     41.6845   1.2401035979e+02   6.6069799340e+01    0.8175586    0.2882184 -55.70  0.003890816    2.512    0.602
         8 -10.0995     74.1523     55.6626   1.0246218756e+02   5.6075813858e+01      1.36491     0.568538 -28.03  0.004163978    3.176    0.685
         9 -10.1248     69.4326     40.5857   9.8685828436e+01   5.9185179204e+01     1.389724    0.3755387 -35.24  0.005036182    3.674    0.728
        10  -9.8258     60.8657     31.9167   9.8356407016e+01   6.1722327389e+01    0.8765339    0.3891886 -22.38  0.002813151    2.726    0.633
        11 -10.0844     76.2828     31.8475   9.3155828404e+01   5.9263127609e+01     0.433493      0.35831 -71.50  0.001325242    2.094    0.522
        12  -9.7930     63.1182     21.5132   9.3444227006e+01   6.2701261061e+01    0.4682969    0.3022165 -45.99   0.00177704    2.238    0.553
        13 -10.1428     64.4851     13.4046   8.9649413508e+01   6.3385249735e+01    0.4194409     0.269591 -25.52  0.002117568    1.563    0.360
        14  -9.7172     63.6784      3.2611   8.5621881822e+01   6.4493954022e+01    0.3538839    0.2637559  -8.47  0.002123971    1.278    0.218
        15  -8.8385     46.7814     20.0148   9.8726544678e+01   6.5266053967e+01    0.3486306    0.1819189 -14.26  0.001492572    2.135    0.532
        16 -10.1532     52.1626     13.8156   9.4102227982e+01   6.5242106460e+01    0.6782766    0.3576488  12.96  0.003528588    2.287    0.563
        17 -10.1687     46.2145     29.5561   1.0280824987e+02   6.4080863824e+01    0.4672902     0.249384 -46.31  0.001528404    2.376    0.579
        18  -9.0579    132.3680      5.6921   7.0023140360e+01   5.0471888328e+01    0.3586106    0.1998623  43.07  0.001877701    1.664    0.399
        19  -8.3479    135.7345      1.5075   6.8136203815e+01   5.0038442000e+01    0.3095753    0.1103137  66.32  0.001047932    2.477    0.596
        20  -9.7228    131.3711     17.0399   7.3836126804e+01   4.9675109011e+01    0.4901455    0.2984204  73.21  0.002010692    1.803    0.445
        21  -9.2399    124.5526      5.3605   7.1341251364e+01   5.2266847707e+01    0.5239763    0.1765913  52.67  0.002260457    2.285    0.562
        22  -8.4703    125.0003     12.9803   7.3764650272e+01   5.1505180578e+01    0.2553242    0.1802258 -38.56 0.0007916347    1.642    0.391
        23  -8.2411    126.8083      9.1598   7.2158270962e+01   5.1439738692e+01     0.261685    0.1643313  41.43 0.0004925023    1.464    0.317
        24  -8.8070    133.1193     11.9820   7.1885143432e+01   4.9752135802e+01    0.3915761    0.1335938 -32.21  0.001446124    3.080    0.675
        25  -9.2288    115.3187      4.3690   7.2811490249e+01   5.4385157722e+01    0.2829801    0.2323467 -77.68 0.0007207669    1.570    0.363
        26  -8.9325    110.9888      4.4949   7.3748977486e+01   5.5309842761e+01    0.2088378    0.1551894  22.27 0.0008570027    1.348    0.258
        27  -8.7787    112.2384     15.5759   7.7350615612e+01   5.4069136100e+01    0.2852452    0.1899149 -39.27 0.0007933491    1.774    0.436
        28  -9.2104    113.9775     10.2007   7.5099369908e+01   5.4187243053e+01    0.3364274    0.1686466  41.81 0.0004747217    1.790    0.441
        29  -8.6263    110.1745      8.1241   7.5196108198e+01   5.5184545930e+01    0.2345656    0.1700877  71.07 0.0007815436    1.530    0.346
        30  -9.1812    101.8875      8.3051   7.7134753672e+01   5.6909161025e+01    0.3193774    0.2285417  65.36 0.0006332512    1.513    0.339
        31  -8.4213    104.4504     15.5258   7.9145731955e+01   5.5720615915e+01    0.3948115     0.216601  11.45  0.001631027    2.517    0.603
        32  -8.4577     97.6621      5.7008   7.7176172348e+01   5.7992710083e+01    0.2920816    0.1706466  21.54  0.001351725    1.845    0.458
        33  -8.6858     95.9886      3.0010   7.6568140189e+01   5.8548806708e+01    0.2720103    0.1947981  30.35 0.0007627934    1.229    0.187
        34  -8.2442     72.0401      8.5324   8.5228588248e+01   6.2592427994e+01    0.2214708    0.1384842 -22.72 0.0008212173    1.635    0.388
        35  -8.5231     77.1411      6.9526   8.3068883182e+01   6.1830112043e+01    0.2928259    0.1631304 -18.40  0.001242724    1.854    0.460
        36  -8.6785     78.6423      3.0412   8.1058975037e+01   6.1891591802e+01    0.2320345    0.1900147 -33.54  0.001061054    1.541    0.351
        37  -9.4411     73.4549     19.3240   8.9168542521e+01   6.1249108473e+01    0.4198298    0.1984075 -36.79  0.001400272    2.378    0.580
        38  -8.5485     74.0249     12.4585   8.6227930873e+01   6.1868085880e+01    0.3501023    0.1773518   7.00   0.00159247    2.863    0.651
        39  -9.3254    231.0034     17.1244   6.0338070000e+01   2.6000124942e+01    0.3208314    0.2072912 -38.27  0.001119637    1.612    0.380
        40 -10.5495     36.9947      9.2315   9.7906199636e+01   6.7817158869e+01    0.7228797    0.2492074 -37.25  0.002190398    3.065    0.674
        41  -9.2803     96.0589     15.2014   8.1114610576e+01   5.7462285787e+01    0.4896913    0.2212348 -15.35  0.002225136    2.708    0.631
        42  -9.5510     85.1654     13.0817   8.3225296436e+01   5.9780882675e+01     0.360471    0.2467461 -53.96  0.001713885    2.400    0.583
        43  -7.3967    203.6184     11.2366   6.1745966255e+01   3.3016201430e+01    0.1462286    0.1259074 -18.93 0.0003380528    1.506    0.336
        44  -8.9873    137.8398      9.1700   7.0156175409e+01   4.8915422636e+01    0.2216634    0.1592287  -4.23  0.001272451    1.691    0.409
        45  -8.0704     85.7536      6.2457   8.0394050497e+01   6.0290888818e+01    0.3408504    0.1255091  40.73   0.00155529    2.347    0.574
        46  -8.9435     88.7670      2.7563   7.8250935706e+01   5.9998426301e+01     0.384339    0.2504314  44.91  0.001568942    1.277    0.217
        47  -8.1206    143.0030      5.0161   6.8023285569e+01   4.8072059882e+01    0.1940582    0.1412281 -69.30 0.0005950765    1.659    0.397
        48  -8.4469    104.3509      2.4166   7.4439596469e+01   5.6877835784e+01    0.2720083    0.1545941  31.64  0.001183796    1.714    0.417
        49  -7.1066    175.2464      3.9943   6.3202626313e+01   4.0507708072e+01    0.1335409    0.1097966 -33.07  0.000198208    1.414    0.293
        50  -9.4447     94.2693     97.3102   1.0894968365e+02   4.4725246810e+01    0.3868256    0.2992536 -57.85 0.0005915563    1.353    0.261
        51 -11.2972    198.7428    248.7428   1.1582880413e+02  -6.4488064290e+00    0.8906538     0.309215  37.79  0.003770056    2.517    0.603
        52 -10.2025     78.0565    113.0086   1.1771137434e+02   4.3900409783e+01    0.5415603    0.3335411 -75.46  0.001629113    2.317    0.568
        53  -9.3914     81.1607    101.0755   1.1383467885e+02   4.6097787642e+01    0.6219516    0.3507506 -42.24  0.001845829    1.679    0.404
        54  -7.8636     82.5113     93.6403   1.1144535639e+02   4.7488406441e+01    0.2766149    0.1858551   0.24  0.001238819    2.222    0.550
        55  -9.8981     14.7789    112.2105   1.3597960177e+02   5.1091855836e+01    0.4931838    0.2688624  73.55  0.002353785    2.884    0.653
        56  -7.8546      1.3235    115.7799   1.4021264093e+02   5.1187449537e+01    0.2282474   0.08761614 -72.14  0.001097078    2.113    0.527
        57 -10.4504     62.8497     95.7121   1.1805572995e+02   4.9927141369e+01    0.6867293    0.4207678 -76.98  0.001512881    2.700    0.630
        58  -8.7908     63.6918     86.7174   1.1542989439e+02   5.1731243969e+01    0.6794568    0.3831697  -0.26  0.002599864    3.599    0.722
        59 -10.1060     65.9334    109.8652   1.2053572233e+02   4.6361798129e+01    0.9660156    0.4172894 -54.77   0.00319505    2.045    0.511
        60  -9.5458     59.0098    109.4844   1.2250772023e+02   4.7355963492e+01    0.6106615    0.2774291 -62.75  0.001848008    2.269    0.559
        61  -8.9480    158.7924    111.9581   9.6060736297e+01   2.8097241716e+01    0.2798938    0.2113362 -62.46 0.0005110559    1.474    0.322
        62  -8.9995     36.7566    111.8796   1.2959219367e+02   4.9299305474e+01    0.2340754    0.1501362  61.73  0.001220175    2.125    0.529
        63  -9.0126    149.9551    109.7948   9.7560073533e+01   3.0589086320e+01    0.3707908    0.2013102 -57.38 0.0007409322    2.294    0.564
        64 -10.9147     44.5618    102.3594   1.2530095518e+02   5.0649243929e+01     0.810226    0.4749886  77.70  0.003135363    3.761    0.734
        65  -8.2456     40.0499    106.8339   1.2761717988e+02   5.0115503476e+01    0.2237502    0.1485924 -75.01  0.000334082    1.611    0.379
        66 -10.4408     25.8607     78.3733   1.2584841384e+02   5.7570183635e+01     0.592323    0.4082319  74.55  0.001917246    2.516    0.603
        67 -10.7294     20.8867    101.3995   1.3232819977e+02   5.3041717527e+01    0.9248489    0.4843486  81.13  0.003445951    4.309    0.768
        68 -10.1094     19.3243     86.9649   1.2995737383e+02   5.6287422508e+01    0.9991768     0.197864 -53.21  0.003657867    3.096    0.677
        69  -9.8837     34.4510     90.7608   1.2589543501e+02   5.4206328071e+01    0.5711273    0.2878287 -75.21  0.001823949    3.157    0.683
        70  -9.8972     36.7753     81.1244   1.2282902569e+02   5.6019506071e+01    0.5925093    0.2971534 -22.31  0.002576011    3.016    0.668
        71  -9.6905     34.8497    105.5250   1.2891541012e+02   5.0920476506e+01    0.3479039    0.1720814 -35.11  0.001295214    2.414    0.586
        72  -9.6324      6.0673    103.9287   1.3714861994e+02   5.3514758240e+01    0.3670149    0.2735921  65.14  0.001607847    1.664    0.399
        73  -8.5982    165.9859    103.9460   9.2318406288e+01   2.8046361866e+01    0.2882542    0.2161607 -43.42 0.0004367682    1.320    0.242
        74  -9.4907    149.4200    103.3522   9.5955779554e+01   3.2049501814e+01    0.4360507    0.2914033 -51.18 0.0008353629    1.546    0.353
        75  -8.7156     14.3469    104.9685   1.3490909135e+02   5.2737090602e+01     0.206822     0.131946 -39.75 0.0008416533    1.546    0.353
        76  -9.2563    158.9652    101.4084   9.3208762558e+01   3.0217054342e+01     0.350364     0.228643 -39.63 0.0004980231    1.539    0.350
        77  -7.6093     73.6595    102.8275   1.1653275113e+02   4.6853313773e+01    0.1938961    0.1220164 -59.55 0.0003717811    1.602    0.376
        78  -7.3256    199.3218     99.0061   8.4294055367e+01   2.1027074826e+01    0.2005238    0.1863416 -52.47 0.0004259678    1.044    0.042
        79  -9.0643    149.7130     96.6502   9.4046770214e+01   3.3336033693e+01     0.475465      0.28342  34.98  0.001693667    2.016    0.504
        80  -9.0845    239.9645     95.5748   7.6799094035e+01   1.2361552455e+01    0.3106807    0.1843669 -20.92  0.001288198    2.484    0.597
        81  -8.2692    170.6248     96.1329   8.9221477445e+01   2.8474068948e+01    0.2196442    0.1477241 -27.29 0.0004393876    1.733    0.423
        82  -9.2996    164.3531     93.7469   8.9923943201e+01   3.0441082992e+01    0.4981547    0.2702242 -37.75  0.001217211    1.880    0.468
        83  -8.5586    163.5301     86.8125   8.8192021075e+01   3.1950893654e+01    0.4348132     0.187434 -34.03  0.001514857    2.579    0.612
        84  -9.8591    139.0077     91.9378   9.5304674706e+01   3.6728611366e+01    0.6749697    0.3831167 -45.45  0.001899072    1.775    0.437
        85 -10.1815      4.3310     89.7204   1.3526879178e+02   5.6687139322e+01    0.5634304    0.3003766 -85.76  0.001930178    2.530    0.605
        86  -9.1364    150.2590     89.1907   9.1830296471e+01   3.4664817678e+01    0.4807661    0.2590657 -33.61  0.001894413    2.023    0.506
        87  -9.3134    111.1157     90.0116   1.0207151931e+02   4.3077322572e+01    0.8602498    0.3779525  30.74  0.002767069    3.582    0.721
        88  -8.6302    157.2439     91.2545   9.0811742377e+01   3.2618340427e+01    0.2246135    0.2143503  10.03  0.001186741    1.129    0.114
        89 -10.5611     55.0832     70.9223   1.1379383403e+02   5.6030140352e+01    0.5339286    0.3998152  65.78  0.001190512    2.216    0.549
        90  -9.0882     54.5203     63.2955   1.1165807614e+02   5.7540858592e+01    0.6099153    0.3003967  34.26   0.00301568    2.209    0.547
        91 -10.2408     62.3167     60.8205   1.0816582609e+02   5.6950902952e+01    0.7131071     0.297724  31.78  0.003120099    2.636    0.621
        92 -10.2881     47.7249     84.4193   1.2001989292e+02   5.4186074971e+01    0.5930001     0.363844 -67.06  0.001661845    1.979    0.495
        93  -9.1444     48.5304     77.4905   1.1790264924e+02   5.5518282295e+01    0.5312148    0.2861352  -3.15  0.002165247    3.484    0.713
        94  -8.0912    174.3842     89.1689   8.6559431246e+01   2.8882673518e+01     0.219677    0.1387218 -49.35  0.000396875    1.623    0.384
        95  -9.8509     81.5061     72.4562   1.0556323493e+02   5.1902972536e+01    0.4215523    0.3062561 -68.69 0.0009589245    2.070    0.517
        96  -9.0390     83.3335     64.5957   1.0248345036e+02   5.3032866228e+01    0.5129744    0.3166296 -13.83  0.002340215    2.170    0.539
        97 -10.1555     85.2393     86.6473   1.0865252786e+02   4.8499729075e+01    0.4628584    0.3558896 -68.84 0.0008561843    1.660    0.398
        98  -7.0413     78.3070     89.6518   1.1163224135e+02   4.8993736696e+01    0.1367202    0.1107452 -86.30 0.0007043082    1.703    0.413
        99  -8.9571    157.8479     83.8841   8.8611186198e+01   3.3859410261e+01    0.5538431    0.2069474 -43.71  0.001136923    2.710    0.631
       100  -8.9183    156.8927     76.2090   8.6636083658e+01   3.5469435827e+01    0.5988588    0.2579585 -47.04  0.002030456    2.540    0.606
       101  -8.9005    156.6097     70.0178   8.4912421755e+01   3.6602474862e+01     0.472224     0.217872 -32.84  0.001291784    2.363    0.577
       102  -8.8418     27.0562     85.7963   1.2717713143e+02   5.5922398653e+01    0.3243786    0.1920562  70.13  0.001426263    3.676    0.728
       103 -10.2775    103.9008     82.6726   1.0194856565e+02   4.5946979088e+01    0.5144265     0.322696 -54.38 0.0007864497    1.830    0.453
       104  -9.2997    104.4186     72.7328   9.8755810625e+01   4.7722549546e+01     0.671247    0.3768339 -21.22   0.00268634    2.503    0.601
       105  -9.4277    109.7468     63.9013   9.4448014303e+01   4.8207149398e+01     0.397717     0.378704 -23.68 0.0006835163    1.085    0.079
       106  -8.9933    110.5983     58.0899   9.2323320184e+01   4.8986821668e+01    0.4152196     0.268946  25.83   0.00123486    1.791    0.442
       107  -9.3311     87.1145     78.8710   1.0578646158e+02   4.9736017022e+01    0.5838587     0.341849  20.32  0.001976169    2.350    0.574
       108  -8.3037    170.0156     83.9200   8.6025126170e+01   3.0909851203e+01    0.2449531    0.1828139 -74.59  0.001114474    1.639    0.390
       109  -8.9862    139.8691     75.5259   9.0315484651e+01   3.9612013453e+01    0.5519317    0.3090023 -44.03   0.00161256    1.839    0.456
       110  -8.6709    140.3286     83.0624   9.2424965893e+01   3.8131627395e+01     0.339903    0.2509385 -64.53 0.0007146446    1.663    0.399
       111  -8.0647    140.3323     79.3516   9.1336758451e+01   3.8815985503e+01    0.2665242    0.2030145  18.93 0.0005326174    1.627    0.385
       112  -9.2880    149.9066     80.3518   8.9385453950e+01   3.6397270301e+01    0.4481092    0.2420897 -38.84  0.001559088    1.872    0.466
       113  -9.2296    119.2305     79.3530   9.6694679546e+01   4.3486631649e+01    0.6213894    0.2796873 -37.26  0.001912833    2.272    0.560
       114  -7.9616     63.3964     82.1891   1.1427510689e+02   5.2705926907e+01    0.1843436    0.1192559 -57.10 0.0006552637    1.625    0.384
       115  -8.9848     74.2152     80.4450   1.1028994879e+02   5.1504940621e+01    0.3297864    0.2230509 -62.65  0.001119468    1.874    0.466
       116  -8.1487     74.5144     74.9897   1.0856862491e+02   5.2531230054e+01    0.3942738    0.2137453   6.11    0.0013073    4.509    0.778
       117  -9.2263      5.6300     78.8709   1.3277886654e+02   5.8883708582e+01    0.5272604    0.2049328 -30.91   0.00241586    3.177    0.685
       118  -7.6769     68.6930     79.6642   1.1183535052e+02   5.2476888154e+01    0.2471894     0.112877 -48.29  0.001072034    2.014    0.503
       119  -8.0883    172.8700     79.1656   8.4138124604e+01   3.1063229774e+01    0.3798335    0.1652298  36.24  0.001100946    4.137    0.758
       120  -8.7792    166.4407     78.7653   8.5334926112e+01   3.2704791904e+01    0.2682421    0.1439264 -41.92 0.0005534309    1.867    0.465
       121  -8.1347    184.0923     77.9183   8.1635308092e+01   2.8527213103e+01    0.2280135    0.2176725  89.89 0.0006063902    1.014    0.013
       122  -9.4638    127.3743     75.1445   9.3287926362e+01   4.2501574420e+01     0.423587     0.275347 -59.49 0.0008397512    2.027    0.507
       123  -8.8092    129.6136     68.7891   9.0777432261e+01   4.3119739746e+01    0.5384412    0.2782884  25.43  0.001737765    3.766    0.734
       124  -8.7003    130.4848     64.5413   8.9247179677e+01   4.3638141205e+01    0.4445154    0.2342655 -44.45  0.001870854    2.031    0.508
       125  -9.7824    139.4941    103.5639   9.8426544715e+01   3.4261604847e+01    0.7019772    0.3343574 -44.90  0.001346086    2.078    0.519
       126 -11.0230    166.0788    247.6457   1.2185623687e+02  -7.8097192641e-01    0.6146792    0.3583673  54.56  0.003184241    1.797    0.444
       127  -9.3675    154.0240    249.8851   1.2447612328e+02   9.1711561566e-01    0.3087868     0.127263  37.39  0.001354154    2.257    0.557
       128  -7.8260    111.6993    246.0633   1.3203672992e+02   8.6854371963e+00    0.1671873    0.1438164  70.21  0.000383664    1.084    0.078
       129  -8.6833     95.8575     91.1880   1.0677403993e+02   4.5730035839e+01    0.4629873    0.2979581  -6.57  0.001868002    2.630    0.620
       130  -9.4734    187.7915    233.9295   1.1553524394e+02  -2.3359807314e+00    0.3033429    0.2109367 -30.63  0.001013695    1.657    0.397
       131  -9.8106     15.8417     70.8532   1.2750935848e+02   5.9861631611e+01    0.5595354     0.203451 -48.21  0.001170602    2.011    0.503
       132  -9.7732     16.8849     60.8026   1.2458259434e+02   6.1752099311e+01    0.5931708    0.2674557 -50.21   0.00324877    1.693    0.409
       133 -10.7546     21.8557     53.5935   1.2067202080e+02   6.2714770893e+01     0.708739    0.4331521 -77.32  0.003128327    3.815    0.738
       134  -8.6286     21.9658    232.3394   1.4698561190e+02   2.3853464446e+01    0.1889306    0.1287756 -81.94 0.0003673604    1.274    0.215
       135 -10.2010     13.1757     45.5225   1.2164247321e+02   6.4823418484e+01    0.7511252    0.3406813 -18.24  0.003334526    2.905    0.656
       136 -10.0687    167.8657    209.1685   1.1532660105e+02   5.6417281176e+00    0.2273647    0.2197662  47.94 0.0002556338    1.057    0.054
       137  -9.2916      6.5265     32.5109   1.2023644666e+02   6.7491209080e+01    0.1952842    0.1504004 -31.41 0.0005535502    1.100    0.091
       138 -10.0839      7.1789     28.4470   1.1855529138e+02   6.8101254401e+01    0.2715532     0.268897  38.89  0.001049013    1.662    0.398
       139  -7.6313    249.5422     74.5017   7.0790997799e+01   1.3808504316e+01    0.1366683    0.1179014 -60.83 7.929036e-05    1.020    0.019
       140  -8.7271    162.6750     73.3448   8.4589564311e+01   3.4566102393e+01    0.2993056    0.2062466 -60.46   0.00076334    1.705    0.413
       141  -9.1066    115.1769     72.0473   9.5544760844e+01   4.5673122188e+01     0.528465    0.2765451 -32.23  0.001252966    2.050    0.512
       142  -8.7621    169.5833     71.9581   8.2795387140e+01   3.3113084384e+01    0.3739069    0.1765345 -40.52  0.001461179    2.118    0.528
       143  -9.3061    146.7972     69.3368   8.6865356442e+01   3.9064771098e+01    0.3752014     0.269015 -58.92 0.0008995023    1.646    0.393
       144  -8.5626    146.7384     64.2150   8.5351113620e+01   3.9926673565e+01    0.3912862    0.2339574  22.63  0.001486637    2.754    0.637
       145  -9.8237     94.6892     68.1429   1.0014651058e+02   5.0396281622e+01    0.4559117    0.2492732 -46.64  0.001099843    1.932    0.482
       146  -9.3045     97.3504     58.1390   9.6081974615e+01   5.1609058683e+01    0.7080711    0.4296808 -12.34  0.003128254    2.274    0.560
       147 -10.3790     32.0563     64.5630   1.2005681707e+02   5.9773422891e+01    0.9048458    0.3746887 -32.66  0.002632276    2.690    0.628
       148  -8.1545     75.7616     67.2154   1.0574660468e+02   5.3799129933e+01    0.3869572    0.1065589 -46.15  0.001284186    3.637    0.725
       149  -7.9196     22.9687     69.1395   1.2456061856e+02   5.9667925602e+01    0.1639063    0.1439818 -53.33 0.0003429488    1.212    0.175
       150  -9.9828    239.3385     65.5746   7.0083625412e+01   1.7447125464e+01    0.2547722     0.238586 -72.03 0.0002375241    1.134    0.118
       151  -9.6607    243.8340     61.8649   6.8708901425e+01   1.7024997711e+01    0.3091223    0.2608437 -29.66  0.001004756    1.395    0.283
       152  -9.3197    138.2721     65.0497   8.7535697066e+01   4.1775421837e+01    0.6070691    0.2959242 -31.35  0.001493871    2.254    0.556
       153  -9.0494    121.1426     65.9373   9.2044497921e+01   4.5467930863e+01    0.3520469    0.2467748 -56.30 0.0007572044    1.763    0.433
       154  -8.3010    122.0298     61.2050   9.0315573831e+01   4.6058192155e+01    0.2995794     0.235009  13.33 0.0007799456    1.450    0.310
       155  -8.6933    157.7522     63.2275   8.2700942396e+01   3.7439891865e+01    0.2478057      0.18972 -51.03 0.0008839901    1.384    0.277
       156  -9.5343     99.9823     32.3613   8.6364077856e+01   5.4789878449e+01    0.4774086    0.4367011  12.00  0.001778389    1.069    0.065
       157  -7.9355     42.1367    210.2406   1.4156127037e+02   2.6066581535e+01    0.1683965    0.1472848 -86.65 0.0005922079    1.250    0.200
       158 -10.1663     85.0940     48.0831   9.6327603527e+01   5.5445950813e+01    0.3780017    0.3092712 -61.52  0.001028341    1.742    0.426
       159 -10.3517     89.5247     38.1904   9.1439073002e+01   5.6060571529e+01    0.8676811    0.3249172  34.76  0.003245555    3.221    0.690
       160  -8.4199      9.8009     59.9362   1.2698473984e+02   6.2400860968e+01    0.2773268    0.1902122 -88.41  0.001543142    2.480    0.597
       161  -8.1552    164.1983     60.2072   8.0533858055e+01   3.6342869328e+01    0.2065774    0.1682785 -73.12  0.000882916    1.364    0.267
       162  -8.1023    152.6913     59.7112   8.2722779277e+01   3.9219112971e+01    0.2971584    0.1814221 -20.22  0.001273697    2.099    0.524
       163  -8.9793    146.4762     58.9579   8.3828520791e+01   4.0823916130e+01    0.3373554    0.2279806 -44.67 0.0008792009    1.568    0.362
       164  -8.9336    147.4001     54.8381   8.2384998867e+01   4.1232494030e+01    0.3965094    0.1778191 -30.96  0.001547891    2.450    0.592
       165  -8.5428    130.0692     57.8990   8.7267983757e+01   4.4798232753e+01    0.2837566    0.1910904 -51.74 0.0004930624    1.750    0.429
       166  -8.5240     87.4064     58.4716   9.9186400215e+01   5.3380531457e+01    0.2947502    0.2277868 -54.66 0.0008926872    1.621    0.383
       167  -8.3804     87.3695     54.3062   9.7785307708e+01   5.4069172205e+01    0.2681914     0.207009  17.27  0.001515274    1.301    0.231
       168  -9.2353    138.8555     56.1702   8.4671786230e+01   4.3047077006e+01    0.5456381    0.2007127 -36.37  0.001243052    2.769    0.639
       169  -8.4369    141.9760     48.7557   8.1688932311e+01   4.3406133867e+01     0.271649    0.2108081 -29.43 0.0007582904    1.376    0.273
       170  -7.8582    142.4749     44.4917   8.0264475091e+01   4.3880654318e+01    0.2535416    0.1578556  37.86  0.000816976    1.712    0.416
       171  -8.5476    248.2694     55.9863   6.6915577475e+01   1.6942224949e+01    0.1957242    0.1525046 -55.37  0.001154867    1.118    0.105
       172 -10.0892    163.2246     53.7969   7.8882351075e+01   3.7554156683e+01    0.5741574    0.3516439 -49.48  0.001935766    1.784    0.439
       173  -9.3390    157.9040     51.8762   7.9354170271e+01   3.9135955032e+01    0.7454751    0.1906137 -33.38    0.0022728    4.057    0.754
       174  -9.0484    121.0293     46.8808   8.5921156401e+01   4.8450211689e+01    0.3345915    0.2158197 -31.67 0.0004891913    1.618    0.382
       175  -8.3293    122.4470     41.4202   8.3773872336e+01   4.8886432681e+01    0.4622471    0.2599618  16.02  0.001796641    3.063    0.674
       176  -9.2466    118.1067     55.1966   8.9386432398e+01   4.7857517007e+01    0.3422247    0.2784546 -66.99 0.0006286563    1.599    0.375
       177  -7.9510    119.9539     51.0000   8.7543024092e+01   4.8090475565e+01    0.2878858    0.1513672  50.54  0.001102422    1.810    0.447
       178  -8.9930     53.3244     38.8249   1.0369506761e+02   6.1802065757e+01    0.3974916     0.170689 -35.36  0.001628642    2.135    0.532
       179 -10.1386     50.0016     54.4434   1.1040690984e+02   5.9691459551e+01    0.5579167     0.356502 -61.55   0.00274868    2.428    0.588
       180  -9.8168     55.5745     43.7015   1.0466524434e+02   6.0748995934e+01    0.9291563    0.4735251  -3.25  0.003347633    4.519    0.779
       181 -10.2301     43.0364     49.8853   1.1144264780e+02   6.1303113208e+01    0.5497498    0.3930977 -63.87  0.002779232    2.182    0.542
       182  -9.8809     37.4907     41.9694   1.1082154586e+02   6.3238787705e+01     0.312467    0.2513446 -70.25  0.001590354    2.174    0.540
       183 -10.4953     35.8590     37.9969   1.1003579469e+02   6.4050760336e+01    0.5345897    0.2999288 -11.87 0.0004009177    2.084    0.520
       184  -8.2392    234.4108     55.5179   6.8427351631e+01   2.0090172794e+01    0.1379286    0.1158327 -68.42 0.0001572901    1.035    0.034
       185  -7.5872    240.9733     54.4618   6.7413738728e+01   1.8772169799e+01    0.1896134    0.1029811 -82.01 0.0004041462    2.425    0.588
       186  -9.0158    105.3931     51.9134   9.1695506201e+01   5.1012626071e+01    0.5635414    0.2536767 -29.06  0.001588169    2.458    0.593
       187  -8.7608    111.8952     46.7641   8.8204253293e+01   5.0430492378e+01    0.2898427    0.2627439   9.30  0.001019912    1.057    0.054
       188  -8.5461    112.6762     42.6620   8.6612785334e+01   5.0837850304e+01    0.2875485    0.1936863  10.35   0.00140596    1.867    0.464
       189  -9.5637    130.3121     46.4511   8.3565268467e+01   4.6434425707e+01    0.6902573    0.2723991 -24.13  0.001940646    3.476    0.712
       190 -10.5296    133.8797     31.0366   7.7829737667e+01   4.7593532060e+01    0.3334774    0.2529569  10.15   0.00182343    1.549    0.354
       191  -9.9078    136.9430     39.6502   7.9923608131e+01   4.5820719608e+01    0.5021733    0.3140315  64.48  0.001592225    1.639    0.390
       192  -8.6161    132.6572     35.8397   7.9630287696e+01   4.7295832181e+01    0.2699787    0.2041243 -35.83 0.0006093756    1.434    0.303
       193  -9.0505    149.8142     47.7395   7.9739174856e+01   4.1683695249e+01    0.2620741    0.1994147 -42.30 0.0005903229    1.397    0.284
       194  -9.9511     10.0508    207.2900   1.4731750044e+02   3.0213599489e+01    0.4642492    0.2527395  27.73  0.002712833    2.657    0.624
       195  -9.0316    192.1330    194.5837   1.0758912846e+02   3.7310201586e+00    0.9939798    0.4485157 -61.60  0.002329644    8.195    0.878
       196  -7.6697    169.0527    194.4843   1.1239136399e+02   8.2717839448e+00    0.2114033    0.1364398  43.45 0.0003326352    1.467    0.318
       197  -9.8159    100.9992    175.9953   1.2436927925e+02   2.5241974488e+01    0.2041534    0.1841835  86.98  0.001155741    1.006    0.006
       198  -7.7450    230.3014    168.7178   9.4801697341e+01   1.1104225050e+00     0.305316    0.1131293 -45.89  0.001086712    2.865    0.651
       199  -9.1060     84.7825     21.8010   8.6709061794e+01   5.8951726305e+01    0.2634574    0.2265918  23.18 0.0008154984    1.058    0.055
       200  -8.5108    147.0903     42.0193   7.8555942877e+01   4.3115962586e+01     0.285347     0.203138 -42.38  0.001353591    1.514    0.340
       201  -9.0375    153.5780     41.4849   7.7122243387e+01   4.1627203996e+01    0.2719418    0.2268776 -76.40 0.0005422113    1.340    0.254
       202  -9.4398    105.1444     39.6455   8.7551238085e+01   5.2812399855e+01    0.6023319    0.2893283 -24.65   0.00192111    2.351    0.575
       203  -8.6269    144.0849     36.4473   7.7449676226e+01   4.4548442963e+01    0.2373833    0.1926668 -43.48 0.0005313301    1.347    0.257
       204  -8.6856    118.8298     34.5793   8.2350993256e+01   5.0559615842e+01    0.3007603    0.1771782 -33.93 0.0007484267    1.809    0.447
       205  -8.4635    153.2120     34.8623   7.5218353897e+01   4.2560218849e+01    0.2099653    0.1794767 -78.45 0.0007224659    1.277    0.217
       206  -9.1256    110.0837     33.0721   8.3976330453e+01   5.2625198570e+01    0.3434701    0.2276279 -39.70 0.0008683518    1.701    0.412
       207  -8.0804    110.2650     26.7040   8.1708859434e+01   5.3333543809e+01    0.2874417    0.1907646 -12.16  0.001433864    1.691    0.408
       208  -7.5871     43.8571    169.1370   1.3670390813e+02   3.5124068429e+01      0.16466    0.1345274 -59.50 0.0003337504    1.278    0.218
       209  -9.2238    114.9925    153.1374   1.1665740818e+02   2.8106975881e+01    0.2315155    0.2042982 -61.81 0.0002530329    1.092    0.084
       210  -8.3507    134.0000    148.5751   1.1097545751e+02   2.5424246228e+01    0.4359685    0.1939499 -56.90  0.001503271    2.560    0.609
       211  -8.3453    180.4375    146.1907   9.9697485463e+01   1.5905954862e+01    0.2381082    0.2047016  35.22 0.0003573934    1.216    0.177
       212  -8.4428     42.1609     28.1662   1.0382424958e+02   6.4784316553e+01    0.1984603    0.1437819 -19.14            0    1.149    0.130
       213  -9.0789     91.1704     26.2231   8.6552328316e+01   5.7248529039e+01     0.361163    0.2105616 -41.29  0.001299538    2.078    0.519
       214  -8.4159     92.0220     20.8333   8.4296654637e+01   5.7683206653e+01    0.3014763    0.1433163  39.85 0.0008019324    1.902    0.474
       215  -8.2822    155.0000     23.9091   7.1662234349e+01   4.3401762098e+01    0.2959633   0.07803272 -27.30 0.0009757561    4.273    0.766
       216  -8.9553    144.0334     25.6943   7.4148171774e+01   4.5825207234e+01    0.2693853    0.1980595 -28.09  0.001247872    1.511    0.338
       217  -8.5760    150.3998     26.1963   7.3139641086e+01   4.4253853783e+01    0.2289661    0.1601386 -88.48 0.0006427975    1.724    0.420
       218  -8.7521    128.4680     25.4218   7.7145608200e+01   4.9469918082e+01    0.3862119    0.2390377 -14.76  0.001465447    1.927    0.481
       219  -9.8268     66.7821    143.6653   1.2718940957e+02   3.8291481416e+01    0.7005463    0.3903559 -79.39  0.003002922    2.239    0.553
       220 -10.2961    226.7629    140.0770   8.9141240986e+01   7.0841787572e+00    0.2644854    0.2482735  56.64 0.0005972325    1.160    0.138
       221  -8.1125    113.0828    138.0042   1.1387647973e+02   3.2038134198e+01    0.2163124    0.2044005 -64.58            0    1.018    0.017
       222  -8.4444    111.8997    133.6835   1.1320192516e+02   3.3276475256e+01    0.3520873    0.2340125  76.10   0.00125139    2.253    0.556
       223  -9.1263    135.6679    132.6685   1.0687884309e+02   2.8722952730e+01    0.6121535    0.2017416 -43.85   0.00187057    3.096    0.677
       224  -8.4553    132.3331    131.6807   1.0747494427e+02   2.9650093535e+01    0.3111427    0.2156632  81.05  0.001147994    2.136    0.532
       225  -9.6662     98.7694    128.7461   1.1556716209e+02   3.6840658504e+01    0.7031865    0.4163444  73.50  0.002243172    3.263    0.694
       226  -9.6124    118.9443     21.3154   7.7830336993e+01   5.2038454659e+01    0.3353604    0.2326932 -18.40 0.0005046722    1.592    0.372
       227  -8.4292    120.6549     15.6722   7.5551588929e+01   5.2222538988e+01    0.2934844    0.2037532  29.52  0.001658892    1.459    0.315
       228  -8.1852    161.1690    129.3150   9.9939419314e+01   2.3853717853e+01    0.3193342    0.1884552 -54.61  0.001266707    1.843    0.457
       229  -8.1186    111.5290     21.3362   7.9527349969e+01   5.3645640203e+01    0.3145311    0.1817096 -14.21  0.001584613    2.023    0.506
       230 -10.2724     70.2660    125.8300   1.2278965066e+02   4.2057323233e+01    0.6399773    0.5403058 -57.80  0.002211838    1.055    0.052
       231 -10.0396     58.2786    124.6073   1.2590138232e+02   4.3944552210e+01    0.6796469    0.4013588  76.98  0.002261822    2.926    0.658
       232  -9.8338    117.0995    125.3780   1.0986759303e+02   3.4195620848e+01    0.6534493    0.4322356 -88.90  0.001522553    2.566    0.610
       233 -10.2681    140.6253    117.3097   1.0180359467e+02   3.1076561341e+01    0.9251732    0.4738033 -51.22   0.00143662    2.032    0.508
       234 -10.0878    128.6242    100.4358   1.0032400239e+02   3.7301353588e+01    0.9500083    0.4954631 -28.93  0.001849885    2.644    0.622
       235  -9.0075    103.0483     21.3240   8.1583610727e+01   5.5426307320e+01    0.2593809     0.195251 -28.22 0.0006184934    1.448    0.309
       236 -10.6897    121.6278    113.1947   1.0559624293e+02   3.6031163864e+01     1.069516    0.4969958 -37.58  0.003032527    2.435    0.589
       237 -10.4699    123.5915     90.4046   9.8801636327e+01   4.0425003231e+01     1.167757    0.5782445 -29.64  0.003331808    2.662    0.624
       238 -10.0307    108.4640    114.4563   1.0946573147e+02   3.8354368866e+01    0.6133074    0.3854671 -71.99  0.001557633    2.350    0.574
       239  -8.8081     40.8985     20.8674   1.0136091069e+02   6.5921404155e+01    0.2313099    0.1387357 -28.44 0.0005807237    1.481    0.325
       240  -8.9614    109.8832    106.8956   1.0710675221e+02   3.9760432102e+01    0.6910594    0.4119588  24.39  0.002751526    2.371    0.578
       241 -10.3794    131.0927    119.2271   1.0469540878e+02   3.2717714218e+01    0.8371403    0.5379404  80.51  0.002381648    2.832    0.647
       242 -10.6805    133.4318    109.4301   1.0153693938e+02   3.4357631108e+01     0.930145     0.455306 -43.27  0.002470187    2.014    0.503
       243 -10.3174    119.1705    105.9808   1.0433616839e+02   3.8109976427e+01    0.9105213    0.5225222 -26.72  0.003429585    2.484    0.597
       244 -10.3123    108.4565     99.8131   1.0558450601e+02   4.1565927975e+01    0.8943122    0.5629525  66.89  0.003344712    2.494    0.599
       245  -7.2868    243.3171    126.6782   8.3316787110e+01   6.1544575913e+00    0.1445363    0.1058446 -67.52 0.0007042497    1.664    0.399
       246  -8.1412    128.3160    125.3092   1.0693656810e+02   3.1936552880e+01     0.155275    0.1251051  -6.18 0.0004374275    1.633    0.388
       247  -9.4782     41.3398    122.0141   1.3016807946e+02   4.6501660822e+01    0.5280525    0.2409298 -75.92  0.001856011    2.853    0.649
       248  -7.0960    189.4205     15.4955   6.4400548991e+01   3.5959401523e+01    0.1305234    0.1127294  83.75 0.0001968432    1.018    0.018
       249  -9.4393     27.3753    122.9474   1.3420416354e+02   4.7634119932e+01    0.5013102    0.2724272  74.72  0.002192393    2.918    0.657
       250  -7.8740     80.4945     12.9345   8.4495139773e+01   6.0662258200e+01    0.1814246    0.1405513 -37.53   0.00115285    1.614    0.380
       251  -7.6072    141.5271     12.4910   7.0542382788e+01   4.7756333044e+01    0.1300466    0.1136073  61.42 0.0001530033    1.027    0.026
       252  -7.5143    173.5380    123.9248   9.5819558725e+01   2.2164604655e+01    0.2246814    0.1533597 -42.44 0.0004443194    1.444    0.308
       253  -8.5364    230.9989    121.6884   8.4202442163e+01   9.6153940107e+00    0.4174598    0.1642658 -47.48  0.001265118    2.546    0.607
       254 -10.0799     79.6564     23.8439   8.9025354197e+01   5.9653389724e+01    0.6630092     0.253327  34.33  0.002609576    2.876    0.652
       255  -9.3267    245.0920    121.5131   8.1882287451e+01   6.7189998864e+00    0.2454839    0.2265927 -35.52 0.0003141408    1.065    0.061
       256  -7.9247    158.6493    122.3206   9.8768897033e+01   2.5935726352e+01    0.1659376    0.1256651 -86.80 0.0001389376    1.744    0.427
       257 -10.1031     91.8335    112.9659   1.1373716169e+02   4.1691582250e+01    0.6498634    0.4754676 -83.10  0.001522419    1.846    0.458
       258  -8.7796     92.8090    103.6997   1.1109097756e+02   4.3595594322e+01    0.5929757     0.389576  13.65  0.002578523    2.238    0.553
