#   1 NUMBER                 Running object number                                     
#   2 MAG_AUTO               Kron-like elliptical aperture magnitude                    [mag]
#   3 X_IMAGE                Object position along x                                    [pixel]
#   4 Y_IMAGE                Object position along y                                    [pixel]
#   5 X_WORLD                Barycenter position along world x axis                     [deg]
#   6 Y_WORLD                Barycenter position along world y axis                     [deg]
#   7 A_WORLD                Profile RMS along major axis (world units)                 [deg]
#   8 B_WORLD                Profile RMS along minor axis (world units)                 [deg]
#   9 THETA_WORLD            Position angle (CCW/world-x)                               [deg]
#  10 FWHM_WORLD             FWHM assuming a gaussian core                              [deg]
#  11 ELONGATION             A_IMAGE/B_IMAGE                                           
#  12 ELLIPTICITY            1 - B_IMAGE/A_IMAGE                                       
         1 -12.0376    157.1997      2.6290   2.5616674378e+01   4.4264134796e+01      0.34644    0.1331225  77.77  0.001573189    2.387    0.581
         2  -9.0495    233.6426    247.3110   6.5049329289e+01  -5.9588675782e+00   0.09615088   0.08569009  13.60 0.0007043064    1.736    0.424
         3  -9.3895    235.3411    231.6927   6.2275762482e+01  -3.9840250702e+00   0.09679865   0.08982186   0.44 0.0003777315    1.687    0.407
         4  -9.1448    230.3034    228.6585   6.2668926587e+01  -3.0250650153e+00   0.09893905   0.09188642 -21.29   0.00052147    1.679    0.404
         5  -9.0473    246.6679    221.3518   5.8665522880e+01  -3.6903772745e+00   0.09753952   0.08863512 -35.22 0.0007046785    1.779    0.438
         6  -9.3216    224.5046    221.5304   6.2530538606e+01  -1.3434683512e+00    0.1226543   0.09309019  -9.90 0.0002155394    1.034    0.033
         7  -9.7809    195.3086    221.6461   6.8155386578e+01   2.1177565292e+00    0.1098424    0.1053749  52.90 0.0003770241    1.722    0.419
         8  -8.8623    217.3242    220.6215   6.3697659613e+01  -3.8458083048e-01    0.1038335    0.1013081 -60.98 0.0007023653    1.833    0.455
         9  -9.9394    211.1355    218.6409   6.4530761853e+01   6.5482921631e-01    0.2059453    0.1684219 -53.77  0.001265096    1.957    0.489
        10  -9.5535    233.9882    216.4894   6.0003024626e+01  -1.6492290597e+00    0.1329729     0.101657  46.73  0.000807211    2.344    0.573
        11 -10.3562    170.0312    214.0095   7.2233970423e+01   6.7796477467e+00    0.1940564    0.1719026  55.38  0.001137761    1.684    0.406
        12  -9.8283    249.8337    213.2758   5.6813101423e+01  -2.8764500264e+00    0.1531617     0.134472   7.59 0.0009852701    1.487    0.327
        13 -11.0256    218.2419    210.1940   6.1747674395e+01   1.1284734825e+00    0.3877078     0.140723 -39.42  0.001737152    2.463    0.594
        14 -10.2883    225.5095    209.0354   6.0226399902e+01   4.4155451987e-01    0.2635441    0.1065824 -44.11   0.00120718    2.588    0.614
        15 -10.4124    237.1753    204.8672   5.7479005922e+01  -2.7466774354e-01    0.2675274    0.1982153  56.07  0.001500409    2.975    0.664
        16  -9.1953    232.2904    205.6606   5.8450824375e+01   1.6638099000e-01    0.1045995   0.09284016 -42.57 0.0003897417    1.644    0.392
        17  -9.6139    149.3228    205.6347   7.5581063819e+01   1.1333366042e+01    0.1359339    0.1124444  62.31 0.0007038981    1.790    0.441
        18 -10.6645    245.4799    203.4593   5.5862347620e+01  -9.9477246236e-01    0.2554638    0.1435608 -44.89  0.001237864    2.006    0.502
        19  -9.9631    243.4424    198.6774   5.5371865621e+01  -5.9136606688e-02    0.2591532   0.09843775 -43.48  0.001188078    2.606    0.616
        20  -9.7799    160.7668    203.0271   7.2431948732e+01   1.0156742843e+01     0.181278    0.1125482 -42.73 0.0008835199    1.647    0.393
        21  -9.6152    193.4729    202.0404   6.5123890531e+01   5.6731949792e+00    0.1997354    0.1179457 -37.41  0.001030104    1.586    0.369
        22 -10.5983    210.4869    200.4959   6.1493961669e+01   3.6648068028e+00    0.2119548    0.1143146 -48.20  0.001027291    2.240    0.554
        23 -10.3234    229.9735    200.3173   5.7922082988e+01   1.2610041217e+00    0.1736686    0.1372479  -5.13   0.00102536    1.097    0.089
        24  -9.6796    180.4025    199.2201   6.7358681859e+01   8.0107349569e+00    0.1813561    0.1265574 -47.62 0.0009508776    1.654    0.396
        25 -10.5207    224.4933    198.0449   5.8483846345e+01   2.2850084823e+00    0.1884548    0.1044012 -36.72  0.001000424    1.577    0.366
        26  -9.7930    249.1085    196.9934   5.4173587289e+01  -4.4510455558e-01    0.2348742    0.1969265  83.95   0.00140024    3.036    0.671
        27  -9.8785    246.4047    192.8208   5.3880205321e+01   4.7844505342e-01    0.2128069    0.1208923 -37.30  0.001252719    1.497    0.332
        28 -10.4725    215.4825    196.4624   5.9834581077e+01   3.6810201833e+00    0.2116439    0.1117905 -47.89 0.0009335986    2.248    0.555
        29  -9.5710    195.5061    196.0064   6.3617656577e+01   6.4454420759e+00    0.1987758    0.1196779 -39.53  0.000967874    1.585    0.369
        30  -9.7352    237.6774    200.3407   5.6611868364e+01   3.5067900902e-01    0.1551617    0.1440909 -50.47 0.0009681028    1.735    0.424
        31 -11.1075    185.7733    194.5157   6.5353703391e+01   8.0928996698e+00    0.2596952    0.1747866 -35.99  0.001390668    1.402    0.287
        32 -10.6195    202.2996    197.7632   6.2583222887e+01   5.2086264468e+00    0.2610594    0.1943145  57.21  0.001362704    2.460    0.594
        33  -9.3598    167.4688    197.4987   6.9906182971e+01   1.0225520729e+01    0.1429172    0.1205053  -2.98  6.46136e-05    1.011    0.011
        34 -10.7309    206.0208    191.0140   6.0627052846e+01   5.8537599276e+00    0.1791321    0.1684602 -75.79  0.001129606    1.689    0.408
        35  -9.7853    194.0000    189.9818   6.2810961817e+01   7.7221876821e+00    0.2173959    0.0698711 -42.74 0.0008012469    2.934    0.659
        36 -10.3492    237.1514    188.9453   5.4696576188e+01   2.1591200728e+00    0.1764804    0.1467146 -29.57  0.000671629    1.263    0.208
        37  -9.8073    229.6076    186.8056   5.5579341236e+01   3.4311794800e+00    0.1719655    0.1023089 -43.83   0.00094461    1.712    0.416
        38  -9.3486    216.2930    187.6713   5.8087632240e+01   5.0247414655e+00    0.1124852    0.1011087 -55.91 0.0003530465    1.627    0.385
        39  -9.3938    166.3153    187.3234   6.8283991350e+01   1.2369764971e+01    0.1504817    0.1008311  -9.06 0.0005365342    1.664    0.399
        40  -9.9299    243.6989    187.8866   5.3446940783e+01   1.5368153650e+00    0.2133524    0.1410245 -42.95  0.001264346    1.578    0.366
        41  -9.8262    183.3637    186.1993   6.4309448320e+01   9.9738117545e+00    0.1875287    0.1241303 -47.36 0.0009441127    1.667    0.400
        42 -10.5465    224.9633    183.9974   5.5869032333e+01   4.4806566211e+00    0.1764012    0.1528622 -57.66  0.001122025    1.711    0.415
        43 -10.1826    210.4268    184.2140   5.8531088232e+01   6.4048461208e+00    0.1780198     0.113754 -45.63 0.0009465432    1.680    0.405
        44  -9.6028    177.4053    184.2596   6.5223260385e+01   1.1244482028e+01    0.1882211    0.1296671 -47.87 0.0009511978    1.611    0.379
        45  -9.0216    162.3152    184.3359   6.8639139229e+01   1.3587035132e+01    0.1531153    0.1025935  -9.86 0.0007047301    1.693    0.409
        46 -11.2132    242.2458    180.8632   5.2431178784e+01   2.7865239260e+00    0.3399216    0.1952491 -46.18  0.001864284    1.871    0.465
        47  -9.8846    235.8194    182.0397   5.3678707957e+01   3.4007563357e+00    0.1824694     0.134498 -56.15  0.001069526    2.030    0.508
        48  -9.7623    232.8036    191.7994   5.5931293873e+01   2.2452664602e+00     0.155916    0.1331501 -32.80 0.0008211092    1.353    0.261
        49  -9.7894    204.4996    181.5040   5.9144523482e+01   7.7075684665e+00    0.1326035    0.1127078 -15.59 -5.160509e-05    1.060    0.057
        50  -9.6547    226.2907    179.6473   5.4841019669e+01   5.0121404211e+00    0.1142723   0.09598644 -55.31 0.0004703548    1.675    0.403
        51  -9.6098    219.6716    179.3116   5.5933124157e+01   5.9567884643e+00    0.1128296    0.1020412 -64.56 0.0007042063    1.667    0.400
        52  -9.9135    195.2073    179.0474   6.0497328953e+01   9.5041285474e+00      0.18297   0.09793466 -38.95 0.0006250974    1.715    0.417
        53 -10.3068    249.3592    177.1333   5.0664942301e+01   2.4931737776e+00    0.2845441    0.1757618 -55.47  0.001515516    2.587    0.613
        54  -9.2760    163.6905    177.3255   6.6962663462e+01   1.4767404016e+01    0.1337488    0.1187095  76.98 0.0007038549    1.655    0.396
        55  -9.1767    170.6884    176.3421   6.5173544039e+01   1.3830008686e+01    0.1326353    0.1178168  84.40 0.0007045972    1.699    0.412
        56  -9.3936    233.0072    174.9819   5.2855261235e+01   4.8794178862e+00    0.1583643    0.1157028 -28.42 0.0008953376    1.113    0.101
        57  -8.9790    241.3051    174.3061   5.1399942359e+01   3.9190870820e+00    0.1231088   0.07893788 -12.86 0.0003033895    1.604    0.376
        58  -9.2663    164.6719    172.6864   6.5817235015e+01   1.5536720456e+01       0.1528    0.1051609  -7.25 0.0007043494    1.671    0.401
        59  -9.9447    249.4016    168.7405   4.9161410130e+01   3.7626992073e+00    0.2309117   0.09299678 -42.09  0.001124805    2.130    0.531
        60  -9.2352    244.4077    169.2364   5.0001759395e+01   4.3131604330e+00     0.169434   0.09563334 -43.49 0.0009472058    1.654    0.395
        61  -9.4250    217.3118    167.6770   5.4151776032e+01   8.2381762752e+00    0.1176922    0.1013903 -63.38 0.0006991554    1.655    0.396
        62  -9.1806    179.3318    166.6819   6.1346411714e+01   1.4297940853e+01    0.1314908     0.116336  87.11  0.000439695    1.690    0.408
        63  -9.7573    234.4276    164.6803   5.0719743316e+01   6.3386535444e+00    0.2400665    0.1014291 -42.75   0.00112942    2.105    0.525
        64 -10.0800    207.5882    160.7718   5.4552087066e+01   1.0874912117e+01    0.1854993     0.115038 -46.25  0.000816676    1.637    0.389
        65  -9.7877    237.9719    158.4546   4.9005159586e+01   6.8499939678e+00    0.2061775    0.1329973 -35.58 0.0009069365    1.273    0.214
        66 -10.0079    246.2127    158.2256   4.7726507350e+01   5.7842630525e+00    0.1581789    0.1235136 -44.25  0.000574645    1.331    0.249
        67 -10.4091    226.7803    157.0371   5.0507891927e+01   8.6479019903e+00    0.1745197   0.08841074 -39.06 0.0007809065    1.680    0.405
        68  -9.0759    204.3039    155.3364   5.4071477021e+01   1.2345231340e+01    0.1390961   0.09548429 -10.30 0.0007038717    1.668    0.400
        69 -10.6966    217.5909    156.8142   5.2001371951e+01   1.0036697004e+01    0.1851849     0.109233 -46.12 0.0009504891    1.684    0.406
        70 -11.2390    243.2922    148.6177   4.6378419269e+01   7.6695136241e+00    0.2991374    0.1203604 -30.73  0.001317882    2.550    0.608
        71 -10.9899    235.4126    146.7296   4.7185909093e+01   9.0763549136e+00     0.244123   0.09968784 -42.80  0.001130528    2.119    0.528
        72 -10.0959    247.6066    144.2255   4.4951691407e+01   7.7575711709e+00    0.1758384   0.09269267 -31.55 0.0009507792    1.657    0.396
        73 -10.0820    238.7153    140.3663   4.5489025165e+01   9.6098427519e+00    0.1199982   0.08633374 -57.44 0.0007019217    1.694    0.410
        74 -10.6465    249.6016    134.8047   4.2937793404e+01   8.9216185746e+00    0.1738294   0.09045767 -45.45 0.0006358323    1.695    0.410
        75 -10.6197    241.5034    127.5075   4.2654051185e+01   1.1207571654e+01    0.1212318   0.09922459 -35.64 0.0001253646    1.005    0.005
        76 -12.6397    249.2094     87.4882   3.4166861642e+01   1.5914423354e+01    0.6007421    0.2170225 -29.83  0.002352745    3.961    0.748
        77 -10.8770    203.4035     64.8379   3.4875120307e+01   2.7269376692e+01    0.1711063    0.1153672 -26.45 0.0008982645    1.722    0.419
        78 -10.4219    233.6711     50.3292   2.8655330584e+01   2.3444542653e+01    0.1211146   0.06981194 -63.85 0.0007051307    1.710    0.415
