#   1 NUMBER                 Running object number                                     
#   2 MAG_AUTO               Kron-like elliptical aperture magnitude                    [mag]
#   3 X_IMAGE                Object position along x                                    [pixel]
#   4 Y_IMAGE                Object position along y                                    [pixel]
#   5 X_WORLD                Barycenter position along world x axis                     [deg]
#   6 Y_WORLD                Barycenter position along world y axis                     [deg]
#   7 A_WORLD                Profile RMS along major axis (world units)                 [deg]
#   8 B_WORLD                Profile RMS along minor axis (world units)                 [deg]
#   9 THETA_WORLD            Position angle (CCW/world-x)                               [deg]
#  10 FWHM_WORLD             FWHM assuming a gaussian core                              [deg]
#  11 ELONGATION             A_IMAGE/B_IMAGE                                           
#  12 ELLIPTICITY            1 - B_IMAGE/A_IMAGE                                       
         1 -14.9215      7.4169    142.3941   1.4251809658e+02   4.3341557199e+01     4.374781    0.9965743 -83.72   0.01714998    4.412    0.773
         2 -13.5846    197.9682     26.2612   6.7763772010e+01   3.2051723542e+01     2.003269     1.478444  16.54  0.008235944    1.448    0.309
         3 -13.4503    212.6061      7.5259   6.0107349733e+01   3.0079591345e+01       1.0661    0.9015879  45.39   0.00383149    1.181    0.154
         4 -10.6789      2.8750      3.6297   1.2308005649e+02   7.3296342273e+01    0.2720674    0.1347698 -56.06  0.001206918    1.498    0.332
         5 -11.5631    171.6700    247.5460   1.2127353261e+02   6.5585310816e+00    0.2636553    0.1986865  16.23  0.002091473    1.419    0.295
         6 -10.9874    180.7305    245.4221   1.1957550554e+02   5.5011394918e+00    0.2158778    0.1381947   6.99   0.00144547    2.112    0.526
         7 -12.2284    146.0225    249.3503   1.2558640543e+02   9.9073631457e+00     0.468848    0.2396135  35.85   0.00312072    1.532    0.347
         8 -12.1642    139.0261    248.6270   1.2664204863e+02   1.0936189300e+01    0.3653044    0.3166453 -85.27   0.00321564    1.569    0.363
         9 -11.4501    121.9203    249.3272   1.2944438450e+02   1.3115012037e+01     0.348545    0.1206993  44.32  0.002003287    2.026    0.507
        10 -10.8224     29.3803    248.7239   1.4357059594e+02   2.3619244916e+01    0.2871828    0.1581044 -67.71  0.002379528    2.262    0.558
        11 -11.3391     34.4124    249.4937   1.4287324752e+02   2.3038542525e+01    0.3192368    0.1580562  46.31  0.002574782    1.431    0.301
        12 -11.6345     35.1337    244.2866   1.4256173291e+02   2.3683716847e+01    0.2975022    0.2088466  45.15  0.002242208    1.329    0.247
        13 -12.4211     13.2020    241.6893   1.4565916125e+02   2.6049181713e+01    0.3617002    0.1998214  78.52  0.003143226    1.484    0.326
        14 -11.1550      2.7930    248.5163   1.4730035415e+02   2.5984834827e+01    0.2135891    0.1484968 -83.30  0.002123291    1.606    0.378
        15 -11.1410    197.9634    246.2762   1.1691372727e+02   2.9778784064e+00    0.1902687    0.1524065  -6.47  0.001573206    1.489    0.328
        16 -10.1876     47.0033    249.5267   1.4103341401e+02   2.1795649322e+01    0.1670847   0.09202618  69.65 0.0007859254    1.541    0.351
        17 -11.0416     50.5263    245.6288   1.4032687316e+02   2.1966714711e+01    0.2157962    0.1418163  59.11  0.001891304    1.070    0.065
        18 -11.8757     20.8164    242.8168   1.4459936581e+02   2.5219956880e+01    0.3211023    0.1687954  79.89  0.002418518    1.641    0.391
        19 -10.3991     22.9530    236.5131   1.4406708296e+02   2.5919489941e+01    0.1711881    0.1058717  42.82  0.001472488    1.430    0.301
        20 -11.1938    184.7266    239.3698   1.1821502116e+02   5.5525942772e+00    0.2624946    0.1571028  57.75  0.001580634    2.445    0.591
        21 -12.7907     47.7625    216.7687   1.3925885540e+02   2.6472802130e+01    0.6708506    0.5666245  88.09  0.004605911    1.308    0.236
        22 -14.0354     37.9114    228.3860   1.4144902029e+02   2.5696271160e+01    0.7221878    0.4026542  53.15  0.002383405    1.286    0.222
        23 -12.5073    115.8237    231.5742   1.2889209634e+02   1.6182421605e+01    0.8832121   0.09293329  42.48  0.002964646    5.524    0.819
        24  -9.7578     54.5132    229.4491   1.3886929735e+02   2.3847670980e+01    0.1918495    0.1064371  58.54 0.0008156833    1.377    0.274
        25 -11.6900     88.7369    226.4415   1.3303128540e+02   2.0370393668e+01    0.5642255    0.0930806  45.18  0.002334081    3.909    0.744
        26 -11.5150     96.4974    228.4777   1.3188482964e+02   1.9113958171e+01    0.3362342    0.1287598  48.04  0.001790758    1.994    0.499
        27  -9.1632    177.5466    227.4647   1.1794540421e+02   7.8961596843e+00    0.1125039   0.08270615  34.50 8.578881e-05    1.005    0.005
        28  -9.9931     56.6677    223.5945   1.3818230192e+02   2.4489022131e+01    0.2237168    0.1678792  21.32  0.001669762    1.965    0.491
        29  -9.6650    172.6075    222.1790   1.1812112604e+02   9.2496568279e+00    0.1391764    0.1017524 -16.58 0.0009600272    1.781    0.439
        30 -12.7043     49.6033    206.3232   1.3832462814e+02   2.7943747284e+01     2.333885    0.4758596  57.64  0.005527177   14.014    0.929
        31 -11.5744    237.5676    247.1835   1.1084601321e+02  -2.6002103996e+00    0.2921151    0.2032835 -11.93   0.00221068    1.624    0.384
        32 -13.2001     63.4210    176.9034   1.3353023382e+02   3.1509170979e+01     0.394157    0.2381326 -47.34  0.001696544    2.273    0.560
        33  -9.5738     98.4406    175.2307   1.2623200766e+02   2.7358751475e+01    0.2178755    0.1531802  57.27 0.0007193561    1.306    0.235
        34 -10.3438     14.4543    197.0837   1.4388417218e+02   3.2784979117e+01    0.3000633    0.1047309  50.72  0.001889584    2.090    0.522
        35 -12.0209     66.4081    191.8272   1.3423738504e+02   2.8521778980e+01    0.2133813    0.1925422  82.32 0.0004788511    1.214    0.176
        36 -11.9725     84.7733    169.2138   1.2836348691e+02   3.0305755966e+01    0.5965112    0.5024219  16.43  0.002625306    1.541    0.351
        37  -8.9255    191.5047    192.0422   1.1042169663e+02   9.9410211663e+00    0.1484939    0.1093686 -66.59 0.0008093732    2.673    0.626
        38 -10.3385     96.9960    153.3631   1.2366825455e+02   3.1631946677e+01     0.268523    0.2655315 -17.36  0.000851959    1.194    0.162
        39  -9.4131    100.1045    149.0754   1.2233452050e+02   3.2011703718e+01    0.1832758    0.1733561  60.53  0.000341419    1.059    0.056
        40 -12.0440     85.7611    152.3677   1.2606120116e+02   3.3393638597e+01    0.2521072    0.2243142 -45.04 0.0006314595    1.331    0.249
        41 -12.1267     67.4473    143.5534   1.2912353425e+02   3.7496230688e+01     0.599671    0.3495378  61.60  0.002798905    1.825    0.452
        42 -12.9255     33.0611    234.9035   1.4248597273e+02   2.5210587422e+01    0.2304152    0.1816144  62.12  0.000777552    1.196    0.164
        43 -10.0787    109.1315    137.9124   1.1841891390e+02   3.2827028695e+01    0.3738129    0.2603687 -19.74  0.001812356    2.234    0.552
        44 -10.4523     96.2711    135.2623   1.2105380861e+02   3.5338858899e+01    0.2150426    0.2091444 -32.18 0.0003712314    1.160    0.138
        45 -10.6984     30.9648    131.4035   1.3638429144e+02   4.3767628370e+01    0.2357501    0.1728827  60.36 0.0004755458    1.287    0.223
        46  -9.1385    115.4460    130.0416   1.1546484099e+02   3.3363421177e+01    0.1914528    0.1107719 -30.08 0.0008080445    2.592    0.614
        47 -11.6310     21.8283    126.4616   1.3811349464e+02   4.5545511294e+01     0.371338    0.1864183  52.68  0.001041411    1.954    0.488
        48  -8.9892    106.4829    124.1363   1.1654248382e+02   3.6038902047e+01    0.1802481    0.1295531 -54.06 0.0003711345    1.400    0.286
        49 -11.7585     59.8975    200.4623   1.3610617366e+02   2.7799326882e+01    0.2045175    0.1819208  83.90 0.0004611122    1.248    0.199
        50  -8.3141    221.5502    213.5222   1.0857554159e+02   2.6966197928e+00    0.1159468   0.08554903  25.61 6.419152e-05    1.052    0.050
        51 -10.2141    157.8895     76.1518   9.1499268051e+01   3.5168465936e+01    0.2279471    0.2193894 -59.02 0.0006214627    1.208    0.172
        52  -9.0605    152.5048    213.0173   1.2050242297e+02   1.3446741369e+01    0.1673065    0.1212882  39.67 0.0003126665    1.070    0.065
        53 -12.3001      9.8426    206.8516   1.4502611072e+02   3.1569223989e+01    0.5345179     0.291518  33.35  0.002853022    1.950    0.487
        54 -11.4350     11.0225     53.6218   1.3231457273e+02   6.2259441155e+01    0.2803163    0.1611503  53.30  0.001601991    2.285    0.562
        55 -11.8723    245.1414    246.7838   1.0964209462e+02  -3.5884066703e+00    0.5059963    0.2595087  47.47  0.003079384    2.466    0.594
        56 -10.8266    216.0664    249.4345   1.1445340915e+02   1.6072939472e-01    0.3063115     0.103856  46.20  0.001509856    2.949    0.661
        57 -10.8922     76.8506    178.6325   1.3100367661e+02   2.9593955009e+01    0.1965969    0.1747404  76.89 0.0003552143    1.108    0.097
