#   1 NUMBER                 Running object number                                     
#   2 MAG_AUTO               Kron-like elliptical aperture magnitude                    [mag]
#   3 X_IMAGE                Object position along x                                    [pixel]
#   4 Y_IMAGE                Object position along y                                    [pixel]
#   5 X_WORLD                Barycenter position along world x axis                     [deg]
#   6 Y_WORLD                Barycenter position along world y axis                     [deg]
#   7 A_WORLD                Profile RMS along major axis (world units)                 [deg]
#   8 B_WORLD                Profile RMS along minor axis (world units)                 [deg]
#   9 THETA_WORLD            Position angle (CCW/world-x)                               [deg]
#  10 FWHM_WORLD             FWHM assuming a gaussian core                              [deg]
#  11 ELONGATION             A_IMAGE/B_IMAGE                                           
#  12 ELLIPTICITY            1 - B_IMAGE/A_IMAGE                                       
         1 -14.5491    178.7482     81.7094   8.2475875869e+01   2.8963860765e+01     3.448255     2.038616  -4.77  0.009560277    4.716    0.788
         2 -14.5723    234.7651     77.5251   7.2091804997e+01   1.6264952587e+01     2.006568     1.946815  67.87   0.01089207    1.203    0.169
         3 -16.0052    184.7145    102.1730   8.6630538249e+01   2.3698183855e+01     7.337603     1.866944 -43.30   0.02040135    3.861    0.741
         4 -17.1970    208.3100    104.8969   8.2765529994e+01   1.7546118847e+01      6.80808     5.919733 -19.87   0.02431743    1.311    0.237
         5 -12.3974    167.7129     34.9530   7.1739122567e+01   3.8827972174e+01    0.5812629    0.4175458  62.24  0.001567739    1.230    0.187
         6 -12.3694    189.4693     28.6589   6.6740992531e+01   3.4208456680e+01    0.6059845    0.5060834  42.45  0.001473528    1.389    0.280
         7  -9.0775    222.7613      7.6148   5.8109406571e+01   2.8665988442e+01    0.1741138   0.09890746  87.15  0.000252242    1.570    0.363
         8  -9.6131    168.0206      6.7023   6.4015111368e+01   4.1808503157e+01    0.1900913     0.179524 -65.33 0.0005007209    1.207    0.171
         9  -9.0120     66.5684      6.4850   8.5947429587e+01   6.3802242477e+01    0.1192394   0.09323653  19.28 9.638529e-05    1.009    0.009
        10  -9.2639    166.9985      1.9932   6.2907731878e+01   4.2477894418e+01    0.2109195    0.1295986  43.27  0.001130804    1.753    0.429
        11  -9.6588    222.3878      1.3541   5.6835662527e+01   2.9415392075e+01    0.2036687   0.09459358  71.23  0.001037014    1.807    0.447
        12 -11.0293    184.3899    202.1857   1.0929801742e+02   3.4999453795e+00    0.3326085    0.2203481 -63.02  0.001427208    2.136    0.532
        13 -10.0844    180.5089    202.9526   1.1026671883e+02   4.1062133557e+00    0.2128155    0.1436262 -44.75  0.001037319    1.606    0.377
        14 -11.5620    190.2123    200.6346   1.0777529457e+02   2.6661065053e+00    0.4523845    0.2660676  47.84  0.001677893    1.704    0.413
        15  -8.5624     68.2912    201.6446   1.3488217022e+02   2.4426496887e+01     0.141075   0.08716936  74.43 0.0007028481    1.683    0.406
        16 -10.1462    128.0690    200.0483   1.2132777453e+02   1.4826591316e+01    0.2191027    0.1973943  63.43 0.0003570257    1.019    0.019
        17 -10.5995    213.4674    197.6362   1.0243043096e+02  -1.1902255001e+00    0.4684162    0.3989652 -88.20  0.002549606    1.740    0.425
        18 -10.7809    207.8645    192.0545   1.0244763231e+02   8.5581389672e-01    0.3722782    0.2991704  13.66  0.001476288    1.278    0.217
        19 -10.1951    197.4715    197.4877   1.0565270176e+02   1.8516560857e+00    0.2586149    0.2384301   9.60 0.0007405344    1.032    0.031
        20 -11.0194    200.3809    192.6706   1.0410119588e+02   2.1800802167e+00    0.4532543    0.2687353 -25.90  0.001190305    2.068    0.516
        21 -12.0080    155.5267    194.9986   1.1424799429e+02   1.0598457286e+01    0.8489417    0.4916721  73.33  0.002816714    3.790    0.736
        22 -11.1511    150.8392    194.6758   1.1524198364e+02   1.1592122441e+01    0.3451024    0.3072232  26.80  0.001881835    1.176    0.150
        23 -12.9873    180.0773    184.2595   1.0672229185e+02   7.8481151652e+00     1.128708    0.6835775 -65.92  0.004424061    2.635    0.620
        24 -11.9494    170.7456    181.7051   1.0826456058e+02   1.0283023587e+01    0.4755301    0.3201208  59.46  0.002122047    1.726    0.421
        25 -11.6825    142.2947    192.0781   1.1670867088e+02   1.3823961462e+01    0.5483185    0.3193617  52.81  0.002271126    1.739    0.425
        26 -10.9001    117.9388    192.0128   1.2230980296e+02   1.8467996396e+01    0.3257107    0.2996919  62.39  0.001208919    1.038    0.037
        27 -10.5429    226.9590    191.3181   9.8534061561e+01  -2.5581233255e+00    0.3416142    0.2612879 -12.79 0.0008241186    1.334    0.251
        28 -10.0657    231.6618    188.3978   9.7050920028e+01  -2.9025815773e+00    0.3152513    0.2528411  41.07 0.0009104519    1.320    0.242
        29 -10.2636    129.8754    192.0986   1.1956510037e+02   1.6218281969e+01    0.2708934    0.2090385 -66.82 0.0002939586    1.386    0.279
        30 -10.1222    128.7582    188.4143   1.1917676898e+02   1.7246502457e+01    0.2742065     0.196441  29.57  0.001120769    1.583    0.368
        31  -9.7215    212.4971    187.5253   1.0060083064e+02   7.9449159300e-01    0.2302356    0.2097902  10.92 0.0009980133    1.021    0.021
        32 -10.6880    216.1709    186.0484   9.9568536397e+01   3.6309451243e-01    0.2949972       0.2365  45.40 0.0002486551    1.312    0.238
        33 -10.5715    198.2480    184.6336   1.0292186919e+02   4.1100230184e+00    0.3504791    0.2638286  55.60 0.0009012573    1.497    0.332
        34 -11.0961    198.1866    177.8091   1.0152238854e+02   5.4365468927e+00    0.4541966    0.3223556  -4.31  0.001111872    1.907    0.476
        35 -11.5851    203.1962    176.4909   1.0020676447e+02   4.6790472377e+00    0.5084394    0.3502643 -50.56  0.002422613    1.602    0.376
        36 -11.0878    193.7333    182.9502   1.0352389822e+02   5.3375123141e+00    0.6841017    0.3291092 -34.61  0.002651475    2.381    0.580
        37 -11.9526    188.8359    181.9899   1.0436741643e+02   6.5165868379e+00    0.7203651    0.3496457 -43.82  0.002893678    2.135    0.532
        38 -11.4883    153.6629    184.8786   1.1275714935e+02   1.3106875064e+01     0.375067    0.3041193  41.26   0.00191269    1.176    0.150
        39 -11.0660    206.7291    181.6850   1.0056721246e+02   2.9897870619e+00    0.4394232    0.2383716 -30.01  0.001828429    2.124    0.529
        40  -9.3417    243.0881    184.2976   9.4107240555e+01  -4.2200818762e+00    0.1831008    0.1646248   4.66 0.0004232225    1.065    0.061
        41  -9.1605    210.6315    179.7261   9.9370474537e+01   2.5895697523e+00    0.1951705    0.1336202 -47.77 0.0004546373    1.575    0.365
        42  -8.3384    236.6714    177.3065   9.3847224193e+01  -1.8958868832e+00    0.1299577    0.1119131 -78.77 0.0002098465    1.656    0.396
        43 -12.2534    163.6528    176.9668   1.0890089102e+02   1.2748164921e+01    0.7381144    0.2428781  47.40    0.0023132    3.074    0.675
        44 -12.0862    147.8689    174.0364   1.1196295830e+02   1.6654833086e+01    0.5757279    0.3636435 -34.71  0.002439563    1.935    0.483
        45  -9.7095     33.2973    176.9506   1.3972883811e+02   3.4464617229e+01    0.1787056    0.1345663 -79.20 0.0004398737    1.102    0.093
        46  -9.5418    216.0103    174.9775   9.7302823115e+01   2.4189568950e+00     0.218667    0.1828172 -83.44 0.0009508589    1.679    0.405
        47 -15.2524    172.9709    155.9447   1.0226753538e+02   1.5263362155e+01     2.938926      2.23817  21.56  0.003417932    1.569    0.363
        48 -13.0859    182.8102     66.1976   7.7570201132e+01   3.0579745971e+01     1.187744    0.5617292 -34.37  0.001084715    2.280    0.561
        49  -9.9772    215.3355    243.3795   1.1039514886e+02  -8.7919574867e+00    0.2161613    0.1830837  24.25 0.0002266308    1.100    0.091
        50  -9.7162     29.8862    228.9986   1.4509376505e+02   2.3523253751e+01    0.1723698    0.1286433  78.57  0.000330258    1.020    0.019
        51 -13.9323    194.4736     76.0568   7.8053014767e+01   2.6055139089e+01     1.616309     1.035338  52.55  0.007465335    1.548    0.354
        52  -9.7823    204.1222    225.6683   1.0953585147e+02  -4.2299458717e+00    0.2973768    0.1467961  47.47  0.001330136    2.124    0.529
        53 -10.7540    180.8246    223.3103   1.1384650335e+02   3.3765305510e-01    0.4934721    0.2449903  41.36  0.001544219    1.781    0.438
        54  -9.3415    240.9658    149.8324   8.7254299874e+01   2.1668784317e+00    0.2645508    0.1980003  20.74  0.001363526    1.591    0.372
        55 -10.3172    115.7358    149.8686   1.1491222904e+02   2.8689340075e+01    0.3046018    0.1957061  67.11  0.001241017    2.064    0.515
        56  -9.9172    219.3929    167.8725   9.5129480310e+01   3.0748895080e+00    0.3765167    0.2683497 -75.51  0.001588206    2.393    0.582
        57 -11.3413    143.6517    156.3107   1.0926123816e+02   2.1527640631e+01    0.3116422    0.2349675 -74.21  0.001246895    1.599    0.374
        58 -10.0392    245.5505    145.8910   8.5618438076e+01   1.9942876869e+00    0.4172279    0.3404606 -89.74  0.002250685    1.672    0.402
        59 -11.6844    141.0797    142.4402   1.0678060027e+02   2.5245258934e+01    0.4176753    0.3189352 -69.51   0.00190071    1.509    0.338
        60 -10.9861    135.5177    143.4794   1.0842003128e+02   2.6191119175e+01    0.3956111    0.2160714 -50.23  0.001102428    1.847    0.459
        61 -11.0840    134.5985    138.7199   1.0755302984e+02   2.7481868376e+01    0.3039078    0.2269568 -48.44 0.0009771376    1.342    0.255
        62 -12.4771    130.6745    164.7807   1.1422992693e+02   2.2250788853e+01    0.8028585    0.3743964  48.11  0.001047162    2.155    0.536
        63 -11.2163    119.5378    159.3262   1.1589889772e+02   2.5718415266e+01    0.3946317    0.2914566  66.03   0.00184087    1.515    0.340
        64  -9.1362    241.5041    164.0157   9.0191542221e+01  -4.5747917678e-01    0.2148259    0.1272553 -35.33  0.001010327    1.572    0.364
        65  -9.4011    118.3181    134.3044   1.1077542413e+02   3.1854098687e+01    0.1544619     0.124372  -8.94 0.0002080499    1.628    0.386
        66 -11.1731    126.2793    130.6794   1.0780553881e+02   3.1077543711e+01    0.3353689    0.3170704   6.06 0.0008500652    1.153    0.133
        67  -9.4960    108.0509    122.3271   1.1072865756e+02   3.6635970277e+01    0.2039535    0.1947428  51.99 0.0003465706    1.074    0.069
        68 -12.1287    128.6413    156.1794   1.1295319279e+02   2.4658920987e+01    0.6144388    0.3887548  52.56  0.001858002    1.634    0.388
        69  -9.9236    102.5456    112.6029   1.0987112632e+02   3.9888720550e+01    0.2635791    0.2289078  47.89 0.0002073283    1.202    0.168
        70 -11.1274    129.9778    106.3393   1.0061263278e+02   3.5709309984e+01    0.5318001    0.2218822 -38.95  0.000923817    2.603    0.616
        71  -9.9120    125.9736    109.0506   1.0240905744e+02   3.5989779161e+01    0.2370875    0.2327067   4.69 0.0005151829    1.032    0.031
        72 -10.1031    101.1881    105.7984   1.0850466967e+02   4.1656354125e+01    0.2699766    0.2466769 -47.39 0.0009405651    1.071    0.067
        73 -11.6309    140.0434    102.4173   9.6931460093e+01   3.4289525653e+01     0.492265      0.35302  57.69   0.00182068    1.479    0.324
        74 -10.0087    126.6477    101.1141   1.0007884492e+02   3.7537092738e+01    0.2448557    0.1963695 -66.37 0.0005978143    1.452    0.311
        75 -10.7921    135.0372     97.4657   9.6851972160e+01   3.6439404990e+01    0.2988133    0.2061222  57.16  0.001323023    1.555    0.357
        76 -10.4988    127.2093     95.4632   9.8354593324e+01   3.8582658918e+01    0.2848507    0.2119299 -41.58 0.0006226245    1.356    0.262
        77  -9.5425     82.3173     95.2942   1.1140244013e+02   4.7210947219e+01    0.2179678    0.1962572  32.50 0.0003571434    1.175    0.149
        78 -10.4133    124.9207     90.5189   9.7564689800e+01   4.0076338315e+01    0.2531858    0.2185472 -68.91 0.0007967802    1.339    0.253
        79 -11.4058    135.3137     87.2374   9.3883638000e+01   3.8404156401e+01    0.4424587    0.2902005  35.40 0.0006476491    1.643    0.391
        80 -10.6459    133.8889    153.7486   1.1111742171e+02   2.4154623085e+01    0.2695489    0.2293975 -75.34 0.0003829786    1.258    0.205
        81 -11.1674    143.4289     83.5220   9.0782823723e+01   3.7229149946e+01    0.3774931     0.274768   4.32  0.001636493    1.976    0.494
        82  -9.2641     49.7679     84.6503   1.1920361141e+02   5.3948632811e+01    0.1633383    0.1180415  36.87 0.0002051669    1.597    0.374
        83 -10.3278    139.3166     81.8895   9.1324745853e+01   3.8493632836e+01    0.2352028    0.1874259 -61.15 0.0004757945    1.445    0.308
        84  -8.8008     66.9139     77.1729   1.1132438777e+02   5.3280749203e+01    0.1847233    0.1435335 -14.04 0.0003391631    1.313    0.239
        85 -10.9035    155.0582     73.1544   8.5087786723e+01   3.6299887147e+01    0.4294244    0.2347411 -51.44  0.001679445    2.149    0.535
        86 -10.1336    150.1013     73.3140   8.6252878228e+01   3.7473976337e+01    0.3203088    0.1947826  33.42  0.001317926    2.004    0.501
        87  -9.2939    113.6844     75.0016   9.6063046183e+01   4.5434509401e+01      0.19922    0.1824396 -24.26 0.0002526336    1.095    0.087
        88 -10.1518    131.7754     72.5711   9.0465788170e+01   4.1911516730e+01    0.3839061    0.2451631  31.19  0.001446554    1.808    0.447
        89  -8.7872    101.0000     70.9680   9.8497922852e+01   4.8719794370e+01     0.234317   0.07964697 -40.71 0.0008039686    2.953    0.661
        90  -9.8907    118.9696     69.2016   9.2807208075e+01   4.5344952297e+01    0.3022312    0.1830239 -61.60  0.001188147    2.680    0.627
        91 -10.7656    137.1568     67.8601   8.7702700023e+01   4.1478425606e+01     0.549809     0.271637  67.24  0.001832434    3.297    0.697
        92  -9.1716    125.8032     66.2024   9.0057329986e+01   4.4353869800e+01     0.241544    0.1633584 -82.72 0.0009469605    2.811    0.644
        93 -12.5461    141.4093    151.5614   1.0876771442e+02   2.3087105699e+01    0.8179522     0.353237 -41.94  0.002818776    2.548    0.608
        94 -10.0705      7.3928     57.9578   1.2771433509e+02   6.2887603446e+01    0.1804332    0.1489378 -15.51 0.0003456784    1.235    0.190
        95 -10.8376    159.1615     56.2224   7.9349916775e+01   3.8024564058e+01    0.2877357    0.2423544 -43.89  0.001192587    1.266    0.210
        96  -9.7027    162.4642     54.4879   7.8194847136e+01   3.7466697513e+01    0.2292474    0.1238679  49.13 0.0009779689    1.755    0.430
        97  -9.9621    155.3560     56.7777   8.0292812752e+01   3.8877540540e+01    0.2436577    0.1851008  -5.54  0.001185556    1.713    0.416
        98  -9.7785    154.4790     52.7856   7.9310799964e+01   3.9687510156e+01    0.2627508    0.2376039  73.95 0.0005350371    1.089    0.081
        99  -9.0819    127.6622     55.7048   8.6299003685e+01   4.5618453029e+01    0.1501852    0.1058173  23.64 0.0007029676    1.651    0.394
       100 -10.2299    249.2171     52.1469   6.4787243145e+01   1.7006790661e+01    0.3297512    0.1838737 -82.84  0.001138917    2.152    0.535
       101 -11.2534    246.2967     46.8332   6.3994694916e+01   1.8407492533e+01    0.4785304    0.2942384 -84.15  0.002376575    1.700    0.412
       102 -10.9215    149.9325    154.4922   1.0733634594e+02   2.0602152842e+01    0.2361916    0.2193976 -56.65  0.001098673    1.093    0.085
       103  -9.1369    250.5398    153.5380   8.6411585850e+01  -2.8293486274e-01    0.1378911    0.1220082 -22.95 8.741604e-05    1.034    0.033
       104 -11.0063    185.2205     46.6243   7.1991210985e+01   3.2922575607e+01      0.37232    0.2080663  57.50  0.001709093    1.636    0.389
       105 -13.7688    231.3718    104.8121   7.8812924687e+01   1.2323283581e+01     1.275856     1.027959  28.70   0.00525754    1.572    0.364
       106 -13.4274    213.0843    120.3111   8.5583028651e+01   1.3525096955e+01    0.8710313    0.4742142  53.63  0.001353719    1.927    0.481
       107 -10.8093    159.1857     39.0690   7.4411414364e+01   4.0416623493e+01     0.344797    0.1940876 -37.58  0.001603808    1.918    0.479
       108 -10.9969    187.3534     41.0393   7.0205770666e+01   3.3155761709e+01    0.3653854    0.2457818  76.64  0.001444357    1.432    0.302
       109 -10.5300    231.3380     38.8933   6.3938986194e+01   2.2865512552e+01    0.5071687    0.2403763  79.60  0.001557268    2.306    0.566
       110 -10.6410    242.4802     38.2410   6.2603558062e+01   2.0443435916e+01    0.3415301    0.2565281  -2.90  0.001798649    2.412    0.585
       111 -10.2313    175.4859    220.0529   1.1439556671e+02   1.8985963970e+00    0.1870489    0.1788828  22.24 0.0004431769    1.089    0.082
       112 -11.0195    175.9787     34.0490   7.0138568492e+01   3.6887765112e+01    0.3403414    0.1812002  39.65  0.001445441    2.384    0.581
       113  -8.7570     57.9809     35.0000   1.0044104396e+02   6.1781549353e+01    0.1831864   0.06449463  37.83 -0.003769674    2.792    0.642
       114 -10.5335    203.7009    218.9951   1.0842697323e+02  -3.0654791166e+00    0.3052081     0.231505  86.95  0.001484376    2.490    0.598
       115  -9.4821    133.9830     32.4975   7.7466513923e+01   4.7311051495e+01    0.2094389    0.1220913  56.28 0.0003500798    1.515    0.340
       116 -10.4890    236.4279     30.5769   6.1618965061e+01   2.2813673064e+01    0.2463696    0.2192396 -83.74 0.0007633629    1.153    0.133
       117  -8.9195     68.8140     28.8649   9.4207198254e+01   6.0954579380e+01    0.1506079    0.1402119  -5.77 0.0002682808    1.291    0.225
       118  -9.8683    240.5987     24.0062   5.9852077205e+01   2.2719117437e+01    0.4242052    0.1597438 -58.52  0.001734817    2.920    0.658
       119  -9.9398    144.5858     35.5112   7.6186052280e+01   4.4426577534e+01    0.3937835    0.2257355 -85.67  0.001439556    3.484    0.713
       120  -9.8212    162.7726     26.2182   7.0133670173e+01   4.1088755998e+01    0.1946066    0.1483752  40.96   0.00107346    1.384    0.278
       121  -8.5422    158.6525     26.2283   7.0830261116e+01   4.2099600851e+01    0.1346069   0.09688207 -88.85 0.0002920529    1.552    0.356
       122 -10.1055    225.8013     23.2854   6.1151705767e+01   2.6156325721e+01    0.2915281    0.2311413  64.33  0.001177452    1.327    0.246
       123 -10.3741    183.1406     26.3426   6.7038602866e+01   3.6044825586e+01    0.3011032    0.2158317 -16.88  0.001271721    1.841    0.457
       124  -9.0557    184.5045     19.5238   6.5110655148e+01   3.6484604355e+01    0.1353235    0.1139488  81.67 3.092755e-05    1.018    0.018
       125 -11.3196    148.6127    147.2421   1.0602443328e+02   2.2524759151e+01    0.3808963    0.2674482 -53.28  0.001147542    1.468    0.319
       126  -9.5470    174.6381     19.0436   6.6351894348e+01   3.8959890990e+01    0.2495301    0.1582661  48.25 0.0008816892    1.591    0.371
       127 -14.5189    223.1857    135.7218   8.7296056283e+01   8.3717344131e+00     3.359746     1.493207  41.52   0.01270206    2.557    0.609
       128  -9.7899    195.8329    215.0892   1.0930983970e+02  -9.8345002444e-01    0.2447781    0.1921705 -27.24  0.001364804    1.364    0.267
       129  -8.9520    223.0000    207.9961   1.0256757971e+02  -4.6529702563e+00    0.2102985   0.07417837 -39.58 0.0004744447    2.904    0.656
       130  -9.8598    205.8573    202.8177   1.0496884299e+02  -6.9064615533e-01    0.2183725    0.1775591   6.92  0.000681014    1.255    0.203
       131  -9.3217    195.9997    203.0316   1.0702766354e+02   1.1203620450e+00    0.2170598    0.1942082  24.15 0.0004561703    1.020    0.020
