#   1 NUMBER                 Running object number                                     
#   2 MAG_AUTO               Kron-like elliptical aperture magnitude                    [mag]
#   3 X_IMAGE                Object position along x                                    [pixel]
#   4 Y_IMAGE                Object position along y                                    [pixel]
#   5 X_WORLD                Barycenter position along world x axis                     [deg]
#   6 Y_WORLD                Barycenter position along world y axis                     [deg]
#   7 A_WORLD                Profile RMS along major axis (world units)                 [deg]
#   8 B_WORLD                Profile RMS along minor axis (world units)                 [deg]
#   9 THETA_WORLD            Position angle (CCW/world-x)                               [deg]
#  10 FWHM_WORLD             FWHM assuming a gaussian core                              [deg]
#  11 ELONGATION             A_IMAGE/B_IMAGE                                           
#  12 ELLIPTICITY            1 - B_IMAGE/A_IMAGE                                       
         1 -13.9158    213.9746      8.4055   3.9786550849e+01   3.0449170563e+01     2.193153     1.423539  37.50  0.009719632    2.093    0.522
         2 -13.4720    189.9349     38.9944   5.0938660446e+01   3.2805572654e+01     1.212266    0.9905443 -24.95  0.004127966    1.319    0.242
         3 -12.7772    194.7136     33.4644   4.8682481088e+01   3.2317456689e+01    0.6941309    0.6023787 -28.48  0.001264973    1.234    0.190
         4 -13.0982    174.8182     53.1104   5.7604659341e+01   3.4652675034e+01     1.811149     1.224911  23.49  0.005702817    2.035    0.509
         5 -11.1085    189.6754     14.9212   4.4098843069e+01   3.5787739107e+01    0.3331158    0.2608044 -32.40  0.001076374    1.351    0.260
         6  -9.4520    167.7392    231.9339   1.0016778713e+02   2.9072247351e+00    0.2290391    0.1740438  27.60 0.0009870756    1.213    0.176
         7 -12.5437    247.2339    244.3149   8.7755057542e+01  -1.0865109043e+01    0.8375845    0.6222448  -2.68  0.006101474    1.182    0.154
         8 -19.5074     22.2066    147.3920   1.2097096431e+02   4.1646020000e+01      19.1846     4.558027 -75.08   0.06588638    3.946    0.747
         9 -11.2268     67.1516    206.1024   1.1699520223e+02   2.3445989891e+01     0.212975    0.2051183 -71.55 0.0002776433    1.384    0.278
        10  -9.2050     72.2296    202.8896   1.1563083133e+02   2.3417899797e+01    0.2886043    0.1893036  65.27  0.001676154    1.380    0.275
        11  -8.5440     43.6234    220.9921   1.2280260765e+02   2.3432012935e+01    0.1917634    0.1725257  51.36  0.001455114    1.415    0.293
        12 -10.6285     58.2892    202.0191   1.1839332231e+02   2.5454628106e+01    0.3151436    0.2114624 -41.63  0.001441307    2.360    0.576
        13 -11.6957     59.5970    196.7150   1.1760925086e+02   2.6404453238e+01    0.3630289    0.2436113 -45.19    0.0015181    2.120    0.528
        14  -8.6311     81.4197    220.4612   1.1559349305e+02   1.8609040015e+01    0.1218896   0.09876988  66.70 0.0001039096    1.014    0.014
        15 -10.9562    193.2858    195.5422   8.9188527393e+01   4.2917551747e+00    0.8984259    0.4786048 -62.07   0.00302975    4.899    0.796
        16  -9.2322    204.6826    199.6294   8.7718482931e+01   1.6019497933e+00    0.1415093   0.09513806   4.45 0.0007034925    1.790    0.441
        17 -11.0678    151.0856    195.8556   9.7922248689e+01   1.1961934779e+01      0.32787    0.2883928  -9.61  0.001920548    1.334    0.250
        18  -9.3163     82.2366    195.0229   1.1264124742e+02   2.3648388363e+01    0.2203827    0.1690655  53.69 0.0008451974    1.178    0.151
        19  -9.5417     44.6747    195.4117   1.2055608020e+02   2.8518510463e+01    0.1427325    0.1013774  53.54 0.0006301892    1.283    0.221
        20  -9.0308     50.3527    216.5302   1.2121019619e+02   2.3497274967e+01    0.3096922    0.2318938  -0.64  0.001772673    2.868    0.651
        21  -8.3330    159.3357    194.6935   9.5982299675e+01   1.0670066334e+01    0.1386835    0.1053478  70.51 0.0007040852    1.672    0.402
        22  -8.4118     78.2300    192.7531   1.1323197511e+02   2.4714105284e+01    0.1211558   0.08386279  72.21            0    1.384    0.277
        23 -10.3520     55.3763    211.2476   1.1980804645e+02   2.3929224895e+01    0.4257475    0.1816002  62.59  0.002011528    2.434    0.589
        24  -9.4988    156.5701    189.9993   9.5750713270e+01   1.2063442367e+01    0.2106083    0.1751976  40.58 0.0003389565    1.101    0.091
        25 -10.1965     96.0159    189.7783   1.0897170502e+02   2.2676131438e+01    0.3868745    0.2842714  24.09  0.001393619    1.761    0.432
        26  -9.9216     99.4407    186.5114   1.0775750842e+02   2.2834105357e+01    0.2269461    0.1241619  42.03  0.000686345    1.718    0.418
        27 -11.1494    150.0682    188.0574   9.6807679084e+01   1.3646170991e+01    0.3434755    0.2859162  68.32  0.001787845    1.323    0.244
        28 -11.9843     70.3169    183.2437   1.1382866956e+02   2.7905021272e+01    0.7052714     0.541553 -66.68  0.003034206    1.301    0.231
        29 -10.6380    133.1679    184.9267   9.9976657134e+01   1.7379359634e+01    0.2272549    0.1861088  74.07  0.001242521    1.320    0.242
        30 -10.8658    151.0391    180.0352   9.5160088113e+01   1.5048572993e+01    0.4542278    0.2974708 -71.83  0.002020694    2.222    0.550
        31 -11.2743    145.1037    180.6675   9.6586237785e+01   1.6043538822e+01    0.3613554    0.3171006  16.68  0.001045421    1.265    0.209
        32 -11.7251    141.5610    174.7308   9.6299227235e+01   1.7931893017e+01    0.7643838    0.4677147  67.16  0.002464945    2.371    0.578
        33 -10.6431     99.3155    180.8118   1.0696028642e+02   2.4095406132e+01    0.2671135    0.2588632  19.16 0.0006103334    1.266    0.210
        34 -10.5720    188.7225    176.7139   8.6485625307e+01   8.4050357420e+00    0.7296013     0.383983 -56.44  0.002294783    2.914    0.657
        35 -10.0902    184.0871    210.7378   9.3686310407e+01   3.4488291267e+00    0.3691243    0.1835325 -38.68  0.001745008    2.272    0.560
        36 -10.2691    239.9996    169.2964   7.5199670628e+01   1.1431772257e-01    0.1888522    0.1614007  13.41 0.0005467873    1.103    0.093
        37 -10.7174    230.7044    167.7665   7.6527199675e+01   2.0081913922e+00    0.3868924     0.193271 -49.49   0.00157068    2.803    0.643
        38  -8.5121     56.4698    224.4108   1.2069327248e+02   2.1200289408e+01    0.1222128   0.08424962  66.65 0.0001841355    1.154    0.133
        39 -11.0470     90.7026    158.3039   1.0548083661e+02   3.0596938228e+01    0.2818142    0.2652492  85.56 0.0001866087    1.070    0.065
        40 -10.8430    133.8800    145.9291   9.2368560008e+01   2.5682761607e+01     1.281624    0.3205211 -54.65  0.003020812    5.838    0.829
        41 -11.8483     96.5867    151.5705   1.0283924453e+02   3.1224552120e+01     0.607495     0.466687 -27.50  0.003044128    1.755    0.430
        42  -9.6488    187.4810    152.2288   8.1553696415e+01   1.3226729842e+01    0.3469059    0.2333713  82.55  0.001303386    3.050    0.672
        43  -9.4492    113.7172    151.4452   9.8501249615e+01   2.8273606271e+01    0.3674766    0.2195776  85.27  0.001302147    3.190    0.686
        44  -9.5083    174.5524    149.1992   8.3640478965e+01   1.6540273874e+01    0.2834006    0.2142004  44.99 0.0006754226    1.314    0.239
        45  -9.9305    143.6804    145.5171   8.9901692639e+01   2.3789898958e+01    0.2732971    0.1913736 -70.68   0.00118922    1.835    0.455
        46 -11.2325    107.9596    138.1806   9.7295176571e+01   3.2417214888e+01    0.5510682    0.3483387 -40.62  0.001684952    1.760    0.432
        47 -11.7339     96.2575    137.4872   1.0024560608e+02   3.4626210282e+01    0.3068089    0.2786718  87.12 0.0004066959    1.076    0.071
        48 -10.7939    105.8792    130.9753   9.6304649008e+01   3.4496636678e+01    0.4375213    0.3405721 -53.19  0.001708081    1.235    0.190
        49  -9.8904    136.0000    129.5406   8.8119605244e+01   2.8938169982e+01    0.5052482   0.08753804 -47.18  0.001133325    5.707    0.825
        50 -10.1028    115.1091    128.8873   9.3371678023e+01   3.3272256668e+01    0.3431841    0.2859197 -11.66  0.000771034    1.517    0.341
        51  -9.4379    160.7674    127.8554   8.1711807663e+01   2.3953200753e+01    0.3091131    0.2247894 -62.69   0.00136631    1.636    0.389
        52 -10.4509    102.7074    124.7639   9.5784012945e+01   3.6540140602e+01    0.2973838    0.2561065 -18.82  0.000763559    1.385    0.278
        53 -10.0050    120.5461    122.7266   9.0476630424e+01   3.3644014410e+01    0.4751187    0.2829704 -24.45  0.001707805    2.805    0.643
        54  -9.5169    110.2212    118.1234   9.2154425381e+01   3.6718947375e+01    0.2358703    0.2150988  45.06 0.0003488408    1.143    0.125
        55 -10.0809    231.1523    113.7013   6.4190930775e+01   1.0988500892e+01    0.2808037    0.2685861  58.08 0.0008021534    1.173    0.148
        56  -9.2868    167.4879    112.4632   7.6230332199e+01   2.5634721947e+01    0.3487302    0.2402689 -79.00   0.00135252    2.338    0.572
        57 -10.4237    134.6686    107.3113   8.2796234170e+01   3.4172214797e+01     1.003888    0.1385463 -46.18  0.001942339    7.525    0.867
        58 -10.9278    118.5959    110.7930   8.8007397178e+01   3.6771689796e+01    0.5717871    0.3828737  60.44  0.002245123    1.815    0.449
        59  -9.5221    205.3766    110.2329   6.7852204836e+01   1.7274557909e+01    0.3029306    0.2122425  44.40 0.0006423156    1.501    0.334
        60  -8.4792    130.5482     96.5395   8.0875106385e+01   3.7405222046e+01    0.1559728    0.1508682 -59.35 5.412964e-05    1.050    0.047
        61  -8.2171    165.2593     92.6180   7.1276817233e+01   3.0137177669e+01    0.1641648    0.1208871 -65.82 0.0006973919    1.674    0.403
        62  -9.7597    174.7221    211.4331   9.5652370900e+01   4.9731769070e+00    0.2550196    0.1131841  44.05  0.001123727    2.022    0.505
        63  -9.6965     70.2506     72.1699   9.1954300211e+01   5.3954564586e+01    0.2216503    0.1971528  40.44 0.0003873532    1.284    0.221
        64 -11.0029     71.9033    245.7602   1.1960043494e+02   1.5288928433e+01    0.3389512    0.1683527 -73.37  0.001986388    2.181    0.542
        65  -8.1877     75.5968    247.5201   1.1909192420e+02   1.4490359121e+01    0.1134132   0.08534743  63.16 0.0002284423    1.019    0.019
        66  99.0000     63.0808    221.1802   1.1918618369e+02   2.0973436359e+01    0.4008695    0.1812424  70.43  0.001874632    2.646    0.622
        67 -11.5787    248.8072    230.8756   8.5280294308e+01  -9.5831546965e+00    0.3631191    0.2413457   6.62  0.002360667    1.312    0.238
