#   1 NUMBER                 Running object number                                     
#   2 MAG_AUTO               Kron-like elliptical aperture magnitude                    [mag]
#   3 X_IMAGE                Object position along x                                    [pixel]
#   4 Y_IMAGE                Object position along y                                    [pixel]
#   5 X_WORLD                Barycenter position along world x axis                     [deg]
#   6 Y_WORLD                Barycenter position along world y axis                     [deg]
#   7 A_WORLD                Profile RMS along major axis (world units)                 [deg]
#   8 B_WORLD                Profile RMS along minor axis (world units)                 [deg]
#   9 THETA_WORLD            Position angle (CCW/world-x)                               [deg]
#  10 FWHM_WORLD             FWHM assuming a gaussian core                              [deg]
#  11 ELONGATION             A_IMAGE/B_IMAGE                                           
#  12 ELLIPTICITY            1 - B_IMAGE/A_IMAGE                                       
         1 -10.8334    139.5345     27.7223   7.7627230985e+01   4.7247138464e+01    0.5366591    0.4196091 -81.06  0.001949564    1.737    0.424
         2 -12.1552     76.5431     24.4014   9.4257450776e+01   6.1423840216e+01    0.5155376    0.3235767 -42.58  0.001033736    1.604    0.376
         3 -10.4900     12.6913     16.0760   1.1949921373e+02   7.0758303394e+01    0.3082412    0.2121997  30.91  0.002022503    1.880    0.468
         4 -11.2504     42.3297     18.3898   1.0564715981e+02   6.7552027209e+01    0.5584033    0.3409404   1.38  0.002872894    2.196    0.545
         5 -10.5447     26.5749     16.3510   1.1240434310e+02   6.9607122843e+01    0.2753226     0.215508 -43.63  0.001206874    1.116    0.104
         6 -10.2095    100.4408     18.9954   8.3901221713e+01   5.7559527154e+01    0.3919314    0.2339232 -50.23  0.001693804    2.300    0.565
         7 -11.3405     90.1667     16.0187   8.5672610872e+01   6.0117503652e+01    0.3920948    0.2297938 -22.25 0.0004332626    1.618    0.382
         8 -10.6440     87.5935     10.5281   8.3829707647e+01   6.1378188669e+01    0.6933233    0.2647936 -18.01  0.002348912    3.426    0.708
         9  -9.2283    109.6547     13.1732   7.8675636241e+01   5.6262322954e+01    0.2532602    0.1688171  -9.62 0.0004685607    1.500    0.333
        10 -11.6656     38.9370      2.1984   9.9048706290e+01   7.0737287454e+01    0.6564808     0.576089  58.32  0.004313134    1.866    0.464
        11 -11.5622     34.9283     13.0646   1.0671898936e+02   6.9374680729e+01    0.4511907    0.2655348 -50.49  0.001996496    1.664    0.399
        12 -11.6157     39.6912     10.5423   1.0313785753e+02   6.9266118839e+01    0.4144571    0.2296969 -33.14  0.000245978    1.512    0.338
        13 -10.6176    156.3144     13.8326   6.9002477455e+01   4.4559870189e+01    0.2739415    0.2333589  28.52 0.0008113989    1.135    0.119
        14 -10.7282    212.1268     12.0568   6.0841991021e+01   3.0081816510e+01     0.346225    0.2265863 -58.62 0.0008314675    1.703    0.413
        15 -10.5428    210.1792      7.4015   5.9644336076e+01   3.1011548260e+01    0.2936044    0.1748431 -32.13  0.001015777    1.589    0.370
        16 -10.3894     68.7933     11.7582   9.1075005034e+01   6.4755617686e+01    0.3107155    0.2334344 -46.08  0.001229936    1.614    0.380
        17  -9.5083    118.8711     11.8557   7.5776543771e+01   5.4253007755e+01    0.1857683    0.1730463 -62.58 0.0003689612    1.306    0.234
        18 -11.9754    150.8051      8.0494   6.7731115849e+01   4.6583557854e+01    0.5047923    0.3747436  31.61  0.002526889    1.327    0.246
        19 -11.1924     92.9266      8.2705   8.1053533816e+01   6.0553242320e+01    0.5377348    0.1953594 -29.32 0.0006257443    2.515    0.602
        20 -10.9564     22.1686      9.3712   1.1159767597e+02   7.1326069336e+01    0.3137167    0.1892156 -24.50  0.001010282    1.603    0.376
        21 -10.0281     10.0413      1.4996   1.1480704859e+02   7.3758770941e+01    0.1820802    0.1372081 -29.71 0.0009732568    1.109    0.098
        22 -11.7935      4.1267      8.9737   1.2152317228e+02   7.2690933588e+01    0.3537914    0.3113804  72.64  0.001320088    1.637    0.389
        23 -10.2844      1.8596      2.9128   1.2043174143e+02   7.4000486687e+01    0.1845873    0.1105309 -37.91   0.00120154    1.304    0.233
        24 -10.9206     11.7733      7.5547   1.1656493901e+02   7.2494603639e+01    0.4099141    0.3376924  26.52  0.002977482    1.587    0.370
        25 -10.2938      7.8850      5.1891   1.1779018187e+02   7.3208332590e+01    0.2037551    0.1659108 -32.55 0.0007333197    1.137    0.120
        26 -10.4866     55.3068      7.9376   9.4579751838e+01   6.7534396592e+01    0.2737515    0.2058256 -36.00 0.0003523675    1.322    0.243
        27 -10.9416     57.7655      4.9915   9.1927741493e+01   6.7583969546e+01    0.3023592    0.2255274 -41.20  0.001769059    1.525    0.344
        28 -10.9705     53.4679      4.4973   9.3506238287e+01   6.8331671598e+01    0.3193383    0.2353095 -46.15  0.001709224    1.689    0.408
        29 -10.2258     60.9922      3.2036   8.9595632050e+01   6.7303847417e+01    0.2325824    0.1952232  43.97 0.0006358535    1.479    0.324
        30  -9.6155    182.4197      7.7665   6.2944780383e+01   3.8229103944e+01    0.2706795    0.1496685  45.82 0.0007644427    1.791    0.442
        31 -11.1889     70.9994      7.0234   8.7772689139e+01   6.5035953946e+01    0.3183678    0.2710925   1.77 0.0004041864    1.050    0.048
        32 -10.9391     66.0018      6.4965   8.9399678969e+01   6.5994346964e+01    0.3218591    0.2246192  26.11  0.001281373    1.440    0.305
        33 -10.8594    218.2814      7.0386   5.8735313703e+01   2.8993390137e+01    0.2822826    0.1758652  73.07 0.0009650278    1.654    0.395
        34  -9.9517    144.6333      6.1354   6.8048755763e+01   4.8376899569e+01    0.2127769    0.1326559   0.92 0.0005365102    1.756    0.430
        35 -10.1699    146.9873      2.4934   6.6193841559e+01   4.8094392157e+01    0.2481813    0.1635755  44.45 0.0005310246    1.420    0.296
        36 -10.8287    120.1279      4.4551   7.2192565473e+01   5.4733599935e+01     0.411439    0.2003345  50.11  0.001651782    1.869    0.465
        37 -10.7432    243.5311      3.1414   5.5500895330e+01   2.3228312065e+01     0.333027    0.2161616  11.25  0.001683112    1.906    0.475
        38 -10.3798    198.8624      3.3813   5.9586753783e+01   3.4290237438e+01    0.2391797    0.1726722  -8.97  0.001196813    1.444    0.307
        39 -10.8811    194.0003      3.2404   6.0069740913e+01   3.5574124982e+01    0.2798432    0.1639453 -36.30 0.0009315378    1.680    0.405
        40 -11.3870    130.3183      3.5272   6.9650065356e+01   5.2291656453e+01    0.3112949    0.2716185  73.14  0.001478412    1.276    0.216
        41 -10.9237     18.8842      2.7962   1.1022425624e+02   7.2817725260e+01    0.3494594    0.2017924  -4.96  0.001966975    2.133    0.531
        42 -11.9653     80.4802      1.7766   8.1636221909e+01   6.3889331311e+01    0.4236983    0.1908718  45.25  0.001002486    2.145    0.534
        43  -9.1449    204.3036      1.2853   5.8375407140e+01   3.3058193367e+01     0.143716   0.09904021  36.49  0.000207301    1.560    0.359
        44  -9.9621    157.5109      1.3050   6.4077332419e+01   4.5423640274e+01    0.2639378    0.1284192  67.90   0.00107195    2.015    0.504
        45 -11.5797     30.1082      7.1693   1.0627834580e+02   7.0948683086e+01    0.3176091    0.2675645 -19.13  0.001273465    1.128    0.114
        46 -10.5666     65.6893    111.6022   1.2343341028e+02   4.4737159414e+01    0.4276145    0.1401975 -54.16  0.001718783    2.694    0.629
        47 -12.7097     21.9914    244.3839   1.4342608373e+02   2.4744182231e+01    0.4446215    0.3205324 -47.74  0.003701757    2.661    0.624
        48  -9.6506      5.5126    113.4477   1.3963558776e+02   4.9838636439e+01    0.1109344   0.08556022 -82.14 8.648178e-05    1.062    0.059
        49 -10.2413    249.1705    111.8208   8.3068971248e+01   9.5792407088e+00    0.1969331    0.1421239   9.92  0.001073163    1.323    0.244
        50 -11.6472      4.9516    108.8089   1.3939605578e+02   5.0874833751e+01    0.3016474    0.1995173  24.89  0.002070114    1.912    0.477
        51 -10.7800     58.2323    107.5951   1.2480079294e+02   4.6523862583e+01    0.2271414     0.178327 -30.17 0.0007874885    1.606    0.377
        52 -10.9617     12.3170    107.9695   1.3739338877e+02   5.0588253875e+01    0.1679749    0.1208164 -80.78 0.0007024332    1.087    0.080
        53  -9.4686     79.4878    106.9800   1.1879621609e+02   4.3938054931e+01    0.2015944    0.1217652 -59.38 0.0004334159    1.536    0.349
        54  -9.4558     34.3291    107.3162   1.3137641230e+02   4.9024314513e+01    0.1200983   0.08021458 -45.18 0.0002915561    1.679    0.404
        55  -9.8633     66.6901    102.1559   1.2144315301e+02   4.6720938979e+01    0.2615004    0.1129887 -67.97  0.000927288    2.517    0.603
        56  -9.7260    113.4972    102.5054   1.0860217060e+02   3.9421772770e+01    0.1399495    0.1359863 -42.04  0.000177807    1.016    0.016
        57 -10.4883     57.9890    101.6988   1.2384546872e+02   4.7876025313e+01    0.1773742    0.1638614  89.06  0.001173084    1.089    0.082
        58  -9.4032    129.5071     97.5087   1.0320467917e+02   3.7395200787e+01    0.1446029    0.1408924 -18.35 0.0008105913    1.001    0.001
        59  -9.5560    100.9861     96.1086   1.1042154874e+02   4.2973236414e+01    0.3550763    0.1927311 -66.36  0.001404867    2.591    0.614
        60 -10.0954     38.5773     96.8413   1.2866136458e+02   5.0994872794e+01    0.3449904     0.175554 -87.87 0.0004963063    2.402    0.584
        61  -9.1476     38.4345     92.4309   1.2799652667e+02   5.2007249368e+01    0.1476841    0.1210246 -10.49 0.0004989798    1.615    0.381
        62 -11.3402     17.5582     94.7718   1.3450672744e+02   5.3156431929e+01     0.292898     0.206433 -52.61  0.001347395    1.410    0.291
        63 -10.5857     20.5099     91.4598   1.3321900769e+02   5.3692319045e+01    0.2018214    0.1578059  89.88 0.0007403408    1.151    0.131
        64 -10.5964     78.8381     94.8167   1.1642114559e+02   4.6725980428e+01    0.1974392    0.1720267 -37.06 0.0003462277    1.207    0.171
        65 -10.1927      3.0781     95.0808   1.3867040025e+02   5.3983164188e+01    0.1809595     0.106057  72.07 0.0006167453    1.675    0.403
        66 -10.6357     84.2090     93.6884   1.1460312987e+02   4.6188149856e+01    0.2701731    0.2461022   1.05  0.001411435    1.271    0.213
        67 -11.1458     27.5588     90.9474   1.3103930081e+02   5.3276077590e+01    0.5422973    0.2481103  54.37   0.00261085    2.738    0.635
        68 -10.2505     25.5461     84.7989   1.3073002529e+02   5.4824970866e+01    0.2721177    0.1530817 -67.12 0.0008648172    1.412    0.292
        69  -9.8380     16.0255     89.4702   1.3429646959e+02   5.4448964032e+01    0.1965665    0.1552863 -40.53   0.00108616    1.462    0.316
        70  -9.6088     18.7844     86.9669   1.3313301987e+02   5.4825588298e+01    0.1868782     0.131463 -59.12  0.001218397    1.247    0.198
        71  -9.5750    118.6421     90.3033   1.0410988735e+02   4.0983675738e+01    0.1473955    0.1166222  87.67 0.0007038933    1.718    0.418
        72 -10.6496     76.4286     89.2657   1.1586867249e+02   4.8301833497e+01    0.2358738    0.2195007 -60.05 0.0004061231    1.030    0.029
        73 -10.0922     44.0719     89.7173   1.2581725651e+02   5.2084244805e+01    0.2432966    0.1547495  47.36  0.001374249    1.774    0.436
        74 -10.4695      1.7664     89.6890   1.3851936375e+02   5.5242751444e+01    0.2033199    0.1166793 -75.63 0.0002433556    1.315    0.240
        75 -10.9616    103.9714     87.9353   1.0750043066e+02   4.4194360110e+01     0.222902    0.1758569 -89.96 0.0006472828    1.673    0.402
        76  -8.9623    250.6948     87.6916   7.6955852952e+01   1.2279219599e+01    0.1428788   0.09589146  13.78 0.0002405981    1.609    0.378
        77  -9.8148    123.8804     86.8698   1.0177296747e+02   4.0648386176e+01    0.2241118    0.2009134  -4.00 0.0008113557    1.179    0.152
        78 -10.8549     54.6180     84.3293   1.2148411793e+02   5.2188883143e+01    0.3159344    0.1992846 -65.39 0.0009930913    1.421    0.296
        79 -10.5074      3.9019     82.9608   1.3717307683e+02   5.6624391273e+01    0.2401175     0.130047 -69.54 0.0009074573    1.390    0.280
        80  -9.7618     78.2129     83.2156   1.1386779498e+02   4.9385814173e+01    0.1750487    0.1526874  81.47 0.0002828205    1.301    0.231
        81 -10.2088     89.3235     80.6825   1.0982701063e+02   4.8230151305e+01    0.3494581    0.1760592 -55.03  0.001144877    1.966    0.491
        82 -11.6347     63.9601     79.0693   1.1732432698e+02   5.2252173240e+01    0.6713973    0.3757552 -52.25   0.00335666    1.549    0.354
        83  -9.7091    250.3841     80.8003   7.5259654233e+01   1.3194642663e+01    0.1973423    0.1192105 -12.49  0.000514843    1.616    0.381
        84  -9.7147     19.1600     79.7111   1.3197328009e+02   5.6438487659e+01    0.1763359    0.1308797  64.28 0.0006080393    1.491    0.329
        85  -8.8943    124.4408     79.4277   9.9474309506e+01   4.2011228073e+01    0.1462847     0.140892 -52.82 0.0001946527    1.098    0.089
        86 -11.5838     11.1325     88.0999   1.3558923379e+02   5.5067627000e+01    0.5547053    0.2050016 -72.80  0.002732794    2.081    0.519
        87 -10.8964     14.7973     76.5595   1.3291194605e+02   5.7435961577e+01    0.3485782    0.1638845 -49.00  0.001874662    1.974    0.494
        88 -10.0102    176.8225     77.0738   8.6494963158e+01   3.0598982134e+01     0.276914    0.2246137  47.40  0.001379681    1.250    0.200
        89  -9.5891     74.9658     75.6803   1.1294042175e+02   5.1513847802e+01    0.1707817    0.1691144 -24.77 0.0001787644    1.111    0.100
        90 -11.0425     55.5407     75.6811   1.1926054565e+02   5.4035081302e+01    0.2659294    0.2371588 -16.18 0.0004428638    1.289    0.224
        91  -9.2441     70.2991     75.3397   1.1434937475e+02   5.2244272818e+01    0.1395984   0.09671924 -29.70 0.0002926969    1.664    0.399
        92 -10.7680     32.1510     72.9172   1.2651366893e+02   5.6993809708e+01     0.305132    0.1903648  50.32 0.0002568793    1.940    0.485
        93 -11.1685     35.7741     72.2246   1.2514320362e+02   5.6837907172e+01    0.4546921    0.2718422 -65.08  0.001700816    1.389    0.280
        94 -11.2667      4.1314     73.7914   1.3600112470e+02   5.8659752136e+01    0.3350509    0.2051367  26.48  0.001339373    2.048    0.512
        95  -9.1547    224.2989     74.2787   7.7293923679e+01   1.9762756451e+01    0.1474976    0.1046239  18.63 0.0002404023    1.539    0.350
        96  -9.7991    136.6566     74.1195   9.4698053449e+01   4.0425249494e+01    0.2139659    0.1839117 -25.55 0.0005267297    1.129    0.115
        97  -9.7660    216.9561     72.4407   7.7928937595e+01   2.1713317939e+01    0.2331568    0.1831217 -18.49 0.0004982509    1.189    0.159
        98  -9.2068     95.7013     73.3177   1.0581643753e+02   4.8724785693e+01     0.139489    0.1127484 -83.17 0.0006408338    1.615    0.381
        99 -10.3536     81.0162     71.8678   1.0995886637e+02   5.1441979247e+01    0.3292629     0.184706 -65.75  0.001380256    2.369    0.578
       100 -10.2679    105.9107     71.4368   1.0221459456e+02   4.7261486786e+01    0.2529933    0.1972058 -35.53 0.0004458146    1.220    0.180
       101  -9.6108     90.7023     69.3531   1.0616467370e+02   5.0411511076e+01    0.2370793    0.1677764 -75.71 0.0004596944    2.064    0.516
       102 -10.2071     46.9452     69.0864   1.2060890495e+02   5.6466085007e+01    0.4257766    0.2224292  20.46  0.001674467    2.552    0.608
       103 -10.2402     10.3325     68.6143   1.3320882204e+02   5.9491425939e+01    0.2953016    0.1463133 -70.41   0.00165393    1.544    0.353
       104  -9.0633    114.4772     66.5006   9.8192368554e+01   4.6567137740e+01     0.147617      0.13958 -38.13 -1.271042e-05    1.074    0.069
       105 -11.5229     34.2087     65.1056   1.2417616094e+02   5.8583994848e+01    0.2548609    0.2237131 -41.43 0.0004095187    1.178    0.151
       106 -11.0569     39.3927     62.7027   1.2175708704e+02   5.8651815046e+01    0.4167724    0.2296861 -38.91 0.0009810927    1.875    0.467
       107 -10.6705     40.7006     59.3296   1.2044420146e+02   5.9278221698e+01    0.2504387    0.1800811 -44.61 0.0005263276    1.236    0.191
       108 -11.4207     17.1788     64.1311   1.3007027009e+02   6.0089162343e+01    0.2818881    0.2445039 -43.35   0.00203472    1.238    0.192
       109 -11.5811     11.7927     48.8460   1.2912850537e+02   6.3831315737e+01     1.132353    0.4820225 -16.58  0.004811191    4.280    0.766
       110 -12.8630     20.7961     57.6676   1.2748940090e+02   6.1301101152e+01    0.4166167    0.3319212  72.89  0.001839397    1.480    0.324
       111 -11.0863     20.3348     50.8591   1.2617757193e+02   6.2850630152e+01    0.4696478    0.1634565 -58.89  0.001532963    2.055    0.513
       112 -11.3635     16.6251     45.0896   1.2632615126e+02   6.4370119895e+01    0.3675773    0.3315953 -61.19  0.002018181    1.164    0.141
       113 -10.5443    131.3316     64.2518   9.2895656619e+01   4.3413916260e+01    0.4341384    0.3184031  65.92  0.001169353    1.724    0.420
       114  -8.9794    109.6529     64.2679   9.8844208580e+01   4.7964338667e+01    0.1412901    0.1181257 -87.97 0.0003321493    1.615    0.381
       115  -9.8147     72.6331     63.7368   1.1033760695e+02   5.4441644990e+01    0.1990092    0.1196229 -58.23 0.0007112313    1.678    0.404
       116 -11.3804      7.2040     63.4437   1.3349780118e+02   6.0821073420e+01    0.2733669     0.203402 -49.70  0.001899732    1.278    0.217
       117 -10.8220      8.7840     59.6018   1.3230580361e+02   6.1598709407e+01    0.2109228    0.1831762  86.66  0.001200346    1.238    0.193
       118 -10.7458      7.9430     55.9915   1.3199284002e+02   6.2449787185e+01    0.2580436    0.2049098  71.16  0.001217581    1.449    0.310
       119  -9.6144    100.6332     61.7881   1.0070390320e+02   5.0185733392e+01    0.2089986    0.1280325 -50.56 0.0005813227    1.687    0.407
       120 -10.5071     62.8517     61.9180   1.1316573408e+02   5.6182539381e+01    0.2144533    0.1759997 -40.62 0.0007810013    1.099    0.090
       121 -10.6653     60.4639     57.9341   1.1283694943e+02   5.7353183106e+01    0.2400886    0.2143389 -56.12 0.0006256422    1.110    0.099
       122 -11.3370     53.6234     58.3253   1.1542580446e+02   5.8110383321e+01    0.5198371     0.399878 -51.02  0.003104788    1.101    0.091
       123 -10.5752      2.3155     59.6028   1.3465246485e+02   6.1916918730e+01    0.2424331    0.1633688  81.53  0.001573781    1.541    0.351
       124  -9.5340     71.4436     57.6938   1.0888239732e+02   5.5897343662e+01    0.1816801    0.1163337 -40.27  0.000295911    1.414    0.293
       125  -9.6506    158.1787     57.0017   8.4101291981e+01   3.8347599227e+01    0.2528293    0.1665885 -52.62  0.001069227    1.863    0.463
       126 -10.1746     83.4646     56.9888   1.0456478328e+02   5.4174380516e+01    0.1978675    0.1951663  60.79 1.136255e-06    1.177    0.151
       127 -11.7669     87.3569     53.9863   1.0225542459e+02   5.4121122144e+01    0.4204879    0.3181012  37.55  0.001334299    1.440    0.306
       128 -11.0114    114.9418     53.8635   9.3764133192e+01   4.8844160959e+01    0.3388402    0.2935861  25.59  0.001126413    1.179    0.152
       129 -10.1117    106.5602     53.6307   9.6113530639e+01   5.0607291283e+01    0.3721333    0.2427869 -68.74  0.001474243    2.767    0.639
       130  -9.3200    162.4872     54.4841   8.2347039785e+01   3.7676163789e+01    0.1563247    0.1449262   6.97 0.0005706495    1.030    0.029
       131 -12.0330     66.1851     52.5314   1.0907602493e+02   5.7730889720e+01    0.5670384     0.269591  32.28  0.002072334    2.461    0.594
       132  -9.8702     34.6521     53.1480   1.2113629904e+02   6.1212729564e+01     0.255203     0.139605 -41.14 0.0008591081    1.713    0.416
       133  -9.6421    169.7087     52.9274   8.0364127435e+01   3.6105605761e+01     0.209609    0.1902567 -16.56 0.0002800434    1.063    0.059
       134  -9.5113    176.1878     52.3530   7.8924933505e+01   3.4556194930e+01    0.2010285    0.1483675  69.48 0.0003675803    1.569    0.363
       135  -9.9817     46.3893     49.7591   1.1562384400e+02   6.0786654116e+01    0.4372275    0.1196548 -45.06  0.001564443    3.222    0.690
       136  -9.5582    248.8528     50.1019   6.7475131788e+01   1.7194568731e+01    0.1846265    0.1497616   5.89 0.0004389867    1.252    0.201
       137  -9.2048    147.6119     49.8356   8.3999441490e+01   4.2059148458e+01    0.2144757    0.1348114 -40.91 0.0009203017    1.634    0.388
       138  -9.0896     59.6399     49.2824   1.1041177593e+02   5.9296691261e+01    0.1254941    0.1040338  84.32 0.0002541601    1.674    0.403
       139  -9.8735     38.1570     49.0413   1.1864015603e+02   6.1786892084e+01    0.1987373    0.1394504 -40.25 0.0009214189    1.277    0.217
       140  -8.9664    211.7282     48.7197   7.1892875905e+01   2.6103162415e+01    0.1466641    0.1077509  21.10 0.0001825663    1.494    0.331
       141  -9.6987     99.6640     56.1330   9.9082228234e+01   5.1474299522e+01    0.2072375      0.12442 -31.79 0.0003614774    1.663    0.399
       142  -9.0304     67.2711     60.3717   1.1116443998e+02   5.5921650687e+01    0.1423057   0.09353191 -29.62 0.0006998354    1.676    0.403
       143  -9.9599    105.8200     47.3444   9.4040315080e+01   5.1905262203e+01    0.2911839    0.1400206  55.80  0.001093357    2.736    0.635
       144 -10.6390     77.9363     46.2179   1.0268313215e+02   5.7230796789e+01    0.3338672    0.2520719  17.73 0.0008979239    1.511    0.338
       145 -10.5414     67.9552     46.7363   1.0645290642e+02   5.8668250250e+01    0.3619434    0.2007641  38.55   0.00149118    2.043    0.511
       146 -10.2052     31.1681     46.6236   1.2076082243e+02   6.2948671729e+01    0.2837641    0.1916406 -66.76  0.001674226    1.389    0.280
       147 -11.1203     19.5333     31.8777   1.2147835958e+02   6.7028930513e+01    0.5384765    0.2664962 -14.28  0.002551101    3.103    0.678
       148 -11.1968     25.3665     43.3500   1.2224834520e+02   6.4134395865e+01    0.3050019     0.221346 -75.03 0.0008637141    1.441    0.306
       149 -10.5701     22.7712     38.6034   1.2202607974e+02   6.5358126605e+01    0.2241235    0.2058278  83.52 0.0008479958    1.348    0.258
       150 -10.9825     26.5641     35.1428   1.1932323183e+02   6.5800207363e+01    0.4652114    0.1830281 -50.62  0.001739145    1.892    0.472
       151  -9.4912     91.2248     44.5794   9.7562874098e+01   5.5237473782e+01    0.1797436    0.1337281  25.67 0.0003131967    1.468    0.319
       152 -10.9672    139.6982     40.4105   8.2422411648e+01   4.5427744024e+01    0.3934015    0.2232511 -35.70  0.001317129    1.725    0.420
       153 -10.4550     70.5526     41.2106   1.0347091085e+02   5.9374850647e+01    0.3499748    0.2246731 -37.31  0.001358795    1.374    0.272
       154 -10.5126      2.8037     41.6853   1.3132803549e+02   6.5862742193e+01    0.3462159    0.1577089 -31.07   0.00183093    2.536    0.606
       155 -10.0049    182.1662     40.9835   7.4130440188e+01   3.4588767287e+01    0.3260385    0.2301068  68.61  0.001506769    1.568    0.362
       156 -10.0523     36.0974     40.7579   1.1698635644e+02   6.3764339111e+01    0.3207721    0.1552011 -43.49  0.001607505    1.745    0.427
       157  -9.1202     42.9815     40.7372   1.1411599107e+02   6.3070330028e+01    0.1377121    0.1118241  17.25 0.0004210399    1.436    0.304
       158 -10.1143    131.0429     37.7458   8.3489946060e+01   4.7907366722e+01    0.2871722    0.2384643  60.35  0.001465073    1.340    0.254
       159 -11.9589    121.4379     36.4927   8.5450916469e+01   5.0337847140e+01    0.5285528    0.4742373 -75.98  0.002825344    1.413    0.292
       160  -8.9459     51.3264     39.7197   1.1035633010e+02   6.2324218160e+01    0.1185947    0.1017785 -88.51  0.000243745    1.596    0.373
       161 -10.4075     13.0213     38.2094   1.2616413900e+02   6.6094763577e+01     0.324909   0.07913429 -56.55  0.001381348    2.552    0.608
       162 -11.6029    145.0299     32.9086   7.8416557273e+01   4.5180609405e+01    0.3028331    0.2655255 -20.86            0    1.116    0.104
       163 -12.3909      5.4578    240.6769   1.4569600294e+02   2.6744580521e+01    0.3903226    0.1832461  43.46  0.003133202    1.649    0.394
       164 -11.3507     50.4323     33.9592   1.0859104156e+02   6.3593128118e+01    0.3247897      0.25781  23.08 0.0005025162    1.435    0.303
       165 -10.6808      1.8493     35.8519   1.3050805839e+02   6.7177106628e+01    0.2477918    0.1499075 -44.05  0.001274572    1.434    0.302
       166 -11.0543    134.3586     33.9643   8.1233065607e+01   4.7666141322e+01    0.2526999    0.1991312  36.31 0.0003055263    1.250    0.200
       167  -9.8386    166.7250     31.8195   7.3724564516e+01   3.9766329775e+01    0.4226628    0.1382429 -34.84  0.001387339    2.843    0.648
       168 -10.9591     43.6518     30.4672   1.1013289917e+02   6.5091662920e+01    0.4030942    0.2772367 -13.21  0.001290341    1.661    0.398
       169 -10.5731     43.5184     26.5176   1.0861896231e+02   6.5880819517e+01    0.3782894    0.2280657  31.39  0.002089055    1.933    0.483
       170 -10.4641    150.2561     29.4540   7.6023260914e+01   4.4315722570e+01    0.3854453    0.2211527  71.47   0.00115224    2.184    0.542
       171  -9.3787    187.5128     29.4939   6.9489522592e+01   3.4617489766e+01    0.2832493    0.1148588  51.53  0.001034628    2.334    0.572
       172  -9.7080    103.8481     29.6761   8.7585679388e+01   5.5271389461e+01    0.2861821    0.1166142  42.76  0.001071895    2.538    0.606
       173 -10.1810     69.6654     28.2296   9.8525243407e+01   6.1927799096e+01    0.2467552    0.1916875 -52.11 0.0009644963    1.508    0.337
       174  -9.7815      7.6121     28.2336   1.2598109282e+02   6.8540257595e+01    0.1741376     0.134043  30.04 0.0007632691    1.693    0.409
       175  -9.8102    217.4357    245.0000   1.1273104899e+02   5.6760351763e-02    0.2346564   0.04396241  41.39 0.0009326661    3.918    0.745
       176 -10.1831    200.9707     25.9883   6.6454831590e+01   3.1517811356e+01    0.2155505     0.205529  -8.03            0    1.015    0.015
       177 -10.1651    153.7750     25.8474   7.3978134655e+01   4.3864723963e+01    0.3118008    0.2172198  69.30 0.0009002661    1.595    0.373
       178 -10.2799    114.0483     25.2879   8.2836395684e+01   5.3674979679e+01    0.2817066    0.2038219 -31.60 0.0007658416    1.350    0.259
       179  -9.7844    218.5170     25.5022   6.4129048242e+01   2.7114072016e+01     0.144712    0.1310607 -43.60 0.0001301709    1.100    0.091
       180 -10.0016    171.5866     24.6374   7.0359181912e+01   3.9357280151e+01    0.3476565    0.1470917 -20.42  0.001255332    2.423    0.587
       181 -10.0876     59.0678     24.3547   1.0101796745e+02   6.4244635844e+01    0.2639087    0.1574573 -28.06  0.001117088    1.582    0.368
       182  -9.6096     34.2456     25.1946   1.1230814913e+02   6.7144240908e+01    0.1595744    0.1293909 -57.22 0.0006250817    1.314    0.239
       183 -10.0281     50.8963     23.5506   1.0411502836e+02   6.5525617545e+01    0.2822645     0.200675  71.93  0.001324496    3.180    0.686
       184 -10.1006     89.2679     22.3125   8.8898190096e+01   5.9382158478e+01    0.3920487    0.2083382 -43.14  0.001718541    2.057    0.514
       185  -9.3026     84.9988     21.2197   8.9821394236e+01   6.0377456357e+01    0.1991806    0.1220336  32.68 0.0005324556    1.729    0.422
       186 -11.0251     13.3586     20.5703   1.2077074930e+02   6.9803318670e+01    0.3062285    0.2899721  65.40  0.001324077    1.435    0.303
       187  -9.7490    146.3385    244.3122   1.2396208405e+02   1.0104111700e+01    0.1010021   0.06924993  21.88 0.0007045952    1.692    0.409
       188  -9.8014      1.8421     21.5939   1.2693573349e+02   7.0223480553e+01    0.2227793    0.1221121 -61.56  0.001334041    1.368    0.269
       189  -9.7728    116.6564     20.7575   8.0211931967e+01   5.3689224304e+01    0.2129527    0.1236832 -33.93 0.0007253409    1.699    0.411
       190 -10.7730      1.6945    248.6818   1.4643554679e+02   2.5926951283e+01    0.2539478    0.1013895 -83.17  0.001926155    2.366    0.577
       191 -10.2878     30.9583     19.8238   1.1169485944e+02   6.8521288661e+01     0.259354    0.1462782 -51.75  0.001049316    1.542    0.352
       192 -12.1981     26.3402    235.9270   1.4246411894e+02   2.5564016854e+01    0.2732346    0.1729068 -89.41  0.001620574    1.486    0.327
       193 -10.0453    175.4230     20.2298   6.8209599392e+01   3.8837490079e+01    0.2074513    0.1333562 -32.99 0.0004462303    1.540    0.351
       194 -10.0206     70.1774     35.3611   1.0132070634e+02   6.0548639742e+01    0.3485022     0.155109 -31.34  0.001258903    2.481    0.597
       195  -9.5515    202.5016    240.0645   1.1443412293e+02   2.6172896782e+00    0.1272369    0.1004265 -15.17 0.0006575899    1.524    0.344
       196 -12.9931      8.6359    246.5097   1.4540825286e+02   2.5639307762e+01    0.5490294    0.2756853  41.61  0.004524089    1.657    0.396
       197 -13.2029      9.5791    229.7276   1.4476423913e+02   2.8006108483e+01     0.520141    0.2905904  81.38  0.002984396    1.454    0.312
       198 -10.1767    199.8645     17.1556   6.3816571129e+01   3.2735638717e+01    0.2214824    0.1874101 -51.01 0.0005035269    1.228    0.186
       199 -10.1917    107.6327     16.5694   8.0757596992e+01   5.6299201426e+01    0.3960693    0.2360818  65.27  0.001741306    2.154    0.536
       200  -9.0044    210.6640    235.6982   1.1256925277e+02   1.8752484014e+00    0.1117917   0.06408847  20.50 0.0003011406    1.662    0.398
       201 -10.0053     85.8814     17.1373   8.7606570379e+01   6.0813414385e+01    0.1920495     0.182197 -11.49 0.0002999614    1.191    0.161
       202  -9.8638    249.1745    234.1494   1.0639544010e+02  -3.3761165942e+00    0.1628127    0.1011986  21.27 0.0005481461    1.160    0.138
       203  -8.9642     80.2989    231.6576   1.3368843802e+02   2.0412486231e+01    0.1056269   0.05785779  63.13 0.0007035526    1.670    0.401
       204  -9.7797    140.1055    227.0835   1.2319530323e+02   1.3133825958e+01    0.1697831    0.1087089  60.01 0.0006433228    1.696    0.410
       205 -10.7314     20.0635     16.8203   1.1593287090e+02   7.0073715396e+01    0.1973486    0.1599268   5.11 0.0004016319    1.419    0.295
       206 -10.3840    190.5259     14.0003   6.3977628570e+01   3.5492796444e+01    0.2215422    0.1404129 -20.96 0.0006464315    1.558    0.358
       207 -12.0248      4.1945    232.6006   1.4565069056e+02   2.8035038650e+01    0.3626199    0.1465894  77.42 0.0006400865    2.058    0.514
       208  -9.6734    144.4645     14.4770   7.1399742541e+01   4.7577382314e+01     0.149303    0.1380758  20.71 0.0001922959    1.004    0.004
       209  -9.0840     76.4266     14.5053   8.9611338309e+01   6.2989656297e+01    0.1398235    0.1154134  -6.27 0.0002295816    1.056    0.053
       210  -9.5779      2.3147    114.3000   1.4050356760e+02   4.9851440350e+01    0.1441655   0.09439959  -1.55 0.0007469064    2.414    0.586
       211 -10.7187      2.1999    219.8786   1.4557508432e+02   3.0140872533e+01    0.1980155   0.08536707  77.77   0.00128948    1.877    0.467
       212 -11.3743      7.6899    217.6324   1.4465400852e+02   3.0035379256e+01    0.2452932    0.1516947  72.95  0.001510996    1.182    0.154
       213 -10.9371      4.3620    212.6381   1.4500960149e+02   3.1109483130e+01    0.2213961   0.09443419  61.63  0.001258178    1.703    0.413
       214  -9.7007    246.5023    216.5182   1.0414235099e+02  -1.4938669398e+00    0.1146846   0.07882498  19.10 0.0001504928    1.058    0.055
       215  -9.6525    209.4994    211.9582   1.0938974017e+02   4.4872656445e+00    0.1488116    0.1081655 -21.05  0.001023494    1.563    0.360
       216 -10.7346     15.8950    211.8405   1.4313349794e+02   3.0252344370e+01    0.1343966    0.1103288  72.39 0.0007063785    1.242    0.195
       217  -9.8461    246.8427    206.9472   1.0255483082e+02  -6.6349184114e-01    0.1766295    0.1171511  11.54  0.001116816    1.244    0.196
       218  -9.8321      2.2941    205.6739   1.4510827038e+02   3.2411002869e+01    0.1008184    0.0456942  63.63 0.0003015887    1.623    0.384
       219  -9.4178    197.2531    204.0085   1.1025998982e+02   7.3189494633e+00    0.1301305   0.09867804 -24.75 0.0005485948    1.523    0.343
       220 -11.2251      9.2281    203.4234   1.4389312613e+02   3.2212543937e+01    0.2004026    0.1381788  55.19 0.0009261164    1.200    0.167
       221  -8.9810    181.4906    199.4938   1.1234302092e+02   1.0422256842e+01    0.1200702   0.09744325  34.68 0.0008099147    1.058    0.055
       222  -9.5415     23.0805    197.5051   1.4128168156e+02   3.2000755767e+01    0.1408642    0.0813774  42.10 0.0005308253    1.572    0.364
       223  -9.3936      6.5143    191.4925   1.4388159400e+02   3.4468701659e+01     0.100064   0.06805564  69.66 1.120775e-05    1.055    0.052
       224  -9.8381     15.4085    185.5656   1.4204902011e+02   3.4772886816e+01    0.1764612   0.07768875 -88.52  0.001095739    1.994    0.498
       225  -9.5138      1.3026    183.2497   1.4446483730e+02   3.6329768887e+01    0.1320855   0.06623185  85.23 0.0005666271    1.589    0.371
       226  -9.1639    250.3213    183.3269   9.7919557275e+01   1.1280818972e+00    0.1279201   0.07296567  14.02 0.0007047805    1.686    0.407
       227 -10.7153      4.6340    167.3237   1.4316726559e+02   3.8989475476e+01    0.2640396    0.1258625  63.70  0.001726739    1.716    0.417
       228  -9.3219    111.8061    162.6238   1.2045411893e+02   2.7628299271e+01    0.1706535    0.1039894  49.79 0.0002732834    1.527    0.345
       229  -8.8037     41.6956    158.3490   1.3507915983e+02   3.7478988116e+01    0.1205786   0.06785335  68.98 0.0007041155    1.699    0.411
       230  -9.2137    247.4699    155.5346   9.3003317547e+01   4.6198013339e+00    0.1296704    0.1021122   9.56 8.262205e-05    1.006    0.006
       231  -9.7312     14.5452    150.5268   1.4024046102e+02   4.1480831729e+01     0.107754   0.08168024  81.32 0.0003653125    1.006    0.006
       232 -10.0313      8.6480    148.8109   1.4137500154e+02   4.2275012249e+01     0.150023   0.07653499  87.51 0.0004071096    1.620    0.383
       233 -10.2048     21.9330    143.3231   1.3812828976e+02   4.2341031672e+01    0.1990862    0.1228179  86.55  0.001049767    1.362    0.266
       234  -9.7103      2.1758    138.3959   1.4214205073e+02   4.4829269734e+01     0.135399   0.08069986  49.64 0.0005295599    1.590    0.371
       235 -10.8561     12.9274    130.7109   1.3919926866e+02   4.5664223141e+01    0.3711304    0.1424513  61.35  0.001575516    2.764    0.638
       236  -9.7104     29.3566    128.9188   1.3513942905e+02   4.4730456921e+01    0.2461317    0.1204632  84.35  0.001228663    2.160    0.537
       237  -9.6643     21.2289    126.1849   1.3684794365e+02   4.5990615868e+01    0.1602454    0.1194381 -84.79 0.0004366417    1.076    0.070
       238 -11.3919     24.1526    122.3675   1.3576759342e+02   4.6576736450e+01    0.3107317     0.186446  79.24 0.0002932078    1.571    0.364
       239 -10.8725     22.0000    118.0079   1.3587432844e+02   4.7693268480e+01     0.231418    0.1611559 -87.22   0.00130075    1.180    0.153
       240 -10.4575      3.4831    119.0088   1.4056654692e+02   4.8776208369e+01    0.1566695     0.128159  80.75 0.0004574636    1.116    0.104
