#   1 NUMBER                 Running object number                                     
#   2 MAG_AUTO               Kron-like elliptical aperture magnitude                    [mag]
#   3 X_IMAGE                Object position along x                                    [pixel]
#   4 Y_IMAGE                Object position along y                                    [pixel]
#   5 X_WORLD                Barycenter position along world x axis                     [deg]
#   6 Y_WORLD                Barycenter position along world y axis                     [deg]
#   7 A_WORLD                Profile RMS along major axis (world units)                 [deg]
#   8 B_WORLD                Profile RMS along minor axis (world units)                 [deg]
#   9 THETA_WORLD            Position angle (CCW/world-x)                               [deg]
#  10 FWHM_WORLD             FWHM assuming a gaussian core                              [deg]
#  11 ELONGATION             A_IMAGE/B_IMAGE                                           
#  12 ELLIPTICITY            1 - B_IMAGE/A_IMAGE                                       
         1 -12.3240      2.7883     20.7500   8.1234324276e+01   7.3278772385e+01    0.3515535    0.3078606  12.07  0.002033044    1.323    0.244
         2 -12.2726    125.9177     10.7041   3.0935595115e+01   5.0895232735e+01    0.2949172    0.2244588 -63.45 0.0002508065    1.373    0.271
         3 -12.5492    125.2158     17.5002   3.3118581215e+01   5.0418277077e+01     0.374074     0.289375 -26.55 0.0006066213    1.544    0.352
         4 -10.6643     61.1068     16.2037   4.8073827576e+01   6.4981724139e+01    0.4033141    0.2548864 -55.35   0.00203727    2.573    0.611
         5 -11.2927      4.9681      7.2791   7.2842541291e+01   7.5158861868e+01    0.7219429    0.2912653  39.39  0.003373578    3.160    0.684
         6  -9.7772     14.4625     12.4861   6.9108142516e+01   7.3320130472e+01    0.1818012     0.155342  17.61 0.0005008638    1.276    0.216
         7 -10.5659    208.0108     13.1592   2.3190419732e+01   3.2618790159e+01      0.18502    0.1349696 -54.30 0.0003943055    1.203    0.169
         8 -11.5816     34.8320     12.3128   5.7273091960e+01   7.0328716211e+01    0.2960073    0.2194974  40.29 0.0008908435    1.280    0.219
         9 -11.3810     30.1139      7.7964   5.7278977104e+01   7.1630373187e+01    0.3898156    0.2603054  43.59   0.00171461    1.449    0.310
        10 -10.0905     97.4684     10.5057   3.5836644971e+01   5.7542150241e+01    0.1889568    0.1798733 -25.21 0.0004897515    1.252    0.202
        11  -9.9819     98.0360      6.9926   3.4455334467e+01   5.7710689978e+01    0.1848555    0.1508327  60.09 0.0003355847    1.037    0.036
        12 -10.8342     44.6695      9.7730   5.1401474271e+01   6.8861468797e+01    0.4916995    0.1520598  49.99  0.002020017    2.795    0.642
        13 -10.8229     50.9336     10.6840   4.9283524706e+01   6.7576250699e+01    0.2479429    0.1883118  48.94 0.0006938404    1.217    0.178
        14 -11.5105     55.6357      9.4907   4.6933140275e+01   6.6765491037e+01     0.285655    0.1972297  40.51 0.0001285942    1.190    0.160
        15  -9.5010    215.4903      9.5633   2.1980829155e+01   3.1536614440e+01    0.1121838   0.08248731 -70.70 7.698906e-05    1.022    0.022
        16 -10.8856    190.7859      8.1579   2.3399977046e+01   3.6625692238e+01    0.2781731    0.1352412 -49.14  0.001593664    1.788    0.441
        17 -10.5912    194.9753      8.5198   2.3165007297e+01   3.5723630722e+01    0.1618231    0.1208149 -81.12 0.0003374078    1.070    0.065
        18 -11.6457    195.0641      4.8369   2.2380205569e+01   3.6068978091e+01    0.4279056    0.1942097  83.74 0.0007700527    1.981    0.495
        19  -9.8717     22.6893      8.9857   6.2071926376e+01   7.2651440381e+01    0.2302378    0.1221156  26.97  0.001260258    1.685    0.407
        20 -11.1307     13.3771      2.9163   6.4388049922e+01   7.4708946227e+01    0.3894517    0.2035725  47.92  0.001965333    2.852    0.649
        21 -10.2698     16.2347      7.9922   6.5479370568e+01   7.3690723634e+01    0.2175915    0.1488357   0.26 0.0003495631    1.350    0.259
        22 -12.8672     19.8125      2.3876   5.9993019641e+01   7.3853859330e+01    0.2698261    0.1921699  13.70 0.0005356268    1.180    0.153
        23 -10.1142     88.7894      6.5128   3.6203906808e+01   5.9867091795e+01    0.1855194    0.1694224  -2.92 0.0005681114    1.301    0.231
        24 -10.4663    247.0879      5.9526   1.9589787008e+01   2.6181926289e+01    0.1532598    0.1049617 -65.50 0.0003536742    1.027    0.026
        25 -10.6227    151.6010      5.9098   2.6370986874e+01   4.5392203338e+01    0.2201946     0.144037  71.59 0.0003824223    1.305    0.234
        26 -10.6639    148.8158      2.3200   2.5720174423e+01   4.6338447740e+01    0.2386886    0.1666591  75.82 0.0007570265    1.195    0.163
        27  -9.7599    111.6368      5.9573   3.1654309556e+01   5.4640201426e+01    0.1593375    0.1500877  82.58 0.0007005659    1.146    0.128
        28 -10.2359    173.9710      3.8203   2.3760896639e+01   4.0613780132e+01    0.1992436     0.100782 -73.02 0.0006006658    1.924    0.480
        29 -10.6292    124.1518      3.4688   2.8987275263e+01   5.1926575576e+01    0.2579332    0.1680264 -68.91  0.001489812    1.641    0.391
        30 -10.0717    104.6733      4.2326   3.2252969883e+01   5.6398623503e+01    0.1983455    0.1376849  74.84 0.0004265466    1.254    0.202
        31 -10.9310     45.4672      3.7821   4.8007462575e+01   6.9294609198e+01    0.4048092    0.2329946  36.64  0.002322373    1.466    0.318
        32  -9.4439    224.2890      3.6925   2.0349563374e+01   3.0472492341e+01    0.1133245   0.05720017 -63.06 0.0002182905    1.575    0.365
        33 -10.0508     37.3089      3.5796   5.1423700742e+01   7.0830706197e+01    0.2195402    0.1019765  50.67 0.0009281933    1.968    0.492
        34 -10.1655    161.9824      2.7507   2.4548938150e+01   4.3341720180e+01    0.1606061   0.08466372  76.80 0.0008896675    1.594    0.373
        35  -9.7625    138.0242      2.2687   2.6887867347e+01   4.8811560489e+01    0.1732842    0.1292343  81.42 0.0003269909    1.099    0.090
        36  -9.5372     66.9833      1.7328   3.9690707213e+01   6.5075377216e+01     0.173001    0.1294657  53.03  0.000574746    1.085    0.078
        37 -10.7039     29.8470      1.4800   5.3874560901e+01   7.2342663228e+01    0.2326722    0.1290784  49.18 0.0006461164    1.759    0.431
        38  -9.8615     80.3792      1.4436   3.6116640807e+01   6.2159867477e+01     0.164146   0.09172044  52.88 0.0008999294    1.430    0.301
        39  -8.9882    208.5361    191.4908   5.9567933581e+01   4.3493094707e+00    0.1299552    0.1065023 -20.43 0.0002297586    1.003    0.003
        40 -10.4147    110.0178    250.5589   9.0052643905e+01   6.7111879420e+00    0.1972006    0.1103094  27.81 0.0004296053    1.523    0.343
        41 -11.0760     29.0638    250.1973   1.0856491438e+02   1.6332975814e+01    0.3154738    0.1538224  27.44  0.001625245    1.865    0.464
        42 -11.8861      2.1170    248.1042   1.1428958445e+02   1.9316293294e+01    0.4381034    0.3096512  69.47  0.002913848    1.216    0.178
        43 -13.0316      5.1969    241.8957   1.1336319783e+02   2.0345931297e+01    0.6950326    0.4609612  88.31  0.004354085    1.442    0.306
        44 -10.1353      6.4831    148.4677   1.0683710256e+02   4.3080145649e+01    0.1371671    0.1226648 -76.19 9.222102e-05    1.014    0.013
        45  -9.4570      6.5827    144.8046   1.0644457475e+02   4.4046720308e+01    0.1919051    0.1207221  89.82 0.0005249392    1.562    0.360
        46  -9.3115    235.6746    138.3314   4.5243719443e+01   9.6501893990e+00    0.1219164   0.08694547 -63.10 0.0007050856    1.707    0.414
        47  -9.8317     95.9988    133.9783   7.4499203378e+01   3.5786863042e+01    0.2372822    0.2317486 -50.98 0.0006379631    1.035    0.034
        48  -9.2774    213.0225    133.7856   4.7705906622e+01   1.3951279084e+01    0.1540101    0.1082347  47.18 0.0008577371    1.677    0.404
        49  -9.8525     22.2877    131.3321   9.9383623462e+01   4.6478012672e+01    0.1526239   0.09513355 -41.05 0.0002329346    1.623    0.384
        50  -9.6953     40.1820    129.5909   9.2605280597e+01   4.5196424726e+01    0.1932408     0.142137   0.89 0.0003810478    1.554    0.356
        51 -10.2422     11.1591    128.5160   1.0302843961e+02   4.8076958892e+01    0.2308083    0.1873594  78.32  0.001282797    1.288    0.224
        52  -9.3081      4.5000    129.4675   1.0553184450e+02   4.8247275012e+01    0.1392093     0.120015 -59.54 7.395731e-05    1.057    0.054
        53 -10.3302     28.0772    127.9546   9.6762826456e+01   4.6867659855e+01    0.2164082    0.1985724 -50.97 0.0004524396    1.030    0.029
        54  -9.3689     65.2553    125.5949   8.2795347021e+01   4.2986932380e+01    0.1569728    0.1185969  79.60 0.0006952241    1.719    0.418
        55 -11.6239     25.1296    122.8144   9.7038525298e+01   4.8502275430e+01     0.326367    0.2652468  69.96 0.0008545509    1.378    0.274
        56  -9.3924    208.5240    123.4571   4.6300172907e+01   1.6534975317e+01    0.1325364     0.113688 -46.95 0.0002427608    1.030    0.029
        57 -11.5169      9.4187    120.7376   1.0266169074e+02   5.0250563823e+01    0.3898599    0.3093808  50.71 0.0008798428    1.396    0.284
        58 -10.9779     15.2235    118.6028   1.0015517831e+02   5.0414916750e+01    0.2805178    0.1582846 -12.31 0.0009490619    2.188    0.543
        59 -10.5899     69.1633    116.6745   7.9384377706e+01   4.4659314077e+01    0.2622466    0.2086632 -68.67 0.0007610447    1.377    0.274
        60 -12.5544     13.8763    105.1816   9.8571148509e+01   5.4005297078e+01    0.4963464    0.3503702 -69.29  0.001266581    1.336    0.251
        61 -11.5669      2.7152    111.7822   1.0404963405e+02   5.2985107486e+01    0.2571919    0.2051374 -56.91 0.0002402809    1.093    0.085
        62  -9.4137     40.4847    112.4557   8.9207175909e+01   4.9661903449e+01    0.1489916    0.1348742 -34.81 0.0001432758    1.052    0.049
        63 -10.1767     20.2395    112.6156   9.7248443978e+01   5.1599347044e+01    0.1854126    0.1309041  -6.48 0.0003866356    1.577    0.366
        64  -9.4799     65.3056    109.6849   7.9094125559e+01   4.7002131912e+01    0.1520024    0.1196573  69.95 0.0002168179    1.624    0.384
        65  -9.0569     35.6842    109.6786   9.0533285771e+01   5.0909984548e+01    0.1569066    0.1005657 -31.86 0.0007041359    1.660    0.398
        66 -10.6315     27.2252    107.5791   9.3528046948e+01   5.2297678094e+01    0.3305495    0.2168262  59.68 0.0009701353    1.972    0.493
        67  -9.5276     96.9708    106.6832   6.7449593210e+01   4.2123094332e+01    0.2049378    0.1899325  34.20 0.0003121805    1.069    0.065
        68 -10.8284     58.7987    106.0753   8.0644178609e+01   4.8876382758e+01    0.2853188    0.2216927  17.10 0.0006825006    1.339    0.253
        69 -10.6930      5.4921    100.4924   1.0130260129e+02   5.5734408410e+01     0.250769    0.1206249 -68.98  0.001021917    1.860    0.462
        70 -10.6908    247.4779    101.9354   3.6918648358e+01   1.3671133322e+01    0.1872322   0.09296774 -41.65  0.001030018    1.584    0.369
        71 -10.5919     61.4094    100.2097   7.8153173977e+01   4.9910121595e+01    0.2117638    0.1459344 -67.01 0.0008186571    1.707    0.414
        72 -11.1899     19.6888     99.3550   9.5079990114e+01   5.5051429137e+01    0.2946816    0.2154318  61.36  0.001508423    1.711    0.416
        73 -11.4815     17.8278     95.8165   9.5191931387e+01   5.6089532835e+01    0.3617665     0.315414 -73.43  0.001075754    1.201    0.167
        74 -11.5068     20.9463     92.3403   9.3113449410e+01   5.6700758669e+01    0.3179377    0.2345852 -12.84 0.0003136107    1.399    0.285
        75  -9.7280    217.9432     98.6970   3.9832359770e+01   1.9077681615e+01    0.1675584     0.148984 -64.71  0.000414299    1.096    0.088
        76 -10.1000    147.8726     96.6923   5.1275098590e+01   3.3488065638e+01    0.2374224    0.1952315 -33.13 0.0002770658    1.288    0.224
        77 -10.5880     10.7131     93.8332   9.7928091302e+01   5.7096031901e+01    0.2418039    0.1733636 -62.97  0.000545107    1.274    0.215
        78 -11.5083      7.4272     90.6610   9.8808162781e+01   5.8090637545e+01    0.6678945    0.3461825  77.90  0.002606955    3.267    0.694
        79 -10.1883     29.3109     94.0173   8.9812836156e+01   5.5516070863e+01    0.3488514    0.1378398 -55.68  0.001029187    2.198    0.545
        80 -11.9725    125.2977     92.9796   5.5601714134e+01   3.9139352620e+01    0.2565441    0.2408339  38.73 0.0002699243    1.086    0.079
        81  -9.5148     80.2053     94.1404   6.9557654233e+01   4.8133603996e+01    0.2024777    0.1728926  58.81 0.0003248866    1.320    0.243
        82  -9.6939    142.4945     91.9411   5.1220054311e+01   3.5564161110e+01    0.2067625    0.1423577 -42.01 0.0002949406    1.450    0.310
        83 -10.6571    105.9554     91.7634   6.0563566602e+01   4.3539816172e+01    0.2779289    0.2210725 -58.04 0.0005672657    1.371    0.271
        84 -11.7563     57.2722     91.1197   7.7323348783e+01   5.2684889433e+01    0.5341697    0.3183971  36.78  0.001499717    1.686    0.407
        85 -11.7238    159.8358     89.1005   4.6894934401e+01   3.2289102543e+01    0.2552237    0.2292397 -66.16 0.0002600364    1.066    0.062
        86  -8.9791    132.3071     90.6216   5.3221415450e+01   3.8060095743e+01    0.1561961    0.1149741 -78.78 7.210617e-05    1.782    0.439
        87 -10.0481     66.7256     91.6797   7.3787770993e+01   5.1052217884e+01    0.2301206    0.2025626 -47.18 0.0002877919    1.157    0.136
        88 -10.6725     90.9769     87.2261   6.3882621230e+01   4.7556004604e+01    0.4635922    0.1990334  37.78  0.001121769    2.392    0.582
        89 -13.4533     65.5445     81.7674   7.1319800171e+01   5.3445592215e+01    0.3970779    0.3874473  -5.51 0.0006461331    1.078    0.073
        90  -9.8693     17.3618     84.9304   9.3130095029e+01   5.8804159671e+01    0.1983933    0.1550081 -48.09 0.0005004441    1.139    0.122
        91 -10.8906      8.2685     83.2556   9.7012019350e+01   5.9852384004e+01    0.4164523    0.2057035 -23.11   0.00184313    2.233    0.552
        92  -9.7727     73.4547     83.0699   6.8718666849e+01   5.1777310369e+01    0.2290021    0.2020174  60.29 0.0005496611    1.303    0.232
        93  -9.3344     27.8350     82.1319   8.7618823175e+01   5.8527370881e+01    0.1882335    0.1418878 -27.66            0    1.261    0.207
        94  -9.7884    124.8446     80.8146   5.2301612934e+01   4.1559880255e+01    0.2501138    0.1739567 -39.72 0.0006471162    1.491    0.329
        95  -9.7012    250.4614     80.5194   3.2651980413e+01   1.6366003255e+01    0.1158496   0.08786431 -53.20 0.0001472878    1.003    0.003
        96  -9.3786     37.7555     80.6645   8.2701350639e+01   5.7765342793e+01    0.1460014   0.09625442 -29.64 0.0003261067    1.552    0.356
        97 -11.0439      3.8491     79.8880   9.8435582324e+01   6.0920341446e+01    0.2140889    0.1469629 -40.80 0.0004516259    1.259    0.205
        98  -9.9217     86.4975     78.7127   6.2767965412e+01   5.0185837689e+01    0.3609569    0.1671329  52.70  0.001312024    2.589    0.614
        99 -10.3224     48.0243     78.7511   7.7609688242e+01   5.6844394910e+01     0.263269    0.1900502 -37.27 0.0004334599    1.347    0.257
       100 -10.3162     22.8179     76.9010   8.8638035196e+01   6.0234392950e+01    0.2488768    0.1592028  46.94  0.001132072    1.997    0.499
       101 -11.1901     11.7969     76.8856   9.3963871465e+01   6.1138635776e+01    0.2241664     0.186269 -36.26 0.0005024986    1.040    0.039
       102 -10.0164    176.9890     76.5132   4.0801324653e+01   3.0727317230e+01     0.198911    0.1299169  62.96 0.0006582045    1.573    0.364
       103 -10.1948     52.4935     75.4026   7.4666572838e+01   5.6916444892e+01    0.2628458    0.2253529  44.77 0.0008103932    1.303    0.233
       104  -9.8400     69.5086     75.2773   6.7757696761e+01   5.4111318866e+01    0.2559232    0.1886899  73.30 0.0007749097    2.121    0.529
       105 -10.5903      4.8298     74.7521   9.6912752703e+01   6.2084854443e+01    0.2926909    0.1590746  -9.06  0.001390912    1.983    0.496
       106  -9.7762     35.1039     73.1384   8.1760995673e+01   5.9778781870e+01    0.2666463    0.1645313  22.10  0.001303484    1.614    0.380
       107  -9.7675    105.7909     71.7960   5.4642137206e+01   4.7432315208e+01    0.1999834    0.1604021  69.35 0.0005935746    1.383    0.277
       108 -10.0994     45.5392     69.8754   7.5958261242e+01   5.9113208074e+01    0.4644738    0.2220497 -61.93  0.001748856    3.069    0.674
       109  -9.2554    142.3102     71.7225   4.5805842471e+01   3.9198103140e+01    0.1418742     0.106445 -81.23 0.0002203107    1.558    0.358
       110 -10.6275    118.2057     71.0668   5.1104990084e+01   4.4793545776e+01    0.2270114    0.1906956  47.92 0.0003722196    1.151    0.131
       111 -10.0648     39.1125     70.8008   7.9184851738e+01   5.9789577294e+01    0.1945369    0.1826566  24.81 0.0003461628    1.178    0.151
       112 -11.8040      6.4806     63.3894   9.3433277708e+01   6.4590340472e+01    0.3881615    0.2690305 -70.71   0.00202135    1.613    0.380
       113 -11.3334      9.3683     70.5745   9.3698394998e+01   6.2773497936e+01    0.2446986    0.2064866 -33.58 0.0005745041    1.008    0.008
       114 -11.6018      5.2886     70.0040   9.5639685027e+01   6.3163161068e+01    0.3393387    0.2403135 -66.76  0.001921101    1.430    0.301
       115 -13.3395     81.0965     66.8997   6.0781966260e+01   5.3530948664e+01    0.4016867    0.3365879  11.39 0.0007609341    1.273    0.214
       116 -11.9802    211.9610     67.4478   3.4070802489e+01   2.5012833072e+01    0.2215928    0.1847991 -62.88 0.0003268863    1.013    0.013
       117  -9.8571     58.6902     66.6515   6.9205622248e+01   5.7724544152e+01    0.3110825    0.1632825 -45.56   0.00136725    1.959    0.490
       118  -9.6754     18.1609     67.2020   8.8352784144e+01   6.2855791739e+01    0.1746885    0.1558594  49.42 0.0008618987    1.404    0.288
       119  -9.4207    131.6843     66.2942   4.6526741636e+01   4.2522154474e+01    0.1436193    0.1076376 -81.36 0.0003382921    1.601    0.376
       120 -10.1444    128.7504     63.2510   4.6286509308e+01   4.3687481832e+01    0.2564032    0.1900155 -61.64 0.0005479304    1.500    0.334
       121  -9.8478     68.3262     64.4163   6.4592731158e+01   5.6452709871e+01    0.2013392    0.1761767 -79.00  0.000337482    1.511    0.338
       122  -9.7667     64.0468     63.0653   6.5796392003e+01   5.7484914751e+01    0.2178547    0.1775176  75.44 0.0008983814    1.768    0.434
       123 -10.9577     15.8524     49.7607   8.4273610088e+01   6.6760653769e+01    0.4587031    0.4030702 -73.02  0.001701024    1.521    0.343
       124 -13.7596     20.6806     58.4508   8.4461360912e+01   6.4515311367e+01    0.5099368    0.3313752 -28.89    0.0008691    1.445    0.308
       125 -12.4920     11.8586     59.8745   8.9608325934e+01   6.4984139075e+01    0.4518339    0.3547365 -63.41   0.00253693    1.409    0.290
       126  -9.4833    119.8188     62.4252   4.8096038196e+01   4.5872571444e+01    0.1774642    0.1277414  45.42 0.0002855792    1.369    0.270
       127 -11.1138     57.2172     59.2591   6.7243167597e+01   5.9391329824e+01    0.4315275    0.2842825  12.16  0.001333714    1.822    0.451
       128  -9.0855    169.2787     60.2558   3.8020187763e+01   3.4917905480e+01    0.1182106    0.1024003  35.20            0    1.467    0.318
       129 -10.2017     38.0693     59.4197   7.5959571313e+01   6.2291770857e+01    0.2355636    0.1537242  30.69 0.0007972503    1.494    0.331
       130  -9.5536    145.6795     58.7124   4.1565998977e+01   4.0484305228e+01    0.1335696    0.1052331  32.00 0.0003686082    1.598    0.374
       131  -9.6907    229.4129     56.7060   3.0110080555e+01   2.3269201092e+01    0.1500734   0.09997274 -36.70 0.0008818891    1.516    0.341
       132  -9.8969    130.3435     56.8603   4.4062329785e+01   4.4310803017e+01    0.2625212    0.1748181  87.20  0.001102164    1.921    0.479
       133 -10.1134     72.1482     57.0555   6.0559929462e+01   5.7056115084e+01    0.2409375    0.1775717  67.81  0.001045004    1.885    0.469
       134 -12.9492    114.8001     53.3330   4.6476135653e+01   4.8437925841e+01    0.3134832    0.2697885  54.25 0.0004876578    1.079    0.073
       135 -11.7402     86.2694     54.1097   5.4657189281e+01   5.4671540402e+01    0.5120527    0.2348221  41.82 0.0009028796    2.093    0.522
       136  -9.9782     80.6385     52.1708   5.5810297843e+01   5.6163756232e+01     0.280802    0.1870955  59.82  0.001264069    1.702    0.412
       137 -10.3927     97.6952     51.8372   5.0436236159e+01   5.2542520748e+01    0.3242815    0.1968523 -27.23  0.001515332    1.966    0.491
       138 -10.5315     37.1946     52.9548   7.4088684852e+01   6.3671011472e+01    0.4089864    0.2320526 -12.13  0.001745885    2.540    0.606
       139  -9.9741    225.3851     52.8150   2.9715603992e+01   2.4526311508e+01    0.1534163    0.1009012 -35.00 0.0004606157    1.600    0.375
       140 -11.5734     66.7022     52.6717   6.1009411978e+01   5.8851668154e+01     0.439796    0.2061784  39.80  0.001353849    1.987    0.497
       141  -9.6275    148.8163     52.1746   3.9214376934e+01   4.0715436648e+01    0.1990131    0.1653295 -80.00 0.0003846405    1.171    0.146
       142 -10.2792    138.3287     50.2885   4.0566480525e+01   4.3411515305e+01     0.585969    0.2345085  41.95  0.002017911    3.704    0.730
       143  -9.6426    139.2839     47.3119   3.9539312644e+01   4.3602331576e+01    0.2354809    0.1931019  30.38 0.0007350511    1.515    0.340
       144 -12.6536    106.2394     50.3403   4.7632687420e+01   5.0843115072e+01    0.3697633    0.2861427  73.35 0.0003934106    1.389    0.280
       145 -10.4420    103.8174     44.2838   4.6228846279e+01   5.2261625918e+01    0.4227856     0.228835 -44.09  0.001953961    2.064    0.515
       146  -9.5079     44.9374     52.4815   7.0196378889e+01   6.2633800334e+01     0.185244    0.1238002  27.65 0.0009634537    1.403    0.287
       147 -10.4597      4.3510     51.7669   9.1476284339e+01   6.7250418523e+01     0.233228     0.115491 -42.14 0.0005797292    1.692    0.409
       148 -11.3104      3.2432     46.1375   9.0449383370e+01   6.8491787258e+01    0.3755039    0.2606128  63.93  0.001752974    2.468    0.595
       149  -9.9808      8.2334     47.6149   8.7952987172e+01   6.7837652227e+01    0.2517971    0.1441176   3.78  0.001326429    1.736    0.424
       150  -9.5957    232.7424     49.9904   2.8517186752e+01   2.3562708580e+01    0.1515138   0.08213288 -42.21 0.0008444363    1.565    0.361
       151 -10.0638    119.5473     48.7155   4.3927314025e+01   4.8011540975e+01    0.2465081    0.1414285 -26.84  0.001125075    2.139    0.533
       152 -10.5880     54.0648     48.4155   6.4543089226e+01   6.1863957585e+01     0.310293    0.2319834  64.00 0.0006105348    1.985    0.496
       153 -10.5306     74.3479     47.6824   5.6324201555e+01   5.8162366734e+01    0.2626873    0.2162175  42.14  0.001065143    1.117    0.105
       154 -10.9164    155.1589     46.8386   3.6740580160e+01   3.9996488169e+01    0.2255715    0.2011286  61.55 0.0004037961    1.182    0.154
       155 -10.3435     79.5877     45.8018   5.3829496496e+01   5.7371148616e+01    0.3168677    0.2095453  62.14 0.0009997786    1.750    0.429
       156  -9.7873     29.6965     45.7228   7.5209162712e+01   6.6016570388e+01    0.1923624    0.1519604  15.39 0.0005592825    1.156    0.135
       157 -10.7355     25.7223     44.1144   7.6731353705e+01   6.6803866480e+01    0.4019706    0.2936219   7.03  0.002356252    1.262    0.207
       158  -9.7212     67.3244     45.1086   5.7902255687e+01   5.9958876782e+01    0.2037465    0.1596536  -2.06 0.0005957027    1.418    0.295
       159  -9.5548     18.3534     45.2925   8.1292335344e+01   6.7397603447e+01    0.1922251    0.1172976 -44.26 0.0005463323    1.538    0.350
       160  -9.9810     15.8037     42.8386   8.1866339280e+01   6.8122596367e+01    0.2206083    0.1770625  81.40 0.0004722551    2.163    0.538
       161 -11.0477     37.1785     41.8452   6.9800683162e+01   6.5682842996e+01    0.4306668     0.267563  21.74  0.001416232    1.547    0.353
       162  -9.9662     92.2419     43.4471   4.9064998913e+01   5.4983654574e+01    0.1943156    0.1255981  63.77 0.0007734132    1.639    0.390
       163 -11.0892     92.0086     39.7127   4.7792957292e+01   5.5550131426e+01    0.2533081    0.2140448  -3.84 0.0003934541    1.366    0.268
       164 -12.3730    141.8191     40.8452   3.7257932584e+01   4.3869723695e+01    0.2615962    0.2213181  76.10 0.0004168234    1.061    0.057
       165 -10.7654    116.2042     41.2970   4.2318681975e+01   4.9804156082e+01    0.3391936    0.1721234  51.36 0.0007832595    1.791    0.442
       166 -10.6124     96.9391     42.2473   4.7332899250e+01   5.4101802186e+01     0.199063    0.1722483  70.80  0.000352085    1.186    0.157
       167  -9.3784    214.6534     41.2910   2.8375941813e+01   2.8052391960e+01    0.1256283   0.07154761 -67.58 0.0005566953    1.662    0.398
       168 -10.5859    183.8615     40.6221   3.1353313990e+01   3.4428097508e+01    0.3335722    0.1985908 -83.62  0.001212494    1.792    0.442
       169 -10.9593    170.6927     40.2035   3.2846802565e+01   3.7358267380e+01    0.2139318    0.1796704 -85.53  0.001362528    1.036    0.035
       170 -10.0567    109.4976     40.4734   4.3567642718e+01   5.1470588312e+01    0.3239651    0.2012646 -80.17   0.00139495    2.608    0.617
       171 -10.8841      4.7283     40.2673   8.7633685931e+01   6.9565164032e+01    0.3760095    0.1426746 -54.42  0.001724018    2.393    0.582
       172 -10.3544      6.4007     34.8631   8.4634625330e+01   7.0470861660e+01    0.2850424    0.1367398 -42.97  0.001255093    1.818    0.450
       173  -9.7592      9.3696     39.6307   8.4543480511e+01   6.9322930524e+01    0.1731015    0.1427322  43.75  0.000806786    1.640    0.390
       174 -10.8956     81.4966     38.2612   5.0381179100e+01   5.8045679652e+01    0.3224836    0.2709273   2.00  0.001143564    1.323    0.244
       175  -9.8654     18.0000     38.9848   7.9115487262e+01   6.8619846630e+01    0.2016823    0.0675042 -50.91 7.706633e-05    2.999    0.667
       176 -11.9836    121.4782     37.0215   3.9858218862e+01   4.9119021874e+01     0.330865    0.2984387  56.77 0.0009553817    1.093    0.085
       177  -9.5953      1.3976     38.4656   8.9113726091e+01   7.0148995380e+01    0.1231655   0.09911373 -24.26 7.368808e-05    1.023    0.022
       178  -9.5814     43.7693     39.6224   6.5661420384e+01   6.5040587138e+01    0.1760923    0.1139357  41.68 0.0003705595    1.557    0.358
       179  -8.9809    177.2900     36.2923   3.1092533049e+01   3.6393795432e+01    0.1125863   0.09465009  42.95 0.0004777044    1.547    0.354
       180 -10.0336     69.0112     37.0000   5.4085822983e+01   6.0821551720e+01    0.2253251   0.06911553  48.76 0.0007994873    2.922    0.658
       181  -9.2234    132.8382     35.3318   3.7208873209e+01   4.6661225075e+01    0.1757234    0.1034312  54.30            0    1.582    0.368
       182 -12.3125     45.6030     32.7217   6.1849143397e+01   6.5806017312e+01    0.3325794    0.2492367  38.52 0.0006257066    1.270    0.213
       183 -11.5082     28.3196     33.1571   7.0798115942e+01   6.8384799458e+01    0.2228691    0.1711382   1.10 0.0004259043    1.161    0.139
       184 -10.7877    144.6696     30.5951   3.3928194383e+01   4.4459606094e+01     0.373317    0.2007527 -32.21  0.001061915    2.060    0.515
       185 -10.5713      1.4693     31.0155   8.6399346652e+01   7.1564939180e+01    0.2424435    0.1198328 -62.01 0.0008160811    2.528    0.604
       186 -11.8256     91.1086     26.8017   4.3309320764e+01   5.7356785044e+01    0.2742047     0.207803  50.46 0.0002860765    1.143    0.125
       187  -9.2710     55.2618     33.0074   5.7741698381e+01   6.4047375661e+01    0.1477271    0.1119322 -27.17 0.0002868499    1.417    0.294
       188 -12.2192     11.1968     29.9022   7.9582596426e+01   7.0938656863e+01    0.2653729    0.1998985  22.32   0.00169722    1.340    0.254
       189 -11.2556    135.6826     29.1124   3.4902984764e+01   4.6727858517e+01    0.2229218    0.1767328  74.41 0.0002765571    1.107    0.096
       190  -9.3196    188.6447     29.6957   2.8342737002e+01   3.4744790096e+01    0.1136408   0.08903795  45.50 0.0007040272    1.714    0.417
       191 -10.2459    209.1039     28.0024   2.6132046391e+01   3.0754775626e+01    0.1705684    0.1343102 -71.29 0.0003493999    1.011    0.011
       192 -10.2545     68.0568     27.0558   5.0349495851e+01   6.2320547465e+01    0.2311443     0.207358  77.44  0.001450473    1.369    0.270
       193 -10.2738    221.0262     26.4305   2.4888847399e+01   2.8630734527e+01    0.2045356    0.1152567 -54.33 0.0002933561    1.426    0.299
       194 -10.7162    140.3440     26.9474   3.3552465863e+01   4.5882182038e+01    0.2231345    0.1631335  82.01 0.0004478559    1.245    0.197
       195  -9.7862     80.8012     26.7633   4.6153187673e+01   5.9649696866e+01    0.1690919    0.1490655  82.74 0.0005635588    1.315    0.239
       196  -9.9118     45.3905     26.2952   5.9062450697e+01   6.6753119456e+01    0.1991739    0.1573159 -39.00 0.0008541794    1.519    0.342
       197  -9.8163    131.9954     25.7796   3.4520668318e+01   4.7964991942e+01    0.1761875    0.1539588  77.40 0.0005371238    1.020    0.020
       198  -9.4900    102.7414     26.3549   4.0324501954e+01   5.4748395197e+01    0.1780561    0.1715392  -1.78 0.0005727938    1.195    0.163
       199 -10.4278    102.9449     22.3315   3.8876201893e+01   5.5136390136e+01    0.2633741     0.246785  65.53  0.001216868    1.088    0.081
       200 -10.1650     33.6438     24.9082   6.4164397071e+01   6.8880559883e+01    0.2469498    0.1950956 -23.64  0.001232122    1.300    0.230
       201  -9.3426     18.6136     26.2267   7.3316914534e+01   7.0747350787e+01    0.1776325     0.111712 -36.97  0.001026411    1.568    0.362
       202  -7.4177     22.3280     21.3293   6.8747090274e+01   7.1032010942e+01    0.2343001    0.1336869   0.13  0.001162147    2.208    0.547
       203 -11.9481     17.7220     20.5197   7.1152691622e+01   7.1746401296e+01    0.3537831     0.228542  14.74   0.00067077    1.377    0.274
       204  -9.0584     12.3733     19.7007   7.4180400994e+01   7.2502377250e+01    0.1748294    0.1486458  15.23 0.0004946708    1.258    0.205
       205 -10.0479    186.8716     24.8782   2.7429311180e+01   3.5675759433e+01     0.210885    0.1544773  10.48  0.001183551    2.561    0.610
       206 -10.8055    190.3261    249.1492   7.2604722195e+01  -2.9595431317e+00    0.2876596    0.1318598  39.23  0.001328367    2.704    0.630
       207 -11.7428     18.6157    247.9864   1.1073789225e+02   1.7826592523e+01    0.3633574    0.2396809  -2.34  0.001718805    2.259    0.557
       208 -10.3448    128.1324     23.1084   3.4352731197e+01   4.9159785016e+01     0.212465    0.1803397  18.12 0.0006940019    1.511    0.338
       209  -9.5265    230.1536    247.1944   6.5000995111e+01  -6.8459959496e+00     0.137752    0.1132947  -7.44 0.0004791946    1.278    0.217
       210  -9.5816    226.9219     22.7836   2.3770584316e+01   2.7945045377e+01    0.1347463   0.07827499  78.73 0.0005887643    1.663    0.399
       211  -9.8132    211.0049     22.0176   2.4761845032e+01   3.1065250006e+01    0.1386447    0.1066934 -66.89 0.0003426377    1.033    0.032
       212  -9.9052     83.5809     21.7387   4.3393131706e+01   5.9600490287e+01    0.1618146    0.1222654 -41.54 0.0007269609    1.556    0.357
       213  -9.7392     75.2592     21.6330   4.5758283258e+01   6.1431482212e+01    0.1914256    0.1449523  49.93 0.0002415018    1.128    0.114
       214 -11.1378     77.2393     18.6070   4.3933033694e+01   6.1325440854e+01    0.3692222    0.2598206  72.38  0.001910122    1.592    0.372
       215 -10.2437    112.2372     20.8054   3.6455428713e+01   5.3130128702e+01    0.2390266    0.1709172  54.23 0.0004032956    1.251    0.201
       216 -10.6028    132.8458     18.7805   3.2319556861e+01   4.8502591942e+01    0.2998006    0.2262773  16.93 0.0009673475    1.878    0.468
       217 -10.4684     44.3604     19.7325   5.6450412214e+01   6.7785615996e+01    0.2304619    0.1469361  52.22  0.001261236    1.724    0.420
       218 -10.2533    237.9714     19.5214   2.2461141928e+01   2.6311088872e+01    0.1503995   0.09089608  82.94  0.001029963    1.587    0.370
       219 -10.3963     70.9286     18.2151   4.5676265992e+01   6.2725238003e+01    0.2006476    0.1815002  -3.89 0.0005932295    1.229    0.186
       220  -9.6037    170.4472    246.7582   7.6251198099e+01  -2.5490428553e-01    0.1697886    0.1028186 -28.29 0.0009387914    1.636    0.389
       221 -10.4563    139.9525     17.9826   3.1067790456e+01   4.6924966996e+01    0.1829307    0.1540619  78.46  0.001184407    1.036    0.034
       222  -9.8915     50.0858     17.9069   5.3093910335e+01   6.6954692143e+01    0.1707208     0.156225  41.26  0.001146973    1.224    0.183
       223  -9.9030     37.9161     18.4595   5.8867290813e+01   6.9061266400e+01    0.1886772    0.1070616  41.39 0.0006961689    1.573    0.364
       224  -9.4342    229.6435     17.2751   2.2559486729e+01   2.8058236756e+01     0.116669   0.05997484 -66.56 0.0002479065    1.650    0.394
       225  -9.5076    215.1971     15.8232   2.3224332264e+01   3.0931355332e+01    0.1326527    0.1175028 -83.78 0.0002711958    1.275    0.216
       226  -9.6236    170.9887     16.0669   2.6926810577e+01   4.0068958805e+01     0.144087     0.118212 -80.05 0.0003955046    1.023    0.023
       227 -10.4385    159.9406     15.8711   2.8036008687e+01   4.2553095437e+01    0.1862499    0.1617683 -70.29 0.0003658927    1.124    0.111
       228  -9.2947     91.9828     16.4953   3.9249694027e+01   5.8245775174e+01    0.1692945    0.1045404  89.86 0.0004277397    2.260    0.558
       229  -9.8278    131.4837    247.4683   8.4787212032e+01   4.5213663970e+00    0.1310813    0.1097314  13.95 0.0008095963    1.008    0.007
       230 -10.7567     14.1545     15.8809   7.1095724383e+01   7.2872697871e+01    0.2112094    0.1712757   6.90 0.0004210283    1.088    0.081
       231  -9.9109    116.0941    246.8134   8.8201894905e+01   6.6365901826e+00    0.1897417    0.1652224  41.83  0.001192806    1.216    0.177
       232 -10.8548    236.2833     14.1264   2.1586971894e+01   2.7201970622e+01    0.1707819    0.1261588  80.12 0.0009941772    1.418    0.295
       233 -10.3006     52.6572    244.5172   1.0279545495e+02   1.4975012737e+01    0.2083507    0.1946116  89.68 0.0007144128    1.179    0.152
       234 -10.0458      5.4451     14.3115   7.6252309951e+01   7.4070575347e+01    0.1271445    0.1054387 -28.57 0.0002853183    1.316    0.240
       235  -9.8998    147.2323    243.9926   8.0808413782e+01   3.1180934704e+00    0.1580135    0.1053941 -44.97 0.0007668008    1.640    0.390
       236  -9.1668    194.4626    242.5506   7.0799311041e+01  -2.4069647130e+00    0.1223711   0.09632181  -3.75 0.0008072083    1.021    0.020
       237  -9.0821    203.6563     12.3335   2.3330878150e+01   3.3571845810e+01    0.1262714   0.06382875 -65.25 0.0007050366    1.760    0.432
       238  -8.6823    109.4721     12.4745   3.4196665002e+01   5.4581482786e+01    0.1276444    0.1075521  78.57  0.000807994    1.087    0.080
       239  -9.6534    166.2189     11.3577   2.6257659073e+01   4.1597497602e+01    0.1751818   0.09597264  86.08 0.0009501611    1.660    0.398
       240  -8.9149     71.7020    242.6646   9.8149236903e+01   1.3115014492e+01    0.1270315   0.09722085 -19.87 0.0002541833    1.652    0.395
       241 -10.3719      4.4844    153.6528   1.0795465706e+02   4.1838656626e+01    0.2809928    0.1209122  48.43  0.001157228    2.474    0.596
       242  -9.0513    202.3215    241.3044   6.9103218178e+01  -3.0997839204e+00    0.1260605   0.07564668  -9.02 0.0002856533    1.635    0.388
       243 -10.8229     21.2761    237.0129   1.0952128150e+02   1.9908009674e+01    0.1772764     0.148145  64.82 0.0007372139    1.057    0.054
       244  -9.5793     59.1569    236.1281   1.0052637496e+02   1.6013937633e+01    0.1796343    0.1329284  54.43 0.0003422804    1.276    0.216
       245  -9.5570     86.6521     10.5107   3.8232605013e+01   6.0010296045e+01    0.1735305    0.1101805  73.57 0.0005184753    1.588    0.370
       246 -10.1898    174.2229    235.0153   7.3693612077e+01   1.2478239170e+00    0.1592449   0.09738681 -40.36 0.0004932535    1.639    0.390
       247 -10.2069     32.3050    233.2634   1.0671133732e+02   1.9626277416e+01    0.1881386    0.1859608  40.71 0.0005246184    1.194    0.162
       248 -11.6982      3.1271    233.2078   1.1342223386e+02   2.2398300079e+01    0.3845029    0.2050833  24.26  0.002089483    1.891    0.471
       249 -10.4307    244.9276    230.1982   5.9902158204e+01  -5.9014109643e+00    0.3183492    0.1366851  23.43  0.001545454    2.488    0.598
       250 -10.5708    140.4382    227.9078   7.9986495657e+01   7.0052091699e+00    0.2984094    0.2236359  24.56  0.001220703    1.201    0.167
       251  -9.7030    209.6958    229.6797   6.5886487127e+01  -2.1292767759e+00     0.126957   0.07645714 -11.97 0.0003400124    1.632    0.387
       252  -9.6029    204.4039    235.4884   6.7799692713e+01  -2.4358296179e+00    0.1223569   0.09397338 -10.24 0.0008025141    1.024    0.023
       253 -11.5044      1.6648    224.9402   1.1336524217e+02   2.4357280812e+01    0.3903019    0.1871024  73.24  0.001346109    2.020    0.505
       254 -11.0342      2.6644    220.0265   1.1289334095e+02   2.5390519472e+01    0.3630833    0.1407752  65.40  0.001557337    2.640    0.621
       255  -9.0481    152.4722    227.4781   7.7200643848e+01   5.4412534831e+00    0.1334122     0.116287   7.30 0.0008091742    1.047    0.045
       256  -9.6252    131.0184    221.2051   8.1170923199e+01   9.6519008805e+00    0.1979259    0.1013322  29.20 0.0008799427    1.792    0.442
       257 -10.1564      7.8444    220.4050   1.1169360531e+02   2.4866068432e+01    0.2280179   0.08397856 -83.16 0.0007806107    2.723    0.633
       258  -9.6739     27.9826    219.7572   1.0677833590e+02   2.3138010230e+01    0.1695092    0.1028477  27.80 0.0008791825    1.587    0.370
       259  -9.2074     85.7436    215.0139   9.1550574846e+01   1.7363346488e+01    0.1608511    0.1229012 -63.68 0.0003050147    1.423    0.297
       260  -9.3288    205.5258    211.4568   6.3633398125e+01   1.3198565201e+00    0.1284945    0.1013559 -13.49 4.852509e-05    1.040    0.038
       261 -10.2766      4.3014    211.0102   1.1202748396e+02   2.7353722150e+01    0.1815396    0.1461764  74.20 0.0006993134    1.080    0.074
       262  -9.4222    229.6973    209.3303   5.8988750372e+01  -1.2126976647e+00    0.1037378   0.09205726 -50.86  0.000703464    1.651    0.394
       263  -9.7433     20.3141    209.4586   1.0794665177e+02   2.6320234636e+01    0.1765952    0.1068395  41.65 0.0009203287    1.486    0.327
       264 -10.1138     39.4308    207.0476   1.0280334836e+02   2.4975248769e+01    0.2040447    0.1743975  45.19  0.000500558    1.089    0.081
       265 -10.9591      2.4813    206.3007   1.1221353827e+02   2.8619360594e+01    0.3246058    0.1160172 -84.64  0.001323595    2.752    0.637
       266  -8.8390    193.3391    201.3334   6.4200333085e+01   4.6640959391e+00    0.1405872   0.08962552 -11.62 0.0007051665    1.747    0.428
       267 -10.5386      4.5819    201.2256   1.1139578990e+02   2.9675864416e+01     0.181935     0.106276 -67.49 0.0007766863    1.654    0.395
       268  -9.7266     18.4982    194.4948   1.0729765194e+02   3.0160802566e+01      0.27502    0.1232659 -75.83   0.00103635    2.120    0.528
