#   1 NUMBER                 Running object number                                     
#   2 MAG_AUTO               Kron-like elliptical aperture magnitude                    [mag]
#   3 X_IMAGE                Object position along x                                    [pixel]
#   4 Y_IMAGE                Object position along y                                    [pixel]
#   5 X_WORLD                Barycenter position along world x axis                     [deg]
#   6 Y_WORLD                Barycenter position along world y axis                     [deg]
#   7 A_WORLD                Profile RMS along major axis (world units)                 [deg]
#   8 B_WORLD                Profile RMS along minor axis (world units)                 [deg]
#   9 THETA_WORLD            Position angle (CCW/world-x)                               [deg]
#  10 FWHM_WORLD             FWHM assuming a gaussian core                              [deg]
#  11 ELONGATION             A_IMAGE/B_IMAGE                                           
#  12 ELLIPTICITY            1 - B_IMAGE/A_IMAGE                                       
         1 -10.7669    110.7075     39.7660   1.7175022496e+01   5.2022779142e+01     1.160257    0.7730529 -19.58  0.005225629    1.822    0.451
         2 -12.2808    104.9054     12.7308   7.2565326711e+00   5.6962591339e+01     0.759523    0.6011074  73.24  0.002202485    1.160    0.138
         3 -12.3162    105.8093     19.9841   1.0206257737e+01   5.5935818761e+01    0.3807734    0.3314733 -54.24 0.0003982698    1.218    0.179
         4 -12.5259    113.0393     24.9335   1.0691520650e+01   5.3432553530e+01     1.122043    0.3758208  57.38  0.003176225    2.539    0.606
         5 -12.3185     58.2890     29.3707   3.0567149923e+01   6.6100727391e+01    0.8401685    0.4230869 -25.80  0.003332727    2.589    0.614
         6 -11.6559     20.3634     21.7108   4.9583378979e+01   7.3745515025e+01    0.5775787     0.341291 -39.25  0.001973672    1.589    0.371
         7 -11.9764    164.3655     27.4399   3.2388077181e+00   3.9598862941e+01    0.4526898    0.3021553 -55.24 0.0006244523    1.433    0.302
         8 -10.9862    122.1022      6.0019   1.4811290188e+00   5.2994987917e+01      0.35258      0.30143 -20.42  0.002026116    1.335    0.251
         9 -11.3062    121.0468     11.5017   3.8035917388e+00   5.2766664589e+01    0.4893758    0.3725573  87.19  0.001931675    1.244    0.196
        10 -11.4927    133.9686     22.1390   5.7340831812e+00   4.8175299540e+01    0.4925287    0.3948683  82.04   0.00221034    1.159    0.137
        11 -11.1002    127.8328     11.7930   2.8630543709e+00   5.0915759665e+01    0.4285896    0.2648256 -68.57  0.001430944    1.769    0.435
        12 -11.6205    127.4641     16.3700   4.6466601395e+00   5.0549218462e+01    0.4859542    0.2818573  58.81 0.0006899403    1.584    0.369
        13 -12.3423     48.7442     12.8820   2.5824946562e+01   7.0568318405e+01    0.7159345    0.3075439  48.35   0.00304545    2.149    0.535
        14 -10.8178      5.8926      9.5564   5.5402312761e+01   7.7603150439e+01    0.4274977    0.3526905 -51.05  0.001715034    1.280    0.219
        15 -10.7993     12.6756      8.3540   4.8125931684e+01   7.7167051233e+01    0.4453927    0.2919746 -41.09  0.001903819    1.431    0.301
        16 -12.1505     16.1250     13.8375   4.8543378591e+01   7.5759923269e+01    0.9677169    0.3944736 -32.55  0.003860886    3.022    0.669
        17 -12.1446     22.5707     11.1122   4.1480257206e+01   7.5426635206e+01    0.6404681    0.4080276  -9.92  0.002186778    1.881    0.468
        18 -10.8411     68.5879     19.9703   2.1169737555e+01   6.5269361452e+01    0.3972778    0.3582892 -35.24  0.001860107    1.209    0.173
        19 -10.7838    247.4630     18.5976   3.5424165351e+02   2.2119826375e+01    0.3449054    0.1919942  -1.14  0.001510524    4.214    0.763
        20 -12.0324    164.7504     18.0082   3.0970816801e-01   4.0562845830e+01      0.57064    0.2931573  45.69  0.002272613    2.433    0.589
        21 -11.5393     36.2600     18.4299   3.6449235813e+01   7.2062458087e+01    0.7047946    0.4629112 -41.13  0.002968233    1.581    0.367
        22 -11.3066     86.1078     14.0356   1.2345201691e+01   6.1723674379e+01      0.54085     0.334273   2.43   0.00180855    2.229    0.551
        23 -11.1203     89.5444      8.7723   8.8549520209e+00   6.1387802774e+01    0.5634535    0.3477408 -68.11  0.002525465    2.158    0.537
        24 -11.6404    135.8784     14.3799   2.6518501460e+00   4.8502435902e+01    0.6351034     0.355113  57.38  0.002175526    1.691    0.409
        25 -11.2771    242.2633     15.1201   3.5377288682e+02   2.3462118233e+01    0.2229353     0.212619 -42.18 0.0002654042    1.319    0.242
        26 -11.9432    212.1785      9.1953   3.5409069724e+02   3.0217133561e+01    0.5436361    0.3363639  -9.73  0.002189093    2.253    0.556
        27 -10.8491    218.6063      3.3783   3.5235779794e+02   2.9406282079e+01    0.2787217    0.2146198  83.43 0.0007539327    1.341    0.254
        28 -10.6307    223.5564      2.5669   3.5192811398e+02   2.8445738576e+01    0.2240503    0.1764466 -58.81 0.0005782396    1.020    0.019
        29 -10.9982    190.7165     12.5020   3.5637777472e+02   3.4754409354e+01    0.4178124    0.1488057 -37.47  0.001178832    2.286    0.563
        30 -11.9787    192.9054      7.0360   3.5477004905e+02   3.4784703425e+01    0.6246463    0.4109512   9.88  0.003178669    2.466    0.595
        31 -10.7890    219.1069     12.9316   3.5456788343e+02   2.8350119085e+01    0.2819204    0.2272094   9.25  0.001780244    1.800    0.444
        32 -11.7543    168.0839      9.4317   3.5738779160e+02   4.0593628832e+01    0.6746785    0.2498915  70.82  0.002760075    2.428    0.588
        33  -9.9162    164.4388      4.5351   3.5623424715e+02   4.1978464870e+01    0.3826117    0.2322806  36.48  0.001831057    2.278    0.561
        34 -11.8910     64.1639      9.1538   1.6757189843e+01   6.7635140891e+01    0.4441385    0.3379705 -44.38 0.0007148944    1.527    0.345
        35 -10.3205    148.7828      5.4172   3.5799122740e+02   4.5942251461e+01    0.3230137    0.1185478  74.58  0.001253325    2.437    0.590
        36 -10.8779    153.2846      7.4720   3.5820088891e+02   4.4577134687e+01     0.417663     0.341749 -12.31   0.00239807    1.472    0.321
        37 -10.7769    157.6148      5.4117   3.5711802723e+02   4.3645181221e+01    0.5550692    0.2459153 -17.54  0.002309699    2.754    0.637
        38 -12.1647    227.7816     14.7728   3.5448489684e+02   2.6357196107e+01    0.4542657    0.2340173 -71.64   0.00128329    1.917    0.478
        39  -9.5394    145.1481      9.5996   3.5979502284e+02   4.6510645397e+01    0.1983634    0.1112047  61.72 0.0004921479    1.666    0.400
        40 -10.2753      1.1318      7.4622   5.9077114193e+01   7.8379613112e+01    0.3203914    0.0862471 -58.01  0.001266349    3.214    0.689
        41 -10.3437      1.8504      2.1939   5.5055790033e+01   7.9351667071e+01     0.265975    0.1453882 -44.72  0.001082103    1.604    0.377
        42 -11.5767    184.7604      6.5428   3.5520930811e+02   3.6763380373e+01    0.4087364     0.222019 -58.90  0.001428296    1.663    0.399
        43  -9.7189     77.8738      7.1611   1.1117352093e+01   6.4518197011e+01    0.2779781    0.2123999 -77.85 0.0008294014    1.586    0.370
        44 -10.0343     70.4818      5.4675   1.2419336374e+01   6.6511472891e+01    0.2593534    0.1757443  41.80  0.001347693    1.373    0.271
        45 -10.3512     74.8123      3.0889   9.7649504574e+00   6.5666553564e+01     0.465705    0.2114034  65.77  0.001979528    2.027    0.507
        46 -11.7077    243.7045      3.7654   3.5129359388e+02   2.4323584313e+01    0.3199931    0.2278573 -75.75  0.002243614    1.292    0.226
        47 -10.7211    142.2119      2.5770   3.5772041947e+02   4.7921972425e+01    0.3223704    0.2932471 -71.94  0.001107419    1.080    0.074
        48 -11.1812    137.9304      3.9897   3.5868549243e+02   4.8935463953e+01    0.2757644    0.2442688 -77.17 0.0003414484    1.051    0.049
        49 -11.9509    132.9156      2.7765   3.5883606740e+02   5.0375561300e+01    0.6030433    0.3005757  80.53  0.002669449    1.854    0.461
        50 -11.4422    114.1849      2.6123   1.2955602435e+00   5.5410451911e+01    0.6399159    0.3297693  89.40  0.002457645    2.083    0.520
        51 -10.5963     41.7588      3.6325   2.3276961328e+01   7.3179766889e+01    0.3591399     0.216508  24.93   0.00178357    1.825    0.452
        52 -10.4599    176.3953      5.6455   3.5558606231e+02   3.8883809629e+01      0.25702    0.1466421  77.57 0.0007525674    1.630    0.387
        53 -11.5619    206.0177      2.4127   3.5279002304e+02   3.2233952028e+01    0.5208887     0.253052 -88.72  0.001814398    2.008    0.502
        54  -9.8032     28.9307      1.4745   2.9589965353e+01   7.5888598792e+01    0.1837613      0.17376  29.48 0.0004993683    1.247    0.198
        55 -10.4338    105.5130      1.9635   2.4146313531e+00   5.7784211844e+01    0.3218797    0.2223618 -78.31  0.001181969    1.534    0.348
        56  -9.3103     33.7106      1.8051   2.6652832027e+01   7.4975525359e+01    0.1971104    0.1443835   1.89 0.0006622652    1.418    0.295
        57 -11.3730    232.8782      7.0613   3.5248910139e+02   2.6110375912e+01    0.2787373    0.1368655 -77.21   0.00151196    2.026    0.506
        58  -9.4766    152.0457      1.4019   3.5635452715e+02   4.5442847677e+01    0.2041552    0.1181637  80.03 0.0004622951    1.550    0.355
        59 -10.1517    123.8772      1.3214   3.5941515858e+02   5.2915124493e+01    0.3533764    0.1184649  76.02  0.001264871    2.735    0.634
        60  -9.8072     82.3748      1.2475   6.7747018121e+00   6.3912633222e+01    0.2309058    0.1075167  68.16 0.0004667331    1.938    0.484
        61 -10.6903     12.7175    111.4100   7.6001943783e+01   5.2150696367e+01    0.4379132     0.220869 -89.16 0.0006196303    1.961    0.490
        62 -10.5832     16.1807    108.9789   7.4377725421e+01   5.2550837210e+01    0.3995205    0.2524933  50.27  0.001345388    1.596    0.373
        63 -11.1195      7.9898    114.8304   7.8136691092e+01   5.1554565112e+01    0.3081022    0.2804886 -58.25 0.0003519121    1.154    0.134
        64 -12.2017      2.7663    111.2925   7.9837644107e+01   5.2788609461e+01    0.4650674    0.3438866  88.72  0.001385461    1.210    0.174
        65 -11.5249      4.3658    105.3481   7.8726901570e+01   5.4268569011e+01     0.475141     0.352418  19.24  0.002221789    1.486    0.327
        66  -8.6324    113.3083    115.7197   4.0870378894e+01   3.6299132021e+01    0.1554939    0.1229047  76.47 0.0002407973    1.560    0.359
        67  -9.7272     79.2926    114.5480   5.1393964877e+01   4.3119887343e+01    0.2763324    0.2436527 -44.00 0.0007803795    1.192    0.161
        68 -10.2271     58.5342    115.0274   5.8921325281e+01   4.6306998430e+01    0.2611355    0.1942422  50.81 0.0003128264    1.354    0.261
        69 -10.4866     35.2701    102.8366   6.5738381354e+01   5.2473118731e+01    0.5857824    0.2919371   3.72  0.001891173    3.116    0.679
        70 -11.0827     24.6051    102.7571   7.0143898873e+01   5.3533524244e+01    0.4420134    0.2760154  63.36  0.001460695    1.756    0.431
        71 -11.6362     25.9615    106.8564   7.0181002948e+01   5.2316341722e+01    0.7834514    0.3534332 -32.09  0.002768271    3.388    0.705
        72 -11.5482     22.3585    114.0600   7.2556495381e+01   5.0705525791e+01    0.5289447    0.3353594  -6.48  0.001800896    2.060    0.515
        73 -11.4665     28.5154    112.8140   7.0004538537e+01   5.0486375010e+01    0.4326855    0.2857911  41.42  0.001584506    1.502    0.334
        74  -9.1143     67.6606    114.3635   5.5454966441e+01   4.5101190331e+01    0.1679746     0.113246  68.30 0.0007032565    1.834    0.455
        75  -9.8421     48.9924    111.8967   6.1913869528e+01   4.8436556781e+01    0.2288805    0.2118036  63.96 0.0006296357    1.059    0.056
        76  -9.7704    174.4806    108.5843   2.4390299753e+01   2.4614332694e+01      0.27151    0.1782905  56.79  0.001277805    1.694    0.410
        77 -11.8849     79.7484    107.8867   4.9670821131e+01   4.4711006234e+01    0.5439646     0.342677  30.13  0.001079953    1.679    0.404
        78  -9.0456    101.9912    109.0000   4.2569720390e+01   4.0174530163e+01    0.2603658    0.0883031  40.68 0.0005206022    2.883    0.653
        79 -11.2140     50.5385    100.8517   5.9103224458e+01   5.1146116803e+01    0.6362792    0.3942136 -30.81  0.002178564    2.107    0.525
        80  -9.3993     85.8898    103.4551   4.6420175595e+01   4.4674335488e+01     0.246854     0.214151 -22.81 0.0006473124    1.314    0.239
        81 -10.0194     92.2686    101.8472   4.3831186813e+01   4.3823922744e+01    0.3937708    0.2229165 -54.95  0.001573753    1.843    0.457
        82 -12.0782     67.3133     94.9692   5.1027973363e+01   5.0115268722e+01    0.5203125    0.4590741 -14.56   0.00105059    1.281    0.219
        83 -10.7019     17.1867    100.2158   7.2896697379e+01   5.4813676877e+01    0.2944953    0.2155836 -71.92 0.0006078708    1.246    0.197
        84 -11.3968      9.2274     97.0645   7.5894278885e+01   5.6185714615e+01     0.472878    0.3707239  61.50 0.0003992655    1.287    0.223
        85 -10.5412     30.6143     97.0283   6.6682754011e+01   5.4501785431e+01    0.4922287    0.4037971 -62.66  0.002682681    1.150    0.130
        86  -9.1638    210.3847     97.8303   1.5793810205e+01   1.9080858377e+01    0.1780561     0.116229 -24.98 0.0002029796    1.521    0.342
        87 -10.7107     79.5008     92.5577   4.5760178645e+01   4.8537128586e+01    0.8158562    0.7298236 -56.41  0.004196202    1.128    0.113
        88 -10.0065     81.6778     83.7151   4.2365238458e+01   5.0222120870e+01    0.5496776    0.2626335  31.51   0.00192724    2.514    0.602
        89 -12.0976     75.2586     78.6848   4.3234345128e+01   5.2649685234e+01    0.6249986    0.4696164  58.08 0.0005726635    1.479    0.324
        90 -10.1830     43.0127     94.4743   6.0865554593e+01   5.3797614130e+01    0.3616869    0.3082871  31.37  0.001272907    1.208    0.172
        91 -10.4993     43.7600     90.5688   5.9683928397e+01   5.4727157906e+01    0.2457567     0.228029 -76.63 0.0003361816    1.057    0.054
        92 -10.6285     36.0586     90.3913   6.3035632849e+01   5.5688413008e+01    0.6291893    0.4666485  44.31  0.002664607    1.398    0.285
        93 -11.1323     27.6417     85.4234   6.5862778268e+01   5.7863564793e+01    0.5501686    0.4924468 -25.31  0.001546622    1.181    0.153
        94 -10.1290     37.7450     85.3147   6.1176746832e+01   5.6826555167e+01    0.4179818    0.2025245  12.85  0.001570399    2.740    0.635
        95 -10.5943     49.4156     90.3181   5.7181755190e+01   5.4045403848e+01    0.5391833    0.3539771 -83.79  0.002365182    1.872    0.466
        96  -9.5663     52.1380     86.8960   5.5161648457e+01   5.4540505494e+01    0.2223849    0.1969471  80.52 0.0003541745    1.212    0.175
        97 -11.5206     45.1359     83.8967   5.7486191180e+01   5.6277023089e+01    0.9018444    0.5173748  60.51  0.003289744    2.405    0.584
        98 -11.3528     22.6547     93.7885   6.9606561038e+01   5.6094269954e+01    0.6017587    0.3503177  46.85  0.001501864    1.815    0.449
        99 -10.1342     18.7798     86.2821   7.0146314964e+01   5.8396707227e+01    0.4700463    0.3486844 -34.99  0.002505163    1.425    0.298
       100 -10.1604     15.8149     94.5705   7.2731127555e+01   5.6417291267e+01    0.3154968    0.2082905  74.90  0.001566508    1.606    0.377
       101  -9.5411    125.9292     94.0291   3.1509646933e+01   3.8293764573e+01    0.2264124     0.223999 -53.87 0.0004357508    1.027    0.026
       102 -10.1240     98.0754     90.7384   3.8784073919e+01   4.5220778088e+01    0.2553325     0.232673  58.04 0.0004948172    1.096    0.088
       103 -13.0975      6.9496     61.6780   7.1928469023e+01   6.5541571209e+01    0.8098751    0.4870631 -43.43  0.001618334    1.550    0.355
       104 -11.0195      1.9502     71.8138   7.6228209563e+01   6.3177271547e+01    0.6980153    0.2054143 -75.25  0.002550242    2.928    0.658
       105 -11.6930      6.8454     88.4161   7.5944851516e+01   5.8608515786e+01    0.7428561    0.4216569  15.74  0.003646185    1.936    0.483
       106 -10.8324      2.9398     81.9650   7.6998776858e+01   6.0495799390e+01    0.3978695     0.261417 -84.48  0.001406455    1.407    0.289
       107  -9.8903     66.8829     88.3005   4.9407670807e+01   5.1854484217e+01    0.2933608    0.2271116 -15.09 0.0006964798    1.632    0.387
       108  -8.8461    104.3069     86.6920   3.5577022031e+01   4.4766363965e+01    0.1595266    0.1256406  87.55 0.0007019494    1.611    0.379
       109 -10.0032     90.3138     85.4322   3.9800354674e+01   4.8068113916e+01    0.3574956    0.2717927  81.27  0.001580211    1.735    0.424
       110 -10.1417    143.1894     84.2103   2.4390972530e+01   3.6184157882e+01    0.2431202    0.2112775 -41.10 0.0005289213    1.150    0.130
       111 -10.1954    113.0526     83.2455   3.1876079793e+01   4.3517832472e+01    0.4845134    0.3166912  76.01  0.001859298    2.317    0.568
       112 -10.7100     60.5894     83.1777   5.0549891529e+01   5.4176126670e+01    0.3194431    0.2549507  51.36 0.0004615923    1.317    0.241
       113  -9.1073    151.3981     83.4858   2.2376874148e+01   3.4360188718e+01    0.1490976    0.1443541 -48.77 0.0001353445    1.029    0.028
       114 -10.1588     67.3673     81.3723   4.7212178668e+01   5.3466549116e+01    0.3269515    0.2587647 -22.18  0.001319714    1.492    0.330
       115  -9.1326    103.4382     79.5184   3.3603444715e+01   4.6510149527e+01     0.156489    0.1519307  77.70 0.0002004961    1.030    0.029
       116 -10.4542     89.0023     77.3788   3.7711458664e+01   5.0157738685e+01    0.5191415     0.312837  51.92  0.002145509    1.733    0.423
       117  -9.8830     94.1957     76.1466   3.5513842103e+01   4.9301690673e+01    0.5497231    0.3713446 -57.15  0.002317982    1.648    0.393
       118 -10.7720     53.4809     76.4067   5.1684721655e+01   5.6974059893e+01    0.4467186    0.3432229 -67.46  0.002210038    1.377    0.274
       119  -9.2334    118.8203     78.1712   2.8648864065e+01   4.3198207134e+01    0.1985629    0.1809102  -4.00 0.0002395594    1.247    0.198
       120 -10.0429     58.2057     77.5056   4.9917651170e+01   5.5959420641e+01    0.2670123    0.2079301 -56.37 0.0005429786    1.277    0.217
       121  -9.0072    126.5563     76.5086   2.6068834681e+01   4.1661431697e+01    0.1539243    0.1511854  36.46 4.291544e-05    1.061    0.058
       122  -9.7467     46.6224     75.0236   5.4434351956e+01   5.8321483819e+01    0.3258937    0.1908908 -41.76  0.001156874    1.785    0.440
       123 -11.1234     14.0784     74.2596   7.0378415767e+01   6.1886068578e+01    0.4194463    0.2810661 -77.29  0.001749409    1.427    0.299
       124  -9.9779     13.6456     67.4155   6.9320090327e+01   6.3680688182e+01    0.4623887    0.1618925  13.60  0.001722978    3.210    0.688
       125 -11.2275     27.3552     73.2885   6.3409290102e+01   6.1046938266e+01     0.479418     0.331578 -14.55  0.001119355    1.702    0.412
       126 -10.8948     35.1008     71.4199   5.9032626549e+01   6.0698052904e+01    0.5133284    0.2202342  38.47  0.001865756    2.396    0.583
       127 -10.3944     41.1887     72.6043   5.6346682112e+01   5.9655457247e+01    0.3785574    0.2353313   7.31  0.001645543    2.064    0.515
       128 -11.6842     40.3347     68.9524   5.5723847353e+01   6.0673908403e+01    0.4261394    0.2971978  30.20  0.001923087    1.466    0.318
       129  -9.6899    103.7159     74.4566   3.1862632525e+01   4.7507754079e+01    0.3094096     0.151866  52.79  0.001135704    2.095    0.523
       130 -11.1885    247.0316     72.0815   5.6989280233e+00   1.5919357219e+01    0.2797267    0.1292842 -41.30  0.001462876    1.709    0.415
       131  -9.9780     80.8714     71.9289   3.8857166819e+01   5.3069212285e+01     0.433127    0.2754019 -52.58  0.001785728    1.649    0.394
       132 -10.4826    122.5708     68.4233   2.4482304440e+01   4.4166858304e+01    0.4728117    0.2440846  46.82  0.001837942    1.940    0.484
       133  -9.4234     96.7230     65.3521   3.0958307200e+01   5.0978859011e+01    0.2401555    0.2150189 -66.75 0.0005732302    1.198    0.165
       134 -11.0677     92.3153     62.4760   3.1387140117e+01   5.2567437012e+01    0.4527389    0.2800442  55.71 0.0008963841    1.685    0.407
       135 -10.3150    158.7542     62.8435   1.4870895138e+01   3.6094726875e+01    0.3042707    0.1856854  47.31 0.0005820823    1.765    0.434
       136  -9.3562    105.3837     63.2645   2.7497153149e+01   4.9340403269e+01    0.2139874    0.1449871 -50.41 0.0006930564    1.573    0.364
       137  -9.8630     58.3445     62.1792   4.4826551337e+01   5.9552868376e+01    0.3068961    0.2648023  53.66   0.00161625    1.250    0.200
       138 -10.5578     50.8653     56.1911   4.6203138466e+01   6.2160853696e+01     1.093911    0.2853157 -53.07  0.003229186    3.954    0.747
       139 -10.7634     40.2789     56.5779   5.1802651533e+01   6.3660488470e+01    0.4076414    0.2235804  35.02  0.001101294    1.839    0.456
       140 -11.4333     43.3912     60.7059   5.1587785191e+01   6.2256559332e+01     0.428425    0.2433276 -58.77 0.0009039946    1.788    0.441
       141 -11.1037     46.4791     59.4559   4.9585397075e+01   6.2099704151e+01    0.3873971    0.2749003  54.21  0.001532669    1.685    0.407
       142 -10.0169    113.8107     60.8010   2.4206792988e+01   4.7737377062e+01    0.2671197    0.2618942 -20.23  0.001438438    1.084    0.078
       143 -11.2542     76.3685     58.1352   3.5597342514e+01   5.6954752327e+01    0.3966492    0.2650584 -40.39  0.001320644    1.543    0.352
       144 -11.3566     75.6923     53.5367   3.4055249109e+01   5.8026748395e+01     0.548467    0.3969373   7.58  0.002292556    1.926    0.481
       145 -11.9747     73.1195     47.3792   3.2540667501e+01   5.9772072706e+01    0.5423328    0.3333998 -56.15   0.00218537    2.032    0.508
       146  -9.0978    150.7500     60.6415   1.5682132573e+01   3.8443140948e+01    0.1453792    0.1179914  10.82 0.0006950406    1.606    0.377
       147 -10.5167    124.5226     56.4754   1.9936794393e+01   4.5798168889e+01    0.5992632    0.3440291  -6.13  0.001853619    4.118    0.757
       148 -10.5238    118.4945     56.1759   2.1327554006e+01   4.7380671242e+01    0.5880602    0.3598263 -82.65  0.001744579    2.902    0.655
       149  -9.9868     50.4973    249.5488   7.5634810635e+01   1.6913672604e+01    0.1167113   0.08604839  41.55 0.0002505424    1.020    0.020
       150 -10.3295    122.7449     44.5853   1.6115190025e+01   4.8167751708e+01    0.3804407    0.2763208  70.83  0.001309846    1.378    0.274
       151 -10.7668    120.2763     40.3883   1.5123409814e+01   4.9439483861e+01    0.3796423    0.1539702  49.57  0.001359327    2.424    0.587
       152 -11.6640    119.3055     36.9886   1.4058338437e+01   5.0183751674e+01     0.449879    0.3523097 -58.17  0.001225404    1.355    0.262
       153 -11.3579     25.9132     57.4266   6.0036832568e+01   6.5166978784e+01    0.7231271    0.5195305  38.95  0.002753774    1.506    0.336
       154 -10.7717     32.0064     52.7496   5.5058942880e+01   6.5619325579e+01    0.4742323    0.2517609  14.64  0.002021976    2.255    0.556
       155 -10.4001    106.3908     58.1599   2.5355644213e+01   5.0048815087e+01    0.2933015    0.2198377  63.14 0.0005147127    1.364    0.267
       156 -11.0475    155.0526     48.4465   1.1109782003e+01   3.9216943975e+01    0.2935994    0.2322996 -23.66 0.0002904345    1.404    0.288
       157  -9.5776     91.8704     57.1383   2.9539663603e+01   5.3713106206e+01    0.2393402    0.2070219  87.18 0.0005552794    1.325    0.245
       158 -11.0010     88.6044     54.2632   2.9546162884e+01   5.5016351684e+01    0.9063467     0.352865 -29.41  0.002528743    4.462    0.776
       159  -9.2348     67.2206     54.9712   3.8136422509e+01   5.9474335817e+01    0.1937216    0.1221932 -45.92 0.0004776733    1.616    0.381
       160 -10.4584     60.8750     52.1485   3.9830578545e+01   6.1284460917e+01    0.5245062    0.2227185 -50.67  0.001933791    2.532    0.605
       161 -10.6177     61.1150     46.5295   3.7370049100e+01   6.2386585354e+01     0.519528    0.3607914  -4.73  0.002213616    2.061    0.515
       162 -10.3541     46.8952     48.8469   4.5371536956e+01   6.4421115084e+01    0.6974697     0.344064 -30.13   0.00252615    2.985    0.665
       163 -12.3125     40.0716     44.1643   4.7173358534e+01   6.6483005338e+01     1.293942    0.4647586  32.46  0.004753395    2.815    0.645
       164 -10.8350     20.7813     46.0668   5.9585627292e+01   6.8387888676e+01    0.3527605    0.2866801 -60.49  0.001461239    1.213    0.175
       165 -10.8311     26.0446     42.3995   5.4923555423e+01   6.8694367523e+01    0.3790492     0.317665  37.63  0.001228216    1.311    0.237
       166 -10.2750     24.1776     37.5246   5.4218803622e+01   6.9991355803e+01    0.5183266    0.2025847  38.23   0.00206721    2.788    0.641
       167 -10.8391    157.3027     54.9189   1.2730161723e+01   3.7687681421e+01    0.5099933    0.3360893 -59.68  0.001664698    1.643    0.391
       168 -10.4807    243.9104     51.1617   1.4636434389e+00   1.9090935794e+01    0.1853589    0.1298502 -54.89 0.0004806683    1.257    0.205
       169 -10.3994    144.9706     50.1448   1.3440191585e+01   4.1550578617e+01    0.2779916    0.2222258 -15.64 0.0003289279    1.485    0.326
       170 -11.9853    116.8233     46.2208   1.8121332308e+01   4.9449821560e+01    0.9633867    0.6318239 -11.81  0.004059684    2.151    0.535
       171  -9.0684     55.3997     50.1992   4.1622519802e+01   6.2694540367e+01    0.1759621     0.140139 -55.18 0.0005630075    1.352    0.260
       172  -9.6253     52.1014     48.1309   4.2397474241e+01   6.3708505051e+01    0.2532282    0.2370966  67.73 0.0005543765    1.228    0.186
       173 -10.1274     82.9915     46.9200   2.8560213999e+01   5.7665983409e+01    0.5203691    0.3125092  -7.63  0.001781398    3.425    0.708
       174  -9.7876      1.8141     47.3780   7.2244083669e+01   6.9345178396e+01      0.35418    0.1725164 -81.53  0.001614007    2.153    0.536
       175 -10.2864     13.1961     46.3835   6.4570973223e+01   6.8942688975e+01    0.2963054      0.17436 -36.50  0.001003737    1.639    0.390
       176  -9.9472    145.4853     43.3001   1.1100913233e+01   4.2418584461e+01    0.3972005    0.2046786 -55.67  0.001557263    2.273    0.560
       177  -9.3673    201.0017     45.0000   3.9765654187e+00   2.8607536927e+01    0.2061101   0.07437228  68.51 0.0008029569    2.946    0.661
       178 -10.1796    156.0237     42.0725   8.9515446764e+00   3.9867697964e+01    0.2828235    0.2125783 -26.64 0.0008431093    1.441    0.306
       179 -10.5647    233.9815     43.5033   5.6842643098e-01   2.1891567931e+01    0.3538668    0.1430024 -32.99  0.001690421    2.033    0.508
       180  -9.4264     99.4426     41.5850   2.0967098010e+01   5.4612512650e+01    0.2827849    0.1832671  87.53  0.001128068    2.314    0.568
       181  -9.8506     56.5515     41.7634   3.7420846083e+01   6.4196476263e+01     0.255906     0.189566  41.52 0.0005454269    1.330    0.248
       182  -9.7020     17.8641     40.8543   5.9719765436e+01   6.9868967239e+01    0.3039539    0.1491445 -47.06  0.001403503    1.814    0.449
       183  -9.1164     90.9591     41.0253   2.3337485609e+01   5.6797506864e+01    0.1755595    0.1731161  41.86 0.0004360267    1.041    0.039
       184 -10.9219      3.7649     36.5986   6.8292796920e+01   7.1845751970e+01    0.5493196    0.3383449 -67.55  0.002012026    1.517    0.341
       185 -10.2895     10.1547     30.0005   6.1312806103e+01   7.2965022896e+01    0.5353972    0.3030564   6.65  0.002717138    1.885    0.469
       186  -9.4727     70.7063     33.3255   2.7142813228e+01   6.2788754485e+01    0.2011324     0.181448  52.11 0.0004900656    1.108    0.097
       187  -9.4472     67.1948     31.9918   2.7936011049e+01   6.3781603990e+01    0.3684075    0.2493329  25.46  0.001723588    1.717    0.418
       188 -10.4223    226.5942     37.2361   3.5972584370e+02   2.4104114543e+01      0.22024    0.1383891 -84.03  0.001247522    1.735    0.424
       189  -9.3916    206.2487     37.2300   1.4749647502e+00   2.8413030330e+01    0.1803635    0.1264975 -60.74 0.0003552001    1.302    0.232
       190 -11.2777     78.7891     35.3779   2.5011270098e+01   6.0613476924e+01      0.76866    0.5197464 -32.04  0.003675959    1.574    0.365
       191 -10.7344    153.5029     35.5843   7.2759432769e+00   4.1383164787e+01    0.3011683    0.2509777  73.41 0.0007932124    1.149    0.130
       192 -11.2519    174.3804     33.1218   3.7233236207e+00   3.6397459816e+01    0.6931102    0.3264918 -61.54   0.00139888    2.520    0.603
       193 -10.5956    177.6545     28.6425   2.0566185653e+00   3.6130768895e+01    0.3182889    0.2485724  43.41  0.001409741    1.553    0.356
       194  -9.4242     94.0052     35.3033   1.9931250491e+01   5.6946314003e+01    0.2142373     0.174997  60.96 0.0004869951    1.172    0.147
       195 -10.5212    125.7638    241.0227   5.8886856402e+01   9.1547361434e+00    0.2660627    0.1099576  46.66  0.001199797    2.742    0.635
       196 -10.1045     67.9534    240.4881   7.1304203039e+01   1.6508194325e+01    0.1959516    0.1513836   0.31  0.001166292    1.688    0.408
       197 -11.0260    102.8713     32.6250   1.6294735581e+01   5.5084781808e+01    0.3497995    0.2684341 -77.70 0.0002836937    1.540    0.351
       198 -11.5767    107.1017     31.7466   1.4850510303e+01   5.4110425133e+01    0.5105278    0.3353933  17.69  0.001665182    2.226    0.551
       199  -9.8834    131.5144    240.5099   5.7628737318e+01   8.4850533533e+00    0.1221018   0.09355965  25.81 0.0002528321    1.002    0.002
       200 -10.7175    239.9497     31.9910   3.5757036876e+02   2.2081076192e+01    0.2893012     0.218119  47.49  0.001472085    1.796    0.443
       201  -9.7184    216.9015     31.9074   3.5924091364e+02   2.6738729597e+01    0.1706824    0.1608814 -43.87 0.0002752195    1.204    0.169
       202 -10.3414     45.7036     24.6410   3.4455069841e+01   6.9346736143e+01    0.3187126    0.1892016 -30.71  0.001084064    1.796    0.443
       203 -10.2920     72.9827    237.4929   6.9971597068e+01   1.6436311985e+01     0.265109    0.1528408  28.26  0.001399047    1.459    0.315
       204 -11.6135     49.5432     29.7863   3.5148026871e+01   6.7741198320e+01    0.7548887    0.3841387  33.48  0.003157728    2.069    0.517
       205 -11.8409     26.5087     27.6753   4.8160597131e+01   7.1797944995e+01    0.4717941    0.4383848 -57.13  0.001954595    1.262    0.208
       206 -10.4996    146.9928    238.5543   5.4214338774e+01   6.7590355413e+00    0.2222111    0.1862385  88.50  0.001476646    2.044    0.511
       207  -9.1392     22.2856     31.2954   5.2854429621e+01   7.1553023887e+01    0.1364907   0.09156317 -24.03 0.0002652132    1.545    0.353
       208 -10.8079    189.1064     27.2736   4.9975981467e-01   3.3526569957e+01    0.3768141    0.2875989  26.93  0.002034714    1.834    0.455
       209 -11.5055    159.8598     29.3658   4.4073108327e+00   4.0521235917e+01    0.5991823    0.2488854  69.33  0.001964288    2.298    0.565
       210  -9.5864     15.4596    233.3015   8.2357778777e+01   2.3402590330e+01    0.1803493    0.1014088 -78.39 0.0009261786    1.988    0.497
       211 -12.2235    127.0751     28.1531   9.1362705258e+00   4.9298791337e+01    0.9409373    0.4286297  76.56  0.003106985    2.529    0.605
       212 -10.8843     61.1818     36.2110   3.2635875967e+01   6.4326567345e+01    0.5131734    0.3233924 -20.46  0.001582064    2.044    0.511
       213  -9.6859    250.5387     26.9709   3.5583342852e+02   2.0659053170e+01    0.1691207    0.0925588 -33.45 0.0004148502    1.505    0.336
       214 -10.4502    230.3781     27.0836   3.5711960619e+02   2.4506190946e+01    0.2415488    0.1653761  63.42  0.001122597    1.707    0.414
       215 -11.0336    182.9789     25.5807   6.3429626861e-01   3.5188975609e+01    0.3367572    0.2327335 -56.28  0.001178338    1.310    0.237
       216 -11.2522    150.1144     22.1790   3.3887906102e+00   4.3892664009e+01    0.4549066    0.2331833  85.38  0.001616823    2.117    0.528
       217 -10.2088    150.8039     27.0866   4.9099992204e+00   4.3143387105e+01     0.444908    0.2613945  42.96  0.001980659    2.052    0.513
       218 -11.5553    144.1902     25.3895   5.2988052739e+00   4.5083060879e+01    0.6748331    0.4186054  82.51  0.003154193    1.618    0.382
       219  -9.7811    155.5266     24.5164   3.4379335542e+00   4.2213682362e+01    0.2599245    0.1968003 -86.27 0.0008007937    1.260    0.207
       220 -10.1291    155.3843     20.7828   2.2580837311e+00   4.2672364274e+01    0.3306634    0.2429767  45.12  0.001580116    1.564    0.361
       221  -9.4726     97.7259     26.0078   1.4803415650e+01   5.7307454757e+01    0.2002277    0.1961642  82.29 0.0005542698    1.065    0.061
       222 -10.1690    169.2456     23.3539   1.4341210504e+00   3.8835212025e+01    0.3526996    0.2432366  65.94  0.001471338    1.428    0.300
       223 -10.5048    201.4903     24.0151   3.5853557125e+02   3.1025286154e+01    0.2744249    0.1317193  53.86  0.001266851    2.464    0.594
       224  -9.0676    189.7070    229.6823   4.4717586521e+01   2.5059358577e+00    0.1180834   0.07295159   1.10 0.0004109466    1.603    0.376
       225  -9.6787     49.6830    222.6402   7.4162031329e+01   2.1936695878e+01    0.1140197   0.09191392 -20.46 0.0007043345    1.759    0.431
       226 -10.3276      9.9938    217.7563   8.3038054464e+01   2.6919900165e+01     0.148538    0.1175618 -63.01 0.0006378882    1.611    0.379
       227  -9.0620    164.4674    211.4909   4.6924337165e+01   8.4404383102e+00    0.1263002    0.1029008  15.96 0.0004661099    1.019    0.018
       228  -9.8850     17.2322    205.6178   8.0885594418e+01   2.8767454949e+01    0.2311905    0.1256149  73.85   0.00127492    1.734    0.423
       229  -9.1420     79.4765    204.4867   6.5432258957e+01   2.1897907626e+01    0.2635594    0.1176947 -89.70 0.0008092399    5.801    0.828
       230 -10.5190      4.2349     22.1496   6.3071288087e+01   7.5102394093e+01    0.4216622    0.2401744  16.25  0.002263937    1.795    0.443
       231 -11.2011      5.8817    199.7646   8.3392035822e+01   3.1011339527e+01    0.3493578     0.124753 -68.03  0.001600108    2.969    0.663
       232  -9.7498      1.5981    199.2280   8.4406100109e+01   3.1475190801e+01    0.1580676    0.1001872 -75.11 0.0009515829    1.686    0.407
       233 -12.2525      5.0478    183.3798   8.3008502177e+01   3.4702326621e+01    0.6186411    0.4453459  69.28   0.00388461    1.173    0.147
       234  -8.7739    139.6853    182.6984   4.7721032081e+01   1.7149280174e+01    0.1391965    0.1014142  -0.22 0.0005830755    1.614    0.381
       235 -10.8772    222.9208     20.9894   3.5621529409e+02   2.6699024108e+01    0.3096872    0.1803382 -48.39 0.0005888383    1.383    0.277
       236 -11.0997    179.0934     20.4668   3.5957448467e+02   3.6709065482e+01    0.5987363    0.2460816  49.96  0.002362163    3.023    0.669
       237  -9.2073     90.7877     22.6365   1.5172820073e+01   5.9515215289e+01    0.2101858    0.1325657  71.08 0.0009475322    1.668    0.400
       238  -9.4289     28.3686    175.7988   7.6320571222e+01   3.4392453194e+01    0.1787861    0.1124848 -67.77 0.0009023239    1.659    0.397
       239 -10.1933     16.0633    173.8716   7.9612336933e+01   3.5995677106e+01    0.3216986    0.1571232  80.11  0.001525223    2.026    0.506
       240  -9.8296    216.5698     20.0254   3.5641376241e+02   2.8142101452e+01    0.1812476       0.1486 -68.41 0.0003677553    1.085    0.078
       241  -8.9974     51.6474    173.3095   6.9541629380e+01   3.2412086499e+01    0.1533916   0.08703985  56.33 0.0007043924    1.720    0.419
       242  -9.7971     74.6844     19.1618   1.8509158412e+01   6.3940203114e+01    0.2548525     0.195006  26.82 0.0007848523    1.384    0.278
       243  -9.7690     46.5279     20.0165   3.1351773903e+01   6.9952715092e+01    0.2466155    0.1889882  56.84  0.000896188    1.530    0.346
       244  -9.4250     39.1369    173.1712   7.3084595804e+01   3.3893400964e+01    0.2019157     0.135394  54.65 0.0009820634    1.331    0.249
       245  -9.3456    199.1518     17.7910   3.5712107644e+02   3.2239631738e+01    0.1584928    0.1524492  40.00 0.0005881874    1.326    0.246
       246  -9.4597     89.4802     16.5216   1.2638243460e+01   6.0584750594e+01    0.2285244    0.1157282  52.62 0.0009004957    1.751    0.429
       247  -8.8171     50.7411    170.3250   6.9490829208e+01   3.3235632558e+01    0.1434004   0.09165966  62.25 0.0001966605    1.555    0.357
       248 -10.8785      1.6916    166.2132   8.3237969189e+01   3.8957545185e+01    0.3150607     0.256135 -43.09 0.0009746562    1.550    0.355
       249 -11.8050      9.1777    166.8453   8.1162836807e+01   3.8243981749e+01    0.4415984    0.2890605  30.52  0.001698174    1.468    0.319
       250 -12.1853     12.7010    160.4275   7.9798091490e+01   3.9521241217e+01    0.6159148    0.3606531 -60.01  0.002471298    1.828    0.453
       251 -10.9128    238.1836     16.1532   3.5421197954e+02   2.4141345460e+01    0.1974461    0.1679157  89.76 0.0008199061    1.294    0.227
       252 -10.0859    211.0951     15.9580   3.5580185156e+02   2.9759570355e+01    0.1877877    0.1498541 -56.47 0.0002862441    1.025    0.024
       253 -12.3376     22.1734    149.3336   7.6139553499e+01   4.1487770418e+01    0.6996416    0.3818482 -39.09  0.001780592    2.480    0.597
       254 -10.6099     16.5277    147.9061   7.7810086418e+01   4.2335730135e+01    0.3205708    0.1777233 -74.42  0.001148803    1.699    0.411
       255 -10.3700     18.1694    165.0648   7.8488369610e+01   3.7926372537e+01    0.2372524    0.2098358 -72.58  0.001497136    1.234    0.189
       256 -10.4477    187.0138     14.9389   3.5732895687e+02   3.5382467150e+01    0.2236293    0.1867379  73.82  0.001090949    1.248    0.199
       257 -10.5558    205.1576    163.0691   3.0638743041e+01   9.8437344784e+00    0.2215585    0.1808567 -11.56 0.0007067592    1.061    0.057
       258 -10.8406     28.4665    161.0702   7.5167915958e+01   3.7951165439e+01    0.3440007    0.2231897 -81.48  0.001371003    1.503    0.335
       259  -9.5628    147.5204     15.5004   1.5005673403e+00   4.5297121604e+01    0.2692185    0.1001655  59.99  0.001035135    2.414    0.586
       260  -9.8805    214.9531    161.5121   2.8660055341e+01   8.5713833716e+00    0.1709687    0.1169705  34.21 0.0004004279    1.515    0.340
       261  -9.2400    195.9829     13.9651   3.5636764249e+02   3.3372360757e+01    0.1573391     0.130999 -65.04 0.0003755952    1.008    0.008
       262 -10.3300      9.6242    155.4869   8.0425052147e+01   4.0981733009e+01    0.2434346    0.1918624 -88.15  0.001330307    1.182    0.154
       263  -9.8052    104.6875    154.3367   5.1631963127e+01   2.9022322485e+01    0.2715818    0.2281235  64.85  0.001413426    1.288    0.224
       264 -10.6200      4.5384    153.1502   8.1825768572e+01   4.1933235943e+01    0.2613525    0.1516276  32.19 0.0008114817    1.627    0.386
       265  -9.5915     55.5397    152.3009   6.5938080340e+01   3.7071846871e+01     0.187671    0.1320523 -57.82 0.0005372555    1.493    0.330
       266 -11.3433     47.7064    146.9634   6.7733635636e+01   3.9408661276e+01     0.681858    0.4557925 -34.72  0.003210211    1.947    0.486
       267 -12.0858      4.1828    142.5354   8.1375631087e+01   4.4616242466e+01    0.8451242    0.3475988  53.54  0.003708042    2.224    0.550
       268  -9.5083     74.5498    148.1396   5.9417221241e+01   3.5436453926e+01    0.2098047    0.1465017 -69.49 0.0005703883    1.518    0.341
       269 -10.5840    104.1094    147.1704   5.0452007628e+01   3.0773777185e+01    0.2397762    0.2291823  83.56  0.001319547    1.099    0.090
       270  -9.2681     65.9637    149.3572   6.2272123197e+01   3.6395162734e+01    0.2372328    0.1256663   2.30 0.0007045106    4.496    0.778
       271 -10.6492     33.0690    144.0922   7.2150973832e+01   4.1785266534e+01    0.3073851    0.2549814  89.19 0.0009015704    1.138    0.122
       272 -10.0246    232.0706    142.8542   2.2316923698e+01   8.6680945163e+00    0.1712325    0.1520312 -32.73 0.0003810723    1.253    0.202
       273 -10.5641     40.7965    138.4041   6.8931843840e+01   4.2428830029e+01    0.4326099    0.2959384 -78.88  0.001510157    1.441    0.306
       274 -10.8348     15.2740    140.9759   7.7694187801e+01   4.4207814676e+01    0.2714655    0.2069187  -2.84  0.001183441    1.632    0.387
       275 -11.5043     12.1781    135.9910   7.8341420093e+01   4.5730980545e+01    0.6180979    0.3038161 -54.67  0.002811597    2.125    0.529
       276 -10.7536     80.1755    138.1962   5.5941654811e+01   3.7026207160e+01    0.2820789     0.218349  41.63 0.0005153533    1.223    0.182
       277 -11.2202     24.2526    136.3202   7.4297483863e+01   4.4653640647e+01    0.5267884    0.3671383 -25.62  0.002656851    1.869    0.465
       278  -9.8657     20.4925    134.0186   7.5359664646e+01   4.5583637550e+01    0.2730772    0.2606913  56.70  0.001059942    1.106    0.096
       279 -10.8122     30.3482    132.4956   7.1800044768e+01   4.5081093580e+01     0.591598    0.2478429 -51.70  0.002326669    2.534    0.605
       280  -9.1704     36.2425    133.5811   6.9885177398e+01   4.4191192439e+01    0.1789389    0.1393674   9.33 0.0004515804    1.496    0.332
       281  -9.4110    103.8263    130.7958   4.7179141708e+01   3.4664316180e+01     0.217577    0.1990541  13.11 0.0003322889    1.168    0.144
       282  -9.3600     50.9365    129.9558   6.4269650727e+01   4.3418761979e+01    0.2380202    0.1600038  67.79 0.0004979779    1.633    0.388
       283 -11.1138     11.2947    125.2630   7.7802587344e+01   4.8589867422e+01    0.5734526    0.2704966 -58.66  0.001854727    2.040    0.510
       284  -9.7949     26.1806    131.3875   7.3129805463e+01   4.5769972976e+01    0.2622213    0.2198931 -79.59 0.0003826029    1.130    0.115
       285 -10.4233     23.0420    126.3552   7.3703184527e+01   4.7378947743e+01    0.1866325    0.1737028  54.55 0.0006905551    1.086    0.079
       286  -9.6028      2.2593    125.6113   8.1016530434e+01   4.9076290163e+01    0.2522248    0.1411338  79.39   0.00122421    1.663    0.399
       287 -10.2900      8.5486     19.5239   5.8180807526e+01   7.5360019485e+01    0.2950897    0.1803567 -40.31 4.347825e-05    1.442    0.307
       288 -10.6606    104.6962    122.1873   4.4975765852e+01   3.6529244965e+01    0.3502134    0.3271521  60.15  0.001009783    1.069    0.065
       289  -9.7100     44.5202    119.4961   6.4918394117e+01   4.6978776696e+01    0.2476502    0.2297273 -88.18 0.0006558634    1.030    0.029
       290  -9.9529     43.5004    116.0188   6.4730840050e+01   4.8025173856e+01    0.3007678    0.2318562  85.16 0.0007595851    1.340    0.254
