#   1 NUMBER                 Running object number                                     
#   2 MAG_AUTO               Kron-like elliptical aperture magnitude                    [mag]
#   3 X_IMAGE                Object position along x                                    [pixel]
#   4 Y_IMAGE                Object position along y                                    [pixel]
#   5 X_WORLD                Barycenter position along world x axis                     [deg]
#   6 Y_WORLD                Barycenter position along world y axis                     [deg]
#   7 A_WORLD                Profile RMS along major axis (world units)                 [deg]
#   8 B_WORLD                Profile RMS along minor axis (world units)                 [deg]
#   9 THETA_WORLD            Position angle (CCW/world-x)                               [deg]
#  10 FWHM_WORLD             FWHM assuming a gaussian core                              [deg]
#  11 ELONGATION             A_IMAGE/B_IMAGE                                           
#  12 ELLIPTICITY            1 - B_IMAGE/A_IMAGE                                       
         1 -15.5792    235.9066     60.1910   1.6467617030e+01   2.2703946252e+01      1.75777    0.8130224 -57.30  0.009891607    1.953    0.488
         2 -14.5445    245.4168     50.4284   1.3932975921e+01   2.2421946382e+01     1.227525    0.4957702 -49.52  0.007076378    1.836    0.455
         3 -13.9778    102.3405     28.5409   2.6853928821e+01   5.5318356174e+01    0.9658543    0.6287458 -55.32  0.004836835    1.682    0.405
         4 -14.0217     74.8778     23.9767   3.2705578431e+01   6.2328388361e+01    0.9424376    0.7168553 -81.72  0.005199673    1.602    0.376
         5 -13.3730     49.3086     24.1098   4.2979593249e+01   6.7699473929e+01    0.9487133     0.508434  43.76  0.004650762    1.643    0.391
         6 -14.8618    158.7396     14.1231   1.3522784060e+01   4.3705143272e+01     1.111876    0.6076801 -64.96  0.005724027    1.708    0.415
         7 -14.8535    141.9377      7.3336   1.3467550262e+01   4.8294771995e+01     1.380127    0.7083951  80.82  0.007137799    1.703    0.413
         8 -14.2976     95.7227     13.8305   2.2973688941e+01   5.8691728089e+01    0.5473447    0.3845483 -87.94  0.002635711    1.459    0.315
         9 -13.6237     77.5563      3.3245   2.3001794738e+01   6.4099242554e+01    0.4241174    0.3273092  67.30  0.002611969    1.077    0.072
        10 -14.4485    104.8881      5.2082   1.7964390975e+01   5.7374489757e+01     1.289406    0.5744666  84.27  0.005463737    2.494    0.599
        11 -12.7813     24.9767      4.2614   4.6334842324e+01   7.4928278895e+01    0.4090958    0.3219266  53.28  0.002611771    1.435    0.303
        12 -12.9259     62.3544      3.1182   2.7371478472e+01   6.7616071672e+01    0.4386934    0.3110069  65.53  0.002592911    1.240    0.193
        13 -13.0660     29.6736      8.0939   4.5508402659e+01   7.3610930137e+01    0.4565075    0.3804545  38.34   0.00265186    1.094    0.086
        14 -13.4358    120.4081    217.8937   6.5184870965e+01   1.3158699925e+01    0.4176568    0.3311597 -65.75  0.002126649    1.558    0.358
        15 -13.4445     76.1343    198.9479   7.4073745818e+01   2.2916746564e+01     1.213203    0.6791332  73.60  0.005007829    2.690    0.628
        16 -14.2249     25.1841    153.9466   8.4867235049e+01   4.0061219081e+01     3.633911     1.191485  59.10   0.01059756    4.368    0.771
        17 -13.3000     70.9368    218.5250   7.7518033386e+01   1.9188510285e+01     2.225843     1.190958  46.18   0.01073539    1.746    0.427
        18 -14.2763     20.1540    177.1251   8.8356113246e+01   3.4469905684e+01     1.773006    0.6826379 -89.77  0.006574055    2.997    0.666
        19 -13.8817     87.5295    247.0076   7.6123749701e+01   1.1550425023e+01      1.50852    0.4789227  34.56  0.006467342    2.351    0.575
        20 -14.1614     89.3824    233.2380   7.4362173501e+01   1.3971415627e+01     1.423695    0.8278912  52.37   0.00727689    1.917    0.478
        21 -15.2991      9.3547    181.5209   9.1885514924e+01   3.4249400861e+01     2.947359    0.9209355  74.79  0.009359546    4.223    0.763
        22 -15.0032      5.3532    151.5514   9.1448074173e+01   4.2270177796e+01     1.598417    0.8537517  84.39  0.006288771    1.873    0.466
        23 -13.8893     45.2989    212.3128   8.3739583729e+01   2.3458909382e+01     2.075926     1.089393  87.36  0.009495021    2.346    0.574
        24 -13.9451     33.6550    190.7700   8.5323847936e+01   2.9777644573e+01    0.9978303    0.5599875  58.06  0.004691815    1.757    0.431
        25 -12.3865     69.0311    247.4545   8.0509496591e+01   1.3504140911e+01    0.7499879    0.2908369  49.43  0.003234646    2.714    0.632
        26 -12.6756     55.0479    250.0170   8.4001088967e+01   1.4490108237e+01    0.5850202    0.2444891  26.09  0.001940453    1.908    0.476
        27 -12.2878     49.3408    246.6770   8.5135095817e+01   1.5728200392e+01    0.3966595    0.2234396  43.25  0.001847162    1.456    0.313
        28 -12.5847     43.6248    244.6990   8.6378266191e+01   1.6699279934e+01    0.5706641    0.2885373  59.97  0.002892948    2.086    0.521
        29 -11.5173     24.5189    249.6353   9.1154553709e+01   1.7547708234e+01    0.3092639    0.2184377  32.25  0.001560429    1.141    0.124
        30 -12.0015     31.0118    249.1420   8.9613421855e+01   1.7042270835e+01    0.4771697    0.1803594  37.83  0.002319961    1.886    0.470
        31 -11.8475     31.6209    244.2375   8.9224970007e+01   1.7964621436e+01    0.5422356    0.2715229  34.71  0.002257746    1.510    0.338
        32 -12.5507     34.6598    237.1242   8.8110157069e+01   1.9130103863e+01     0.687466    0.4778724  68.48  0.002913146    1.463    0.317
        33 -13.0243     26.8223    233.5774   8.9849260998e+01   2.0621596089e+01    0.7783418    0.3275951 -88.19  0.003534671    2.829    0.647
        34 -14.6934      6.6967    240.9845   9.5003000546e+01   2.0846713983e+01     1.387037    0.3868213  65.68  0.005246756    3.939    0.746
        35 -13.6016    117.0637    211.9900   6.5206481171e+01   1.4751651267e+01    0.4948566    0.4599359  20.20  0.002963283    1.073    0.068
        36 -12.0800     93.9878    217.6334   7.1555481718e+01   1.6565838137e+01    0.4428241     0.316261  21.15  0.002458438    1.273    0.215
        37 -11.0096     29.3115    213.2858   8.8084510562e+01   2.4854740947e+01    0.1934016    0.1245869  52.49  0.001024988    1.374    0.272
        38 -13.3825    103.6774    204.2579   6.7482905842e+01   1.8119683589e+01    0.9013215    0.7163728  54.86  0.005098036    1.373    0.272
        39 -12.0042     90.1827    193.5366   6.9600517517e+01   2.2300118818e+01    0.5492365    0.2703793 -51.18  0.002387173    2.181    0.541
        40 -11.6864     40.1031    179.0754   8.2404097215e+01   3.2028554295e+01    0.4226138    0.2511301 -63.17  0.001662937    1.754    0.430
        41 -11.9788     59.3974    175.9090   7.6191598263e+01   3.0584890267e+01    0.6425667    0.4556957  42.74  0.003234474    1.287    0.223
        42 -12.9846     44.6849    172.8299   8.0374281976e+01   3.3115592681e+01    0.5980852    0.5177595  83.92  0.002091147    1.168    0.144
        43 -12.1671     52.2747    175.5669   7.8322434400e+01   3.1540322047e+01    0.4678966    0.3046965  59.13  0.001778254    1.584    0.369
        44 -12.2818    119.1107    195.1896   6.2378912847e+01   1.7911068952e+01    0.3377744    0.1637822  37.12  0.001497575    1.890    0.471
        45 -11.6031      1.9076    186.5277   9.4298567898e+01   3.3560106260e+01    0.2242866    0.1805183 -79.01 0.0006856045    1.289    0.224
        46 -13.3129    129.7386    178.4838   5.7193206463e+01   1.9870810105e+01    0.7829393    0.5441179 -51.60  0.004076171    1.500    0.333
        47 -11.6139     33.3180    177.2080   8.4315575178e+01   3.3208468049e+01    0.3682071     0.267044 -78.95   0.00188919    1.420    0.296
        48 -13.5288     53.6455    187.8151   7.9216247891e+01   2.8328363459e+01     1.198181    0.6448345 -78.89  0.004735809    2.119    0.528
        49 -12.7074     45.4406    159.4441   7.8650061773e+01   3.6498585368e+01    0.6119676    0.4021614 -83.35  0.001267263    1.631    0.387
        50 -11.9390     31.7878    149.1196   8.2105753888e+01   4.0711933057e+01    0.5490628    0.2758719  74.11  0.002121146    2.484    0.597
        51 -11.4142     52.9999    148.2003   7.4670619496e+01   3.8537969216e+01    0.5121217    0.2989235  83.81   0.00208172    2.206    0.547
        52 -12.8531     44.1610    148.2873   7.7712640894e+01   3.9591431950e+01     0.422565    0.3514327   1.51  0.001059178    1.351    0.260
        53 -12.1633     46.8080    142.4971   7.6017445543e+01   4.0816218522e+01    0.7298613    0.3088713  46.77  0.002559189    2.396    0.583
        54 -10.6763     68.0060    148.2539   6.9666594203e+01   3.6491505202e+01    0.2631318    0.2008972 -60.26 0.0007047784    1.355    0.262
        55 -11.0659     70.5940    145.7846   6.8421207014e+01   3.6751020757e+01    0.2642486    0.2055519  67.84  0.001281952    1.388    0.279
        56 -12.8595     99.7764    140.6283   5.8409356101e+01   3.3349175973e+01    0.5786956    0.5269899  34.38  0.002741402    1.082    0.076
        57 -12.0307     32.2075    135.0452   8.0322490460e+01   4.4444674241e+01    0.9175493     0.518298  76.26  0.003816819    2.121    0.528
        58 -12.5451     27.9914    126.5498   8.0856605308e+01   4.7150364530e+01     1.084528    0.3985406  52.13  0.003564637    3.291    0.696
        59 -14.3539    113.4244    129.9493   5.2363515399e+01   3.3416091903e+01     1.171464     1.000382  76.99  0.006128335    1.282    0.220
        60 -14.2206    104.3608    116.8772   5.2076281553e+01   3.8125138399e+01     1.357493    0.5700864  48.08  0.004856632    2.459    0.593
        61 -15.1824     90.6308    101.8541   5.2756627296e+01   4.4230303569e+01     2.194517     1.492211 -81.07   0.00875444    1.989    0.497
        62 -11.7082     57.3227    130.5602   7.0424654705e+01   4.2611388038e+01    0.4743541    0.2448116 -80.33  0.001760313    2.536    0.606
        63 -11.3929      4.5270    130.0901   9.0276689384e+01   4.8031390774e+01    0.3199421    0.2730274 -67.21  0.001370607    1.158    0.136
        64 -13.6564    107.1004    244.3954   7.1354473598e+01   9.8088772099e+00     1.208061    0.5820751  49.86  0.005579298    2.639    0.621
        65 -12.5038      8.9910    113.7121   8.7056892681e+01   5.2133971872e+01    0.5507945    0.3882371 -37.77  0.002371131    1.509    0.337
        66 -13.1121      4.4351    108.9630   8.8519218944e+01   5.3672325756e+01    0.8995678    0.4863488  56.82  0.004049158    1.984    0.496
        67 -11.9600     26.8827    115.1186   7.9767107626e+01   5.0325333835e+01    0.8060067    0.3592538 -89.05  0.002839765    3.010    0.668
        68 -14.9032    246.5293     98.9632   2.2515312685e+01   1.5763937561e+01     1.582305    0.4454343 -43.09  0.007337576    2.645    0.622
        69 -11.7357     73.9018    133.9030   6.5255781137e+01   3.9293518805e+01    0.2579693    0.2380391  12.03 0.0004540216    1.161    0.139
        70 -13.3431     42.1418    106.6922   7.2031615865e+01   5.0879533794e+01     1.218211    0.5387883 -71.92  0.004495531    2.565    0.610
        71 -11.4710     29.0687     98.7352   7.6240403140e+01   5.4439231854e+01    0.3262697      0.31007 -46.36   0.00188095    1.062    0.058
        72 -13.3474      4.6859     88.4163   8.6157760194e+01   5.9038149675e+01     1.348289    0.6108368  87.94  0.005396861    2.629    0.620
        73 -13.3951      5.2018     70.5661   8.3337224352e+01   6.3513450276e+01    0.8356276    0.5629638  80.82  0.003383202    1.727    0.421
        74 -12.3223      3.9943     61.7157   8.2508753060e+01   6.5732096486e+01     0.462286    0.3568087  25.58  0.002691835    1.320    0.243
        75 -12.4827    111.3994     85.1354   4.2160756555e+01   4.3611861143e+01    0.5228076    0.4099346 -87.60      0.00262    1.455    0.313
        76 -13.1013     22.0215     82.7904   7.6646973940e+01   5.9212861550e+01     1.234995    0.6940598 -84.29  0.005390899    2.160    0.537
        77 -13.6831     21.1362     67.2935   7.3821357743e+01   6.3103296594e+01    0.9237674    0.7053718  41.57  0.005073158    1.360    0.264
        78 -14.1038     72.2905     69.3800   5.0247947303e+01   5.4978529062e+01     1.458732    0.9233838 -63.57   0.00582868    1.917    0.478
        79 -14.9910    148.2590    239.3772   6.1782493267e+01   5.9670988338e+00     1.184608    0.7661561  48.95  0.006408844    2.108    0.526
        80 -14.3367    132.8608    231.3896   6.4073304973e+01   9.1172609135e+00    0.6976856    0.6616549  62.49   0.00297365    1.359    0.264
        81 -15.2377    205.5791     57.8248   1.8840506008e+01   2.8353797290e+01     1.526319    0.6813309 -63.98  0.006919018    2.741    0.635
        82 -13.1924     20.5782     51.5169   7.0017550196e+01   6.6799857668e+01    0.6550275     0.431042   9.48  0.003409456    1.549    0.354
        83 -12.9444      8.6858     51.7734   7.7531506375e+01   6.7772340842e+01    0.6006183    0.4725347 -10.73  0.002454007    1.227    0.185
        84 -11.9745      2.1040     50.3928   8.1485508733e+01   6.8495816683e+01    0.3431085    0.2391643 -63.04  0.001697689    1.402    0.287
        85 -11.9219     63.0538     39.2713   4.3368380183e+01   6.2540424950e+01    0.3209988    0.2794247 -32.24  0.001883641    1.299    0.230
        86 -10.9876     31.8782     40.1411   5.9342521882e+01   6.7816684123e+01    0.2063754    0.1792354  49.06  0.001155521    1.255    0.203
        87 -10.9095     24.7678     36.1159   6.2190917528e+01   6.9561807736e+01    0.2645502    0.1627482  -2.59  0.001250946    2.140    0.533
        88 -11.2596      1.3749    248.6298   9.6448046896e+01   1.9736745112e+01    0.2072663   0.09858412  80.99  0.001110191    2.196    0.545
        89 -11.8692      8.0861     32.7088   7.2590203159e+01   7.1987388950e+01    0.3658516    0.3008627 -67.58   0.00230275    1.391    0.281
        90 -13.3001    122.9669    242.9220   6.7633071538e+01   8.2490913839e+00    0.9751959    0.3828573  41.62  0.004317192    2.657    0.624
        91 -14.1234    111.1602    229.0739   6.8723437864e+01   1.2165626731e+01     1.343294    0.5502106  43.96  0.005700668    2.609    0.617
        92 -12.2306     38.1515     22.0664   4.7828738356e+01   7.0064090685e+01    0.3753859    0.2940743  89.89  0.002080932    2.001    0.500
        93 -12.5941     57.9885    239.3895   8.2545892894e+01   1.6278971467e+01    0.5394309    0.3184767  64.98  0.002286206    1.951    0.488
        94 -13.0192     13.1802    230.6178   9.3079582598e+01   2.2475205431e+01    0.5264176    0.2810598  63.75  0.001575394    1.758    0.431
        95  99.0000     19.8707    219.9383   9.0924331507e+01   2.4225688700e+01     1.428604    0.6944444  83.32   0.00682449    2.270    0.559
        96 -13.8848      5.8210    219.8259   9.4512703227e+01   2.5444061896e+01    0.9485179    0.3240843  64.66  0.003872239    2.945    0.660
        97 -12.8469      8.4850    211.8288   9.3523440437e+01   2.7034894125e+01    0.4115539    0.3781152  70.85  0.001859788    1.150    0.130
        98 -13.7663      8.6321    205.1668   9.3208308214e+01   2.8566660806e+01     1.185518    0.3921843  30.00  0.004499015    2.318    0.569
        99 -12.6584    124.1969    223.7396   6.5055075785e+01   1.1568010458e+01    0.2855247    0.2604384 -89.96  0.001640013    1.425    0.298
