#   1 NUMBER                 Running object number                                     
#   2 MAG_AUTO               Kron-like elliptical aperture magnitude                    [mag]
#   3 X_IMAGE                Object position along x                                    [pixel]
#   4 Y_IMAGE                Object position along y                                    [pixel]
#   5 X_WORLD                Barycenter position along world x axis                     [deg]
#   6 Y_WORLD                Barycenter position along world y axis                     [deg]
#   7 A_WORLD                Profile RMS along major axis (world units)                 [deg]
#   8 B_WORLD                Profile RMS along minor axis (world units)                 [deg]
#   9 THETA_WORLD            Position angle (CCW/world-x)                               [deg]
#  10 FWHM_WORLD             FWHM assuming a gaussian core                              [deg]
#  11 ELONGATION             A_IMAGE/B_IMAGE                                           
#  12 ELLIPTICITY            1 - B_IMAGE/A_IMAGE                                       
         1 -13.4294    224.2977     43.4075   2.0115659212e+01   2.2560262190e+01     2.159232    0.8356366 -32.27  0.008346441    2.554    0.608
         2 -14.3827    246.1352    141.5691   4.0415940597e+01   2.1500409179e+00     5.682002     1.463722 -45.83   0.01375247    6.979    0.857
         3 -13.9165    247.6280    117.0493   3.4622086691e+01   5.7932671060e+00     4.156579     1.332259 -48.85   0.01144827    5.209    0.808
         4 -14.8023    247.4990     53.2509   1.9698930833e+01   1.5709334674e+01     4.203478     2.429159 -15.71   0.01817314    2.583    0.613
         5 -12.9717    240.8666     44.1324   1.8319042578e+01   1.8504488895e+01     1.352262    0.7931833 -26.73  0.005747319    1.884    0.469
         6 -11.9928    236.3470     32.3421   1.6029515502e+01   2.1136048849e+01     1.094768    0.5842965  -6.61  0.003796352    4.530    0.779
         7 -10.5334    245.6302     18.9539   1.2046493125e+01   2.0641465685e+01     0.398103    0.3034676   7.02  0.002208482    2.062    0.515
         8 -10.0955    234.4470     14.8290   1.2123636728e+01   2.3730592015e+01    0.3075967    0.1510396  61.02  0.001464583    1.993    0.498
         9 -10.3467    248.9819    221.9847   5.6001580243e+01  -9.6719063977e+00    0.1646012    0.1543308  55.09  0.001149143    1.735    0.424
        10  -9.3330    211.0000    214.9584   6.1621112969e+01  -2.5468973758e+00    0.1927091   0.07298974 -37.66 0.0008085215    2.985    0.665
        11  -9.5588    228.6375    206.3461   5.6804931441e+01  -4.3920264577e+00    0.2520123    0.1962357  86.16  0.001265668    2.897    0.655
        12 -10.9866    241.7239    201.8212   5.3604739173e+01  -5.9787086799e+00    0.2981689    0.1986288 -35.25  0.001714183    1.652    0.395
        13  -9.4732    230.6027    197.8120   5.4850573021e+01  -3.5393183815e+00    0.1716861    0.1195441 -40.63 0.0009493043    1.698    0.411
        14  -9.9057    247.8424    195.5745   5.1339702521e+01  -6.1515396478e+00    0.2025894    0.1726933 -73.71  0.001181264    2.181    0.542
        15  -8.9910    237.3085    190.6528   5.2253949744e+01  -3.6880047563e+00    0.1172956    0.1075831 -76.14  0.000704413    1.705    0.413
        16  -9.0454    232.1705    189.5500   5.2970306996e+01  -2.6273099715e+00    0.2452628   0.09265268 -37.79 0.0009977984    2.758    0.637
        17  -8.5390    220.6807    189.3407   5.5062574332e+01  -5.2158254005e-01    0.1245402    0.1105987  88.37 0.0007049677    1.715    0.417
        18  -9.5962    226.3561    184.7486   5.3094878190e+01  -8.6560677943e-01    0.2494707    0.1582474  49.93  0.001251343    1.771    0.435
        19 -10.1606    224.5431    176.4358   5.1756115616e+01   7.5455494833e-01    0.4745155    0.2755781  63.17   0.00186535    3.287    0.696
        20 -11.0011    248.9229    170.9011   4.6230038040e+01  -2.8629608235e+00     0.313732    0.2409269  28.92  0.001692876    1.251    0.200
        21  -9.7825    225.1927    169.9332   5.0288923655e+01   1.6617750951e+00    0.3041532    0.2313067 -50.50  0.001610525    1.650    0.394
        22 -10.3676    195.2173    171.5427   5.6487238287e+01   7.3504694601e+00    0.3219886    0.2347687  71.65  0.001494884    2.040    0.510
        23 -10.9879    236.4327    163.6017   4.6895801991e+01   5.2286906791e-01    0.3949237    0.2500545  57.14  0.001877796    2.101    0.524
        24 -10.7913    227.8586    161.7604   4.8061938807e+01   2.4620926852e+00    0.3552283    0.2746469 -39.46  0.001926512    1.372    0.271
        25 -10.0490    168.0152    162.2730   6.0335459106e+01   1.4758334689e+01    0.2706057    0.2000118 -61.07  0.001286311    1.633    0.388
        26 -11.5553    239.3524    243.9208   6.1355651954e+01  -1.0725154232e+01    0.3280468    0.2261178  44.96  0.002114865    1.692    0.409
        27  -9.3629    166.2342    244.4740   7.4619820233e+01   9.8373806214e-01    0.2173444   0.09905193 -60.16 0.0008910662    4.422    0.774
        28  -9.0929    212.4732    244.4867   6.6172810535e+01  -6.6515644453e+00    0.1212575   0.09362686  28.17 7.409411e-05    1.036    0.034
        29 -11.9884    248.8486     81.7127   2.6198263352e+01   1.1164326039e+01      1.49879    0.4339113 -32.50  0.004900683    3.412    0.707
        30 -11.6708    244.2856     71.4551   2.4384270215e+01   1.3752027778e+01    0.9256442    0.4791558 -40.71  0.003078097    1.737    0.424
        31  -9.1724    220.3338    241.6617   6.4330760756e+01  -7.5589656672e+00    0.1086628   0.09047934  57.41 0.0007051782    1.746    0.427
        32  -9.9727    212.0109    159.2801   5.0531569898e+01   6.0519621271e+00    0.2125286    0.1846687  34.87  0.001042796    1.117    0.104
        33 -10.5535    235.1604    156.9101   4.5688468486e+01   1.8251455478e+00    0.2496044    0.1822742 -40.45 0.0009342976    1.438    0.305
        34 -10.3242    223.1231    154.3246   4.7326216398e+01   4.6297236823e+00    0.2869275    0.1897493  74.03  0.001158149    2.921    0.658
        35  -9.9758    191.0248    150.0045   5.2714657119e+01   1.2173391904e+01    0.2406042    0.1933955 -88.25  0.001140995    1.746    0.427
        36 -11.2347    211.0448    144.9850   4.7537032896e+01   8.7586119028e+00    0.4680552    0.3060016 -50.18  0.001830964    1.771    0.435
        37 -13.1410    233.7323    118.4211   3.7202236395e+01   8.4828615410e+00     1.197906    0.6611348 -44.31  0.005250498    1.816    0.449
        38 -10.4614    175.7653    135.9904   5.2754685880e+01   1.8297417867e+01    0.6232792    0.2187561 -53.56  0.001537914    5.383    0.814
        39 -11.2179    195.5838    133.1467   4.7859232640e+01   1.4341199974e+01    0.5842182    0.2658489 -41.35  0.002187751    2.215    0.548
        40 -10.6683    227.3072    130.2946   4.1106453297e+01   7.8426091952e+00    0.2918373    0.2105495 -68.53  0.001330912    2.058    0.514
        41  -9.1347    160.0000    130.9924   5.5134931277e+01   2.2901271850e+01    0.2612474   0.09006137 -43.30 0.0008071734    2.975    0.664
        42 -11.0066    214.4617    123.0186   4.1723044737e+01   1.1929015618e+01    0.4256384    0.2985577  81.44  0.001818252    2.221    0.550
        43 -10.7988    224.1780    119.5924   3.9131924963e+01   1.0365020625e+01      0.32646    0.2558897 -87.69  0.001506457    1.769    0.435
        44 -10.4899    235.4855    234.8315   6.0547507828e+01  -9.1157846112e+00    0.2723547    0.1952395 -42.11  0.001722282    1.982    0.495
        45  -9.4648    206.8458    115.7584   4.1382333689e+01   1.4978838710e+01    0.2996176    0.1939635 -60.72  0.001233902    2.073    0.518
        46 -10.4282    223.5950    114.2764   3.7953526333e+01   1.1415195844e+01     0.323466    0.2541085  69.61  0.001616997    1.511    0.338
        47 -10.6964    219.6027    109.1383   3.7400467251e+01   1.3212246105e+01    0.3664656    0.2366432 -46.81  0.001095655    1.582    0.368
        48 -10.4591    224.9293    107.1933   3.5998087560e+01   1.2335297314e+01    0.5054255    0.1883345 -47.17  0.001660385    3.099    0.677
        49  -9.7607    168.9982    104.0077   4.6172358014e+01   2.6288771547e+01    0.3567976    0.1959383 -46.22  0.001384241    1.893    0.472
        50  -9.8080    192.5717    100.9233   4.0369657154e+01   2.1112125955e+01    0.3813131    0.2601384 -80.81  0.001503716    2.308    0.567
        51 -10.2463    204.5211    100.4546   3.7948050712e+01   1.8295286595e+01    0.3341073    0.1493586 -36.06  0.001222194    2.208    0.547
        52 -10.2637    221.7358     98.2628   3.4335343496e+01   1.4597243270e+01    0.4061012    0.1832272 -41.49  0.001563003    2.116    0.527
        53 -10.6443    152.5984     93.1039   4.6960296193e+01   3.2419912730e+01    0.4087554    0.2456404 -51.29  0.001640935    1.848    0.459
        54 -10.7202    217.3822     90.6649   3.3157010261e+01   1.6916514612e+01    0.5216829    0.2780291 -55.68  0.001988872    2.398    0.583
        55  -9.3097    171.4647     88.9604   4.1490581043e+01   2.8573383519e+01    0.2302105    0.1292156 -58.57 0.0008090159    2.495    0.599
        56 -11.5773    226.1648     86.7377   3.0735120472e+01   1.5496780551e+01    0.5293868    0.3573257 -85.87  0.002319488    2.109    0.526
        57 -10.2289    187.2241     86.5538   3.7568395763e+01   2.5056229659e+01    0.5533746    0.3302824 -68.31  0.001961437    2.784    0.641
        58  -9.5201    209.9013     85.3618   3.3067036699e+01   1.9624369663e+01    0.2631275    0.1765486 -30.38 0.0009216362    1.530    0.347
        59  -9.6001    172.0363     80.8082   3.9056549584e+01   2.9925791157e+01    0.3305572    0.2157708 -51.32  0.001399918    1.681    0.405
        60  -9.9559    172.4742     75.2472   3.7363676201e+01   3.0802201962e+01    0.4419586    0.1549605 -35.13  0.001404035    2.924    0.658
        61 -12.1439    215.4725     76.2825   2.9781262990e+01   1.9772304058e+01    0.7801498    0.3442598 -47.20  0.002897782    2.375    0.579
        62  -8.9797    204.6146     73.1937   3.0758501644e+01   2.2968117728e+01    0.2078533    0.1462131 -23.72 0.0007837807    1.589    0.371
        63 -12.4745    220.6004     65.4668   2.6208383543e+01   2.0235915210e+01    0.9593703    0.2490294 -41.96  0.002949809    3.521    0.716
        64 -10.4099    199.7222     61.6895   2.8467454430e+01   2.6049276734e+01     0.696496    0.2561826 -26.31  0.002150748    3.617    0.724
        65  -9.7475    159.4819     68.5220   3.8145253028e+01   3.5276156219e+01    0.1552487    0.1500983  45.70 1.130991e-05    1.013    0.013
        66  -9.0040    219.2218    234.2336   6.3344165489e+01  -6.4792697160e+00    0.1635769   0.09519006 -45.44 0.0008806434    2.449    0.592
        67  -9.9005    209.5302     57.5525   2.5802917947e+01   2.4193547048e+01    0.2980307    0.1426501 -33.17   0.00118815    2.093    0.522
        68 -10.6438    143.4422     56.4718   3.8014397266e+01   4.1312655157e+01    0.3769358    0.2120825 -49.51  0.001511821    2.109    0.526
        69  -9.7156    131.4887     56.4933   4.0929634535e+01   4.4207189143e+01    0.1497787    0.1441464  31.17 0.0008104389    1.023    0.023
        70  -9.4039    160.7442     55.5949   3.3919891673e+01   3.7082199202e+01    0.2193981     0.145639  69.43 0.0009502837    1.649    0.394
        71  -9.3664    187.7534     52.7473   2.7981464635e+01   3.0504028963e+01    0.3052584    0.2258827  35.38  0.001448169    1.556    0.357
        72 -10.3681    209.5283     51.5257   2.4207417253e+01   2.5087588003e+01    0.2997251    0.1422323 -32.23  0.001107065    2.139    0.533
        73  -9.5599    202.1549     42.0986   2.2756261244e+01   2.8303909808e+01    0.2273602    0.1994226  33.84  0.001237391    1.314    0.239
        74 -12.2328    246.7323     98.0887   3.0345811718e+01   9.0369033380e+00     1.997721    0.5868092 -45.18  0.006317624    3.627    0.724
        75  -9.3746    178.4942     35.5079   2.4535025368e+01   3.5344259615e+01     0.298122    0.1480363 -28.40  0.001215508    2.184    0.542
        76 -10.2335    147.2750     34.9606   3.0115358758e+01   4.3510126058e+01    0.4366814    0.1322979 -28.50  0.001393975    3.575    0.720
        77 -10.2070    167.7814     32.9224   2.5568444692e+01   3.8482135160e+01     0.437577    0.1961727 -27.01  0.001702261    2.465    0.594
        78 -11.3694    218.4216     29.0896   1.7236087684e+01   2.5900949698e+01    0.4543073    0.2788038 -29.75  0.002227945    1.738    0.425
        79  -9.4699    186.4076     30.2110   2.1764173486e+01   3.3951759716e+01    0.2079372     0.125232 -43.76 0.0009503988    1.710    0.415
        80 -13.0976    240.2621    145.4845   4.2284779072e+01   2.6672546324e+00    0.8848156    0.7623584  86.02  0.004922337    1.643    0.391
        81  -9.5479    226.1834    226.5976   6.0823973175e+01  -6.6505785036e+00    0.2121001   0.09063885 -37.19  0.001017463    2.688    0.628
