#   1 NUMBER                 Running object number                                     
#   2 MAG_AUTO               Kron-like elliptical aperture magnitude                    [mag]
#   3 X_IMAGE                Object position along x                                    [pixel]
#   4 Y_IMAGE                Object position along y                                    [pixel]
#   5 X_WORLD                Barycenter position along world x axis                     [deg]
#   6 Y_WORLD                Barycenter position along world y axis                     [deg]
#   7 A_WORLD                Profile RMS along major axis (world units)                 [deg]
#   8 B_WORLD                Profile RMS along minor axis (world units)                 [deg]
#   9 THETA_WORLD            Position angle (CCW/world-x)                               [deg]
#  10 FWHM_WORLD             FWHM assuming a gaussian core                              [deg]
#  11 ELONGATION             A_IMAGE/B_IMAGE                                           
#  12 ELLIPTICITY            1 - B_IMAGE/A_IMAGE                                       
         1 -14.4309    155.3555     53.4718   2.9027463027e+02   6.2665551460e+00   0.05892928   0.05000544 -34.51  0.001139382    1.213    0.176
         2 -14.6543    167.1597     37.7391   2.9004255391e+02   6.3805068545e+00   0.06035872   0.04293039 -45.06  0.004389811    1.415    0.293
         3 -14.2496    182.0240      5.9360   2.8967809508e+02   6.6627937865e+00   0.04697401   0.04107694  19.72  0.004268947    1.161    0.138
         4 -10.9772     25.5898    223.1431   2.9280096516e+02   5.0452704265e+00   0.01381847  0.006949468 -38.78  0.001173242    2.342    0.573
         5 -18.9563     76.7214    237.3624   2.9229044201e+02   4.5851804056e+00    0.4485925    0.4323007 -18.81   0.05380044    1.043    0.042
         6 -13.6770    167.0713    191.3358   2.9096452498e+02   4.5976733421e+00   0.03052831   0.02158185  71.27  0.003128777    1.779    0.438
         7 -12.6643    180.2390    192.5966   2.9081891971e+02   4.5067174617e+00    0.0196692    0.0141226  79.19 0.0005878088    1.753    0.429
         8 -12.8690    176.7683    188.4388   2.9083440968e+02   4.5751353857e+00   0.02125895   0.01529397 -85.37  0.001937481    1.643    0.391
         9 -11.0491     20.4622    219.2766   2.9283767232e+02   5.1197555309e+00  0.009330936  0.007407982  31.03 0.0008191753    1.258    0.205
        10 -10.2850      7.9260    196.2965   2.9284698533e+02   5.4591377455e+00    0.0089761  0.008316769 -14.34 0.0006273941    1.111    0.100
        11 -13.2104    175.1721    194.0493   2.9088653501e+02   4.5192078371e+00   0.02254052   0.01864734 -87.17  0.001411772    1.334    0.250
        12 -10.9113     16.5767    217.6028   2.9287296144e+02   5.1615850375e+00  0.006827529  0.005929213 -27.00  0.000789363    1.203    0.169
        13 -11.4173     22.4461    232.6725   2.9289421910e+02   4.9525549933e+00   0.01016036   0.00630523 -47.70  0.001007251    1.603    0.376
        14 -10.1287     26.5304    228.7860   2.9282357044e+02   4.9742358920e+00   0.02782251  0.009856159 -48.48  0.002113216    2.804    0.643
        15 -12.6082    183.6533    186.5443   2.9074300333e+02   4.5572337836e+00   0.02071819   0.01688477  22.41   0.00156229    1.245    0.197
        16 -10.5793     13.4942    211.5178   2.9287267034e+02   5.2500879414e+00  0.007196312    0.0057236 -28.49 2.733533e-05    1.357    0.263
        17 -13.6698    206.4147    179.9962   2.9043915481e+02   4.5012783389e+00   0.03965716   0.02452195   9.95  0.003070064    1.944    0.486
        18 -13.1722    196.9901    173.0533   2.9050715314e+02   4.6365904315e+00   0.03922908   0.02197701 -78.90  0.002529036    2.310    0.567
        19 -10.1682    120.6827    183.3599   2.9145665180e+02   4.9589309533e+00   0.01236177  0.007198752  57.36  0.001110179    2.203    0.546
        20 -11.7721    115.6663    179.2258   2.9149035044e+02   5.0359965635e+00   0.03195747   0.01349355  54.35   0.00216627    3.952    0.747
        21 -10.0534     27.8108    184.1783   2.9254318494e+02   5.4855788073e+00  0.008666115  0.007254581  -9.99 0.0003861125    1.305    0.233
        22 -11.9930    110.2774    208.4715   2.9172771467e+02   4.7272280404e+00   0.01853338    0.0150582  10.92 0.0007494634    1.304    0.233
        23 -12.1447    177.4975    169.9900   2.9071552029e+02   4.7852235930e+00   0.01714599  0.009883799 -54.73  0.001669651    1.668    0.400
        24 -13.3987    137.9723    171.0366   2.9118172408e+02   5.0020791726e+00   0.03112136    0.0249028  52.92  0.003536682    1.337    0.252
        25 -11.8025    126.2515    172.1461   2.9132480099e+02   5.0570328715e+00   0.01372497   0.01153664 -86.35  0.001218674    1.299    0.230
        26 -12.3340    113.0161    169.7494   2.9146458018e+02   5.1614632169e+00   0.01989434   0.01490461 -35.96   0.00106081    1.413    0.292
        27 -13.0114    144.8131    168.3323   2.9108592242e+02   4.9938884799e+00   0.02444818   0.01788096  66.57  0.002583558    1.641    0.390
        28 -11.1054    202.4358    166.4409   2.9040422719e+02   4.6817882277e+00   0.01567074  0.009175859  63.46  0.001371938    2.418    0.586
        29 -10.6324     22.5800    166.6749   2.9249984846e+02   5.7192254596e+00   0.01177648  0.007894151   7.46 0.0009181302    1.752    0.429
        30 -19.1917     60.5115    105.0924   2.9168988663e+02   6.2162825051e+00    0.8495193   0.05231651 -62.93   0.02666189   16.578    0.940
        31 -11.2796    223.9300    164.3062   2.9014156395e+02   4.5818049927e+00   0.01370218  0.009489112 -87.31 0.0007621703    1.777    0.437
        32 -11.4882    130.2153    161.4036   2.9121441575e+02   5.1589257255e+00   0.01248348   0.00895761  55.94   0.00048136    1.573    0.364
        33 -13.0390    163.6793    204.6052   2.9108331534e+02   4.4631502289e+00    0.0321805   0.01551023 -74.04  0.002622147    2.646    0.622
        34 -11.1267    158.8343    205.6181   2.9114572172e+02   4.4794401952e+00   0.01540391   0.01124313  49.59  0.001513261    1.466    0.318
        35 -10.9153    237.5093    159.4782   2.8995481788e+02   4.5589855349e+00  0.006543789  0.006454612  68.33 0.0003190748    1.037    0.035
        36 -12.4934    164.5022    157.1192   2.9078966593e+02   5.0100782110e+00   0.01611604   0.01193632 -41.13 0.0009391654    1.386    0.279
        37 -13.9443    136.0130    126.7375   2.9093941640e+02   5.5281145195e+00   0.07578295   0.01770544 -66.26  0.004079302    5.758    0.826
        38 -12.2486    128.2912    143.1467   2.9112759271e+02   5.3822012982e+00   0.01576251   0.01003469  29.54 0.0008454044    1.558    0.358
        39 -10.3077     30.6625    204.9943   2.9263391768e+02   5.2271023186e+00  0.009158102  0.007933538 -16.13  0.001069244    1.231    0.188
        40 -11.5432     15.1681    150.6153   2.9249051870e+02   5.9486195384e+00   0.01121411   0.00879998 -37.58 0.0004789211    1.320    0.242
        41 -12.0268    174.2365    149.2507   2.9062926788e+02   5.0450360611e+00   0.01546956   0.01369349   9.98 0.0009635359    1.167    0.143
        42 -11.9099    151.2775    149.8481   2.9090005888e+02   5.1711964535e+00   0.01459196   0.01114317  71.29  0.001203085    1.553    0.356
        43 -14.0849    143.5992    143.5261   2.9095160209e+02   5.2891305662e+00   0.04302891   0.02490956 -85.41  0.003763446    2.450    0.592
        44 -12.9719      6.8768    139.4970   2.9252090698e+02   6.1255975097e+00   0.02706444   0.01894641  22.65  0.002018881    1.463    0.317
        45 -12.0873     23.9212    140.8405   2.9233016311e+02   6.0118459782e+00   0.01627544  0.009336768  24.46  0.001178241    1.782    0.439
        46 -11.0397    168.9929    202.6906   2.9101007265e+02   4.4546165277e+00  0.009251851  0.008555127  29.73 0.0003649135    1.087    0.080
        47 -10.4924    151.3102    135.2976   2.9081254606e+02   5.3400352412e+00  0.006882249  0.004937689 -27.18 0.0002182942    1.597    0.374
        48 -10.7476    125.4355    249.1621   2.9179407271e+02   4.1666526042e+00   0.01596067  0.004534659 -53.09 0.0006642967    3.123    0.680
        49 -12.2000     13.4084    143.5785   2.9246907841e+02   6.0405553840e+00   0.01173653   0.01037529 -27.06 0.0006861024    1.171    0.146
        50 -12.9648      2.5582    125.9912   2.9249072753e+02   6.3074407796e+00   0.02937219   0.01256239 -52.06  0.002494388    2.216    0.549
        51 -12.3894    160.9166    127.5689   2.9065439762e+02   5.3741096587e+00   0.01982581    0.0149876 -73.84  0.002178939    1.408    0.290
        52 -13.0553     19.3317    127.5993   2.9230467174e+02   6.1921942110e+00   0.02249593   0.01553617 -43.61  0.002193832    1.474    0.322
        53 -11.7391    168.8859    114.5930   2.9048383521e+02   5.4785717859e+00   0.02540305   0.01464198  70.40   0.00167044    2.773    0.639
        54 -14.1302    133.9971    145.5316   2.9107541598e+02   5.3214515562e+00   0.06302126   0.02213785 -71.10  0.004066804    4.163    0.760
        55 -12.4238      3.7776    112.3308   2.9239499086e+02   6.4591920816e+00   0.02054638   0.01521435  10.88  0.002228471    1.476    0.323
        56 -10.4263    140.5829    199.5321   2.9132167587e+02   4.6558275059e+00   0.01160141  0.008169236  24.37 9.351641e-05    1.441    0.306
        57 -12.2917    117.6165    108.7979   2.9104629324e+02   5.8430471060e+00   0.01729674  0.007706685 -42.31  0.001400395    2.536    0.606
        58 -12.5892     92.1120    109.5158   2.9134786880e+02   5.9822908593e+00   0.01362567   0.01236812  -9.88   0.00140595    1.147    0.129
        59 -11.1726     15.4092    109.5518   2.9224268560e+02   6.4245316120e+00     0.018431  0.007090657  15.28  0.001205776    4.074    0.755
        60 -10.4167    143.5216    106.4703   2.9073051734e+02   5.7199979220e+00  0.006533696  0.006454728  68.27 0.0008092978    1.034    0.033
        61 -11.0230    205.5224    110.2420   2.9003136331e+02   5.3163646140e+00   0.01398478   0.01093686  11.14 0.0009802904    1.372    0.271
        62 -10.8760    140.2074    249.3145   2.9162321662e+02   4.0794709450e+00    0.0141784     0.010482 -58.47 0.0008097712    1.326    0.246
        63 -11.1951    101.0135     98.2828   2.9117683249e+02   6.0612842067e+00   0.01244455  0.009350054  75.62  0.001322587    1.611    0.379
        64 -10.0063     13.6538    244.3807   2.9306611575e+02   4.8670055015e+00   0.02715476  0.004319771 -53.96  0.001595478    4.557    0.781
        65 -10.5171    137.6748    198.3962   2.9134872657e+02   4.6858594037e+00   0.01934296   0.01033585  65.59  0.001496538    3.167    0.684
        66 -12.8290    170.8157     30.5359   2.8995665494e+02   6.4427972931e+00   0.02020543   0.01565447 -43.10  0.000948611    1.303    0.233
        67 -10.5627     13.4204     59.8628   2.9196889825e+02   7.0132023989e+00   0.01071062  0.008853241  41.47 0.0004264323    1.230    0.187
        68 -10.8640    138.0038     31.3570   2.9034403897e+02   6.6237952357e+00    0.0154352  0.008390222  43.64  0.001367269    1.929    0.482
