#   1 NUMBER                 Running object number                                     
#   2 MAG_AUTO               Kron-like elliptical aperture magnitude                    [mag]
#   3 X_IMAGE                Object position along x                                    [pixel]
#   4 Y_IMAGE                Object position along y                                    [pixel]
#   5 X_WORLD                Barycenter position along world x axis                     [deg]
#   6 Y_WORLD                Barycenter position along world y axis                     [deg]
#   7 A_WORLD                Profile RMS along major axis (world units)                 [deg]
#   8 B_WORLD                Profile RMS along minor axis (world units)                 [deg]
#   9 THETA_WORLD            Position angle (CCW/world-x)                               [deg]
#  10 FWHM_WORLD             FWHM assuming a gaussian core                              [deg]
#  11 ELONGATION             A_IMAGE/B_IMAGE                                           
#  12 ELLIPTICITY            1 - B_IMAGE/A_IMAGE                                       
         1 -13.9529     25.0798     47.7718   1.0817042872e+02   6.5344426170e+01     1.701045    0.7000142 -50.61  0.007723826    2.047    0.511
         2 -15.4648      9.1489     25.7553   1.1022318502e+02   7.1590547663e+01      2.93976     1.036381 -57.77   0.01357974    2.099    0.524
         3 -13.3813     30.5460     10.6655   8.9996300303e+01   7.2627077630e+01     1.632504    0.5252969 -42.30  0.006541325    2.723    0.633
         4 -14.6874     37.2067     81.7819   1.1087590279e+02   5.6087165960e+01     2.673441     1.034686 -54.29   0.01138958    2.275    0.560
         5 -14.8311     96.6231     71.3399   8.7237767971e+01   4.9423478111e+01     1.817288     1.302625  16.01  0.001811365    1.954    0.488
         6 -14.7679     79.3844     69.9802   9.2476289444e+01   5.2951466342e+01     3.291021     1.864985 -24.81   0.01200779    3.184    0.686
         7 -14.5641     60.6671     71.4355   9.9635442167e+01   5.5629655107e+01     1.472389     1.184081  36.57  0.005576138    1.351    0.260
         8 -14.9423     43.4903     43.2988   9.7937851883e+01   6.4347082351e+01     2.332723     1.383091 -45.51  0.007716402    1.514    0.340
         9 -14.6902     70.1426     56.5564   9.1440734356e+01   5.7471557163e+01     1.502278     1.313138 -28.36  0.005462284    1.172    0.147
        10 -11.8413     73.1925      1.5439   6.4370262729e+01   6.6301540415e+01    0.2847148    0.1718107  56.39 0.0005052419    1.685    0.407
        11 -13.0589     83.6616     22.6077   7.2204542625e+01   6.1197188047e+01    0.6167178    0.5362668  59.78 0.0006316665    1.270    0.213
        12 -13.3760    121.9735     10.5171   5.6501254098e+01   5.3412387817e+01      1.43861    0.5331576  59.49  0.002928114    2.416    0.586
        13 -14.6930     86.6247      7.0769   6.3291779085e+01   6.2615631763e+01     2.901725     1.043617  56.00   0.01099839    2.597    0.615
        14 -11.6022    150.0393     21.1039   5.5778479272e+01   4.4789716938e+01    0.5452549    0.3614955  11.60   0.00240979    1.905    0.475
        15 -12.3796     75.6674     13.4589   7.0269572532e+01   6.4260419672e+01     0.340382     0.328126  69.26 0.0008833316    1.203    0.169
        16 -12.7337    186.0380     11.8068   4.7843225804e+01   3.6212921058e+01    0.5849323    0.4831094  77.70   0.00314689    1.217    0.178
        17 -12.2474    192.9086      6.1260   4.5391296636e+01   3.4971010344e+01    0.5498854    0.3867443 -28.98  0.002065877    1.353    0.261
        18 -11.5976    188.4269      5.5508   4.5619200012e+01   3.6176578032e+01     0.298638    0.2616669 -22.65 0.0009661043    1.153    0.132
        19 -11.7064     64.5388     17.9185   7.6936232317e+01   6.5858492490e+01    0.4447753    0.3274911  29.33  0.001334807    1.432    0.301
        20 -11.8409    175.6974     13.5022   4.9533869214e+01   3.8756718632e+01    0.4545327    0.2931352  14.38   0.00204826    1.978    0.494
        21 -10.9055    150.4361      8.7238   5.1052266110e+01   4.5988097538e+01    0.3383895    0.2953194  71.66  0.001121195    1.122    0.109
        22 -11.9734    137.5125      5.3942   5.1637083976e+01   4.9785965619e+01    0.5349967    0.3827332  81.98  0.001641891    1.457    0.314
        23 -11.1874    142.0629      2.5350   4.9819450897e+01   4.8816899858e+01     0.387958    0.2707443 -86.86   0.00138262    1.559    0.358
        24  -9.4405     48.6992      7.3071   7.7957441223e+01   7.0416264959e+01    0.1681394    0.1578042 -17.66  0.000376409    1.147    0.128
        25 -10.4000     49.5065      4.4654   7.5771701659e+01   7.0695150338e+01    0.2469582    0.2112684 -31.07  0.000882382    1.182    0.154
        26 -11.9022    213.9142    142.1911   7.8804941100e+01   1.2627542325e+01    0.7741681    0.3304652  48.35  0.003442653    2.436    0.589
        27 -11.6245     75.9807    141.2619   1.0881936149e+02   3.7385755853e+01    0.3699688    0.2266647  79.10  0.001798147    2.037    0.509
        28 -11.6321    193.8582    137.1278   8.1251671219e+01   1.7052731398e+01     0.430456    0.3617421   5.86  0.002577272    1.126    0.112
        29 -11.8522     76.5087    137.0113   1.0804781097e+02   3.8235553228e+01    0.3354978    0.1895662 -64.30  0.001668856    1.782    0.439
        30 -11.6266     34.3646    135.9088   1.1927928049e+02   4.3631618434e+01    0.3473046    0.1538607  34.18   0.00172888    2.169    0.539
        31 -10.8466     82.4284    134.3029   1.0604807618e+02   3.7957264306e+01    0.2607707      0.11992 -55.64  0.001148595    2.190    0.543
        32 -11.9686    223.1159    132.6214   7.5278050129e+01   1.2226536455e+01    0.5419869    0.3334496 -31.94  0.002936241    1.579    0.367
        33 -12.3519    199.1332    129.1488   7.8562128307e+01   1.7212713430e+01    0.7257448    0.2953988 -33.72  0.003008185    2.437    0.590
        34 -13.1769    204.4226    124.3821   7.6567293765e+01   1.6873350857e+01    0.8004259    0.6693087 -32.90  0.004739755    1.248    0.199
        35 -10.2044     21.8062    133.8244   1.2249701789e+02   4.5277172817e+01    0.1762706    0.1167859  68.30  0.001075586    1.322    0.243
        36 -10.0393     64.9812    130.2661   1.1016150643e+02   4.1332722822e+01    0.2836186    0.1521262  81.45  0.001189592    2.689    0.628
        37 -11.1156    122.1452    127.3674   9.4505931775e+01   3.2687106988e+01    0.4045287    0.2951775  47.75  0.001585994    1.314    0.239
        38 -13.5106    219.2594    121.7354   7.3502309255e+01   1.4380521660e+01    0.9514492    0.5595221  55.22  0.004733625    2.019    0.505
        39 -10.2494    249.6840    249.3451   9.0965225538e+01  -3.6040000756e+00   0.08107084   0.06777301  27.54 0.0004952071    1.718    0.418
        40 -10.6798    194.9931    248.7523   9.9106120337e+01   3.1207059186e+00    0.1423475   0.06370361  35.88 0.0008929599    1.612    0.380
        41 -10.9702    187.3574    197.6840   9.3489099470e+01   9.8140313649e+00    0.1685676    0.1405095  61.82  0.001128549    1.727    0.421
        42  -9.6040    178.3277    184.6906   9.3071085795e+01   1.2946605491e+01    0.1138058   0.09327607  62.96 0.0004728079    1.660    0.398
        43 -10.5003    144.5035    181.5111   9.9124400835e+01   1.8942921284e+01    0.1256214    0.1066186  37.75 -3.610985e-05    1.014    0.014
        44 -10.5409     34.4102    177.2578   1.2260125055e+02   3.4905021802e+01    0.2167749    0.1396192  16.35  0.001295324    2.189    0.543
        45 -11.9254    141.8220     96.8609   8.2421113872e+01   3.4700246275e+01    0.6311854     0.416881 -17.74  0.002700577    2.072    0.517
        46 -10.2688    133.5130     99.4930   8.5126200537e+01   3.5988137663e+01    0.2675399    0.2597696  30.50 0.0008409433    1.028    0.028
        47 -11.3587    136.6835     97.6721   8.3868811276e+01   3.5662693062e+01    0.2704274    0.2519035 -12.21  0.001073993    1.126    0.112
        48 -11.8975    203.3747    171.8888   8.6369925930e+01   1.0542458096e+01    0.3390833     0.250912  -0.00  0.002119995    1.331    0.249
        49 -10.8976    114.0771     97.1361   8.9547551899e+01   4.0493189088e+01    0.3319051    0.2708949 -75.47 0.0009375625    1.409    0.290
        50 -10.6213      2.6471    171.3370   1.2928787627e+02   3.8932576483e+01    0.1877945   0.08498891  59.44  0.001117996    1.720    0.419
        51 -10.5522    188.5444     94.4224   7.2088962728e+01   2.4678937984e+01    0.2793359    0.2346959 -51.68 0.0009834749    1.330    0.248
        52 -10.4252    135.6400     92.2760   8.2658973234e+01   3.6931839037e+01     0.150923    0.1190316  87.86 0.0003442293    1.660    0.397
        53 -10.6496    117.3564     90.4839   8.6871218167e+01   4.1204107032e+01    0.2624058    0.1392955 -45.05  0.001076706    1.877    0.467
        54 -13.1812      5.9616     82.5641   1.2264939312e+02   5.8408821821e+01     1.045912    0.4572656 -60.72  0.005253807    1.932    0.482
        55 -12.4057      8.4412     65.1979   1.1942188906e+02   6.2425030129e+01    0.5281918    0.3058624 -71.99  0.002567721    1.403    0.287
        56 -11.9918      2.9424     74.0029   1.2283217567e+02   6.0620307013e+01    0.6113102    0.2486216 -67.53  0.003009868    1.914    0.477
        57 -12.1488      2.1574     66.7468   1.2227175437e+02   6.2392800442e+01    0.5575712    0.2669279 -80.68   0.00274675    1.756    0.431
        58 -10.2618    250.0435     86.4846   6.0995300282e+01   1.2968981913e+01    0.2533016      0.16418  -8.85  0.001370642    1.534    0.348
        59 -11.8718    128.0378     81.9009   8.1592035393e+01   4.0620786576e+01    0.3777728    0.3631552 -63.98  0.001362806    1.065    0.061
        60 -13.1189    117.7736     67.2810   7.9731187644e+01   4.5742272871e+01    0.6574845    0.3956711 -30.83  0.002169277    1.820    0.451
        61 -13.2446    120.6954     80.6554   8.3144015736e+01   4.2481881382e+01    0.7443165    0.4187033  42.82  0.003130894    1.831    0.454
        62 -13.2475    119.4769     73.3253   8.1219841194e+01   4.4193583520e+01     0.948225      0.52448  28.30  0.001016914    2.812    0.644
        63 -10.3005    148.7156     80.5201   7.6216771537e+01   3.6148914025e+01    0.3489859    0.2428149  -1.44 0.0008948567    2.060    0.515
        64 -11.2759     18.1242     78.3114   1.1751216163e+02   5.8626087265e+01    0.2245204     0.145492 -63.63 0.0005723129    1.319    0.242
        65 -12.4409    143.9841     75.1384   7.5671782704e+01   3.8219555246e+01    0.5002895    0.3564151 -27.17  0.001048256    1.481    0.325
        66 -10.0394    182.6930     72.0153   6.6962879436e+01   2.9458984977e+01     0.200249    0.1809994 -23.66  0.000505835    1.065    0.061
        67  -9.5146    161.9979     71.9422   7.0818253283e+01   3.4453780009e+01      0.17578    0.1702286  39.96 0.0002980729    1.045    0.043
        68 -10.3296    153.2845     72.6087   7.2831387640e+01   3.6444133377e+01     0.218001    0.1379169  44.08 0.0009483398    1.622    0.384
        69 -11.0712    146.8034     65.3429   7.1958875500e+01   3.9246790553e+01    0.3575743    0.2608343 -17.84 0.0006626389    1.539    0.350
        70 -10.6922    214.2196     61.7922   5.9277603953e+01   2.3492414897e+01    0.3586502     0.210496 -18.53  0.001652115    1.728    0.421
        71 -10.5288    169.2653     63.0553   6.6697554198e+01   3.4083310236e+01    0.4149383    0.1994293  55.81  0.001631604    2.084    0.520
        72 -12.6248    124.8436     57.5319   7.4543764252e+01   4.5902112371e+01    0.3794858    0.3396881  52.92 0.0007016845    1.134    0.118
        73 -12.0521     58.3771     57.2943   9.6286781360e+01   5.9182427096e+01    0.3222963    0.2281827 -57.65 0.0008805626    1.336    0.251
        74  -9.7520    227.1503     57.1171   5.6412547833e+01   2.1177943397e+01    0.1844992    0.1504962 -56.03 0.0004615913    1.315    0.239
        75 -11.0752    174.7130     56.5346   6.3706185829e+01   3.3699237029e+01    0.2570388    0.2440695 -36.90 0.0004009359    1.034    0.033
        76 -11.8785    134.0319     53.8522   7.1002470748e+01   4.4309267031e+01    0.6206845     0.327363  63.39  0.001527294    2.187    0.543
        77 -10.6287    155.4981     52.3396   6.5876898960e+01   3.9168227529e+01    0.2855951    0.1542814  65.57 0.0008765879    2.063    0.515
        78 -11.2484    145.3861     50.6121   6.7343764866e+01   4.1995794620e+01    0.3158645    0.3018831 -40.40 0.0007478365    1.043    0.041
        79 -10.3469    119.4984     49.1405   7.2894777042e+01   4.8634887311e+01    0.2305316    0.1480477 -32.92  0.001017139    1.548    0.354
        80 -10.1461    137.4145     48.3140   6.8264419839e+01   4.4365592744e+01     0.251258    0.1896219 -89.53 0.0006026285    1.683    0.406
        81 -11.3808    198.1357    168.0856   8.6601659498e+01   1.1915627003e+01    0.2819232     0.165264  44.16  0.001532804    1.640    0.390
        82 -10.2213    176.7268     45.4621   5.9888115659e+01   3.4734597501e+01    0.3445442    0.2393988   6.39  0.001551476    1.824    0.452
        83 -11.2059    157.1925     43.7650   6.2654683023e+01   3.9990585692e+01    0.3063659    0.2616145  40.78 0.0005661726    1.206    0.171
        84 -11.4689    122.1916     43.6411   7.0131760195e+01   4.8894366988e+01    0.3379371    0.2757044  13.11 0.0009877112    1.401    0.286
        85 -10.5118    139.0586     43.4974   6.6165824611e+01   4.4692400451e+01    0.4657566    0.2583875  73.68  0.001246114    2.377    0.579
        86 -10.2734    181.8005     43.2764   5.8418188979e+01   3.3732101910e+01    0.2393455    0.2033797  61.30 0.0003569028    1.210    0.174
        87 -11.8566    217.3830     38.6018   5.2499358374e+01   2.5575642005e+01    0.4662518    0.2814257  50.44 0.0009530903    1.793    0.442
        88 -10.1695    196.8978     41.1282   5.5658847107e+01   3.0214938659e+01    0.2251092    0.1840212 -52.62 0.0005927034    1.232    0.188
        89 -10.7186    204.8162     36.9768   5.3454064685e+01   2.8765804851e+01    0.2786196    0.2454155  79.44  0.001019876    1.208    0.172
        90  -9.0325    130.3082     37.2949   6.5768728838e+01   4.7844454047e+01    0.1550384    0.1141097  24.61 0.0002105362    1.587    0.370
        91 -10.2718    160.0384     36.2762   5.9571149136e+01   4.0271386872e+01    0.2133185    0.1887999  40.94 0.0003044961    1.161    0.139
        92 -12.1931     82.6816     33.7188   7.7735378310e+01   5.9588896436e+01    0.5005518    0.3664291  23.93  0.001279292    1.583    0.368
        93 -12.7122     79.2997     31.2391   7.7819830190e+01   6.0715326676e+01     0.570963    0.5083607 -17.07  0.002483841    1.083    0.076
        94  -9.5458    240.4994     34.4492   4.9131936124e+01   2.0824695065e+01    0.1300463    0.1155863 -28.58 0.0001982459    1.037    0.036
        95 -11.1574    176.6963     33.3752   5.5991536697e+01   3.6290214504e+01    0.2785953     0.259298  55.82 0.0003514011    1.100    0.091
        96 -10.1137     96.8526     33.7730   7.3112687416e+01   5.6497742507e+01    0.2179047    0.1953983  15.04 0.0005834315    1.145    0.126
        97  -9.6232    152.3556     32.2976   5.9496397345e+01   4.2807862579e+01    0.1607054    0.1094745  31.69 0.0007034963    1.698    0.411
        98  -9.4144    216.4910     28.4475   4.9751233804e+01   2.6909474383e+01    0.1347045    0.1269616 -27.50 0.0002246924    1.055    0.052
        99 -10.8321    185.4823    167.1541   8.8730881594e+01   1.4202217042e+01    0.2004439    0.1671442  48.07 0.0004689511    1.333    0.250
       100 -12.0993    216.2973    160.9897   8.2146229611e+01   9.7811092272e+00    0.6058569    0.3096002  -4.13  0.002509341    3.338    0.700
       101 -10.7998    240.0107    158.4766   7.7893781510e+01   6.2267715020e+00    0.2291529    0.1617565 -24.63  0.001467208    1.383    0.277
       102 -11.7452    199.5254    156.4973   8.4172152224e+01   1.3247882704e+01    0.2532725    0.1879759   1.54  0.001224365    1.371    0.270
       103 -11.4940    241.8639     22.9132   4.6062948461e+01   2.1711067764e+01    0.3719537    0.2559062 -54.13  0.001125491    1.406    0.289
       104 -11.5109    198.4958    153.4945   8.3769126298e+01   1.3845759465e+01    0.2425698     0.184525  35.64  0.001125837    1.216    0.178
       105 -12.0557    233.3874    153.9261   7.8028317774e+01   7.8148393202e+00    0.3402534    0.2355515  24.14   0.00156788    1.301    0.231
       106 -10.4104    139.4551     20.9901   5.7552271116e+01   4.7622614470e+01    0.2847192    0.2192392  65.42 0.0006238433    1.290    0.225
       107 -10.5614    208.8473     18.9208   4.7765382742e+01   2.9745717566e+01    0.3261783    0.2007425 -34.85  0.001396289    1.460    0.315
       108 -11.2862    190.7766    154.1044   8.5291216272e+01   1.5139634119e+01    0.3743874    0.3074344 -60.92  0.002199525    1.760    0.432
       109 -11.4648     18.9391    153.7952   1.2466892727e+02   4.1174516639e+01    0.2118773    0.1661579  10.87  0.001434515    1.759    0.431
       110 -12.8316    247.5415    143.9793   7.3931609547e+01   6.6679963221e+00     1.068689    0.5621098 -26.07  0.005893608    1.718    0.418
       111 -10.4571     29.8506    153.3659   1.2196395287e+02   4.0257163139e+01    0.1760366    0.1279158  74.68  0.001153603    1.157    0.135
       112 -10.0410    138.7492    152.4202   9.5511814804e+01   2.4861483547e+01    0.1905875    0.1191621  32.80 0.0005609519    1.599    0.374
       113 -11.4906     58.8048    144.6188   1.1374322649e+02   3.8945316400e+01    0.6145741    0.3534204  56.55  0.003245936    1.672    0.402
       114 -11.9821     51.5191    141.4448   1.1527763085e+02   4.0525576957e+01    0.5578523    0.2870914 -75.63  0.002663685    1.918    0.479
       115 -12.8408     47.0092    142.3622   1.1656999676e+02   4.0844096738e+01    0.5300345    0.4527581  68.21  0.003405097    1.039    0.038
       116 -10.0333     90.4552    145.4967   1.0575203431e+02   3.4342987155e+01    0.1318044    0.1188435  64.81 0.0001309941    1.004    0.004
