#   1 NUMBER                 Running object number                                     
#   2 MAG_AUTO               Kron-like elliptical aperture magnitude                    [mag]
#   3 X_IMAGE                Object position along x                                    [pixel]
#   4 Y_IMAGE                Object position along y                                    [pixel]
#   5 X_WORLD                Barycenter position along world x axis                     [deg]
#   6 Y_WORLD                Barycenter position along world y axis                     [deg]
#   7 A_WORLD                Profile RMS along major axis (world units)                 [deg]
#   8 B_WORLD                Profile RMS along minor axis (world units)                 [deg]
#   9 THETA_WORLD            Position angle (CCW/world-x)                               [deg]
#  10 FWHM_WORLD             FWHM assuming a gaussian core                              [deg]
#  11 ELONGATION             A_IMAGE/B_IMAGE                                           
#  12 ELLIPTICITY            1 - B_IMAGE/A_IMAGE                                       
         1 -12.9100     42.5305     20.8175   1.0105082889e+02   6.7910758498e+01    0.6635353    0.3859112  12.66  0.003386621    2.022    0.505
         2 -12.7386    216.7165     15.0596   5.4474708497e+01   2.8625947046e+01    0.7321352    0.6068188  72.54  0.002714776    1.203    0.169
         3 -13.4872    189.6905      8.6733   5.5536165139e+01   3.6099034635e+01    0.9626218    0.4692616  86.13  0.003817595    2.490    0.598
         4 -12.0119     58.3401      7.8713   8.6788282924e+01   6.7701125373e+01    0.5722156    0.5544764  62.22  0.003737122    1.543    0.352
         5 -11.9105     43.8613      8.6177   9.4229833486e+01   6.9805682061e+01    0.3029626     0.238116  19.67 0.0009328981    1.279    0.218
         6 -10.5395     67.9623      6.7905   8.2078932923e+01   6.6143505124e+01    0.3501616    0.1461585  38.25  0.001446939    2.333    0.571
         7 -11.8646    166.6226      2.0603   5.6258529390e+01   4.2773389748e+01    0.6258897    0.1945847  66.48  0.002192586    2.760    0.638
         8 -10.3990      6.1729    235.6809   1.4223153900e+02   2.6211653161e+01    0.1547035   0.09111496  71.06  0.000556383    1.287    0.223
         9 -10.8081     12.6990    227.4482   1.4090173211e+02   2.6975281637e+01    0.1780341    0.1262591  67.53 0.0005449782    1.060    0.057
        10 -10.2565    104.4837    224.9464   1.2409959179e+02   1.7058668150e+01    0.1482618    0.1123015 -67.21  0.001038792    1.610    0.379
        11 -10.5336     95.2990    224.9995   1.2585600682e+02   1.8282028765e+01    0.2525219   0.09455407  52.83  0.001182623    2.682    0.627
        12 -10.6535    149.3246    223.0287   1.1526986280e+02   1.0863837642e+01    0.2115309    0.1575246 -60.92  0.001385749    1.868    0.465
        13  -9.7669    185.5428    223.5042   1.0850679349e+02   5.2666594546e+00    0.1210765   0.09206167  27.15 -3.12962e-05    1.009    0.009
        14  -9.8939    174.0000    221.5020   1.1037546526e+02   7.2978903005e+00    0.2189597   0.06934128 -42.98 0.0009381582    3.962    0.748
        15 -11.5714    226.5446    220.3594   1.0068736603e+02  -5.2114324313e-01    0.2870775    0.1478202 -14.02  0.001562078    2.307    0.566
        16  -9.9897    211.4032    218.1872   1.0300503476e+02   1.9707628646e+00    0.1415805    0.1108767 -36.08 0.0009511115    1.736    0.424
        17 -10.5065    238.6325    213.0293   9.7429329190e+01  -1.4921589052e+00    0.3394601     0.232286 -47.32  0.001959817    2.874    0.652
        18 -11.5192    222.8257    213.9839   1.0031132551e+02   7.3258426218e-01    0.2790675    0.1566099  18.66  0.001588748    1.634    0.388
        19 -10.4259    115.8750    209.4565   1.2021083547e+02   1.7965219797e+01    0.2408266    0.1408708 -80.23  0.001229573    2.767    0.639
        20 -11.1593      5.0897    199.6812   1.4123440852e+02   3.2409836117e+01    0.2921792    0.1194227  52.16  0.001001274    1.839    0.456
        21 -10.3515    149.4874    198.9988   1.1196867808e+02   1.4474342053e+01    0.1599337    0.1127966 -85.80 0.0008104187    2.589    0.614
        22  -9.8447     41.5199    201.9437   1.3445187791e+02   2.8673980678e+01    0.1508146   0.09482801 -83.04 0.0007110859    1.540    0.351
        23  -9.6939    133.4276    196.2224   1.1490341676e+02   1.7512326518e+01    0.1568645    0.1225857 -76.73 0.0009415162    1.689    0.408
        24 -12.3674    160.1367    192.0600   1.0871799484e+02   1.3818828039e+01     0.575463    0.4334368  67.20  0.002601478    1.879    0.468
        25  -9.9460     65.6837    194.3245   1.2899139463e+02   2.7407879663e+01    0.1240045   0.07144015  62.69 0.0006377001    1.669    0.401
        26  -9.7229    109.3113    186.6257   1.1877569803e+02   2.2956256576e+01    0.1328834   0.08823893  67.09 0.0007031531    1.783    0.439
        27 -10.1525    183.4151    182.8374   1.0241178425e+02   1.1250050429e+01    0.2923891    0.1192254 -30.20   0.00114657    3.289    0.696
        28 -10.9269    224.1620    183.0475   9.4669297613e+01   4.2486448830e+00    0.1800821    0.1485559 -50.88 0.0008001816    1.971    0.493
        29  -9.8324    191.6698    178.3412   9.9944946155e+01   1.0473854123e+01    0.1234355    0.1068021  70.59 0.0007051452    1.744    0.427
        30  -9.4034     28.2414    176.9710   1.3553290423e+02   3.4762185986e+01    0.1377147   0.08096374 -83.18  0.000378398    1.535    0.348
        31  -9.9435     38.5030    174.5277   1.3315121732e+02   3.4277745706e+01    0.1514247    0.1091592  21.55 0.0002033122    1.735    0.424
        32 -11.1209     34.7873    173.9593   1.3391827756e+02   3.4755105358e+01    0.2326334    0.1166819  72.20  0.001267191    2.008    0.502
        33 -11.4485     55.6964    167.9654   1.2871352243e+02   3.3808171575e+01    0.4152447    0.2388922 -87.76   0.00228665    1.826    0.452
        34  -9.7499     88.4899    168.0020   1.2105309891e+02   2.9639570954e+01    0.1832877    0.1048196  85.12 0.0008104487    2.650    0.623
        35 -10.0956     44.3245    168.3246   1.3134825027e+02   3.4961228753e+01    0.1099007   0.08649909 -41.32 0.0006779705    1.688    0.408
        36 -10.0333    139.1570    164.8398   1.0871253997e+02   2.2158483292e+01    0.3759817    0.2263009  88.15  0.001099114    6.308    0.841
        37 -10.3853     78.3271    161.9958   1.2269226789e+02   3.2279613893e+01    0.2055235   0.09786844  89.34 0.0007051301    4.335    0.769
        38 -11.6074    106.4492    157.7111   1.1524186247e+02   2.9071676552e+01    0.6000847    0.4087216  83.02  0.002954714    2.032    0.508
        39 -11.6410    120.7906    167.6985   1.1343220496e+02   2.4749153515e+01    0.4091342    0.1886066 -61.78  0.001688514    2.867    0.651
        40 -11.6556     23.7478    159.3002   1.3531318423e+02   3.8780822456e+01    0.3327943    0.1984964  33.02   0.00173783    1.746    0.427
        41 -10.8673    167.8479    157.3691   1.0086950446e+02   1.8238824598e+01    0.3834189    0.2846754  78.88  0.001788162    2.356    0.576
        42 -11.5986    119.6044    157.0975   1.1195174213e+02   2.7044592519e+01    0.4920846     0.246449  42.17  0.002208654    1.834    0.455
        43 -10.5824    218.4247    156.2328   9.0404868492e+01   8.8734748969e+00    0.3231886    0.1231022 -35.10  0.001306594    2.663    0.625
        44 -10.5274     23.2492    153.2953   1.3499022447e+02   4.0094115249e+01    0.1653345    0.1077877  67.89  0.001051966    1.366    0.268
        45  -9.9620    189.9341    150.8001   9.4821151155e+01   1.5092958831e+01    0.2215304    0.1681525  66.97    0.0010855    1.993    0.498
        46 -11.1820    107.4339    145.7096   1.1297242749e+02   3.1425462078e+01    0.5250896    0.2776503  64.66  0.001912227    3.386    0.705
        47 -10.5876     56.5029    146.5029   1.2617096225e+02   3.8329053543e+01    0.3634987    0.1417782  64.53  0.001112703    5.507    0.818
        48 -10.2096    148.4890    145.0069   1.0274273543e+02   2.4206371744e+01    0.2906216    0.1804843  72.19  0.001042874    3.480    0.713
        49 -11.3151    242.0289    150.5126   8.5023550787e+01   5.4286842279e+00     0.198145    0.1195612  39.02  0.001043174    1.621    0.383
        50 -10.6378     83.6024    132.5136   1.1694632987e+02   3.7994207123e+01    0.4002125    0.1911711  60.31  0.001452026    3.388    0.705
        51 -10.9574     44.2870    124.1587   1.2663501101e+02   4.4689924008e+01     0.546833    0.2426547  65.44  0.002115434    3.523    0.716
        52 -10.9646     26.3293    119.6632   1.3115980305e+02   4.7318022860e+01    0.2878958    0.1395508  70.75  0.001210585    2.503    0.600
        53 -11.5847    193.2873    118.3018   8.6648232252e+01   1.9786578582e+01     0.577306    0.4638914 -62.93  0.002174409    1.736    0.424
        54 -12.0479     99.5112    129.2207   1.1199458120e+02   3.6298560189e+01    0.5970342    0.3638016  74.44  0.002379146    2.842    0.648
        55 -11.1170    140.6718    116.8501   9.8311246915e+01   3.1330691589e+01    0.4527191    0.1462136 -49.69  0.001343652    3.787    0.736
        56 -10.1870    130.3463    118.6574   1.0141176745e+02   3.3035668372e+01    0.1537323    0.1199636  81.97 0.0007045707    1.793    0.442
        57 -10.5639     59.8477    125.1225   1.2236649310e+02   4.2786316602e+01    0.5156223    0.2422879  75.09  0.001616565    5.118    0.805
        58 -10.3626      2.0596    115.2431   1.3749059187e+02   4.9911315146e+01    0.2085124    0.1336586 -82.37 0.0006984089    1.242    0.195
        59 -10.5530    108.1699    112.2810   1.0596364718e+02   3.8579147662e+01    0.5329714    0.2391196 -62.32  0.001773722    3.370    0.703
        60 -10.7533     78.7563    112.7684   1.1467072256e+02   4.3200922537e+01    0.4689056    0.2568721  86.07  0.001509594    4.498    0.778
        61 -12.2748    160.5511    111.1285   9.1996682804e+01   2.8222229001e+01     0.681581    0.4795433 -60.91  0.002992985    1.958    0.489
        62 -10.7982    174.3269    111.2061   8.8871788014e+01   2.5168714886e+01    0.3625402    0.2548073 -42.17 0.0009883593    1.506    0.336
        63 -10.2878     91.6338    110.9951   1.1046746219e+02   4.1664684405e+01    0.3334952     0.132009 -54.87  0.001248954    2.479    0.597
        64 -11.3908     14.2435    110.0658   1.3361279847e+02   5.0379187020e+01    0.5671698    0.2415764 -84.95  0.002719658    2.216    0.549
        65 -10.4135    122.0245    112.7408   1.0221696552e+02   3.5904805818e+01     0.303914    0.1962867 -75.09  0.001179754    2.659    0.624
        66 -12.4466    141.2743    105.6812   9.5319354537e+01   3.3456200148e+01    0.4798801    0.2998771  53.22  0.002053518    1.766    0.434
        67 -11.8445    141.1811    100.7164   9.4015427329e+01   3.4468923528e+01    0.4880019    0.3554466  64.93  0.002187508    1.766    0.434
        68 -11.9029     44.7115    101.4988   1.2314397614e+02   4.9947671733e+01    0.6208326    0.3310432  78.75  0.002599661    2.936    0.659
        69 -10.0325    133.2957    106.3296   9.7572046183e+01   3.4998185267e+01    0.1556084     0.118809  -2.14 0.0002340376    1.634    0.388
        70 -12.0253    114.9896    102.3336   1.0157926013e+02   3.9489930923e+01    0.6430308    0.2202285  44.91  0.002112563    3.025    0.669
        71 -11.4484    107.5332     98.4255   1.0273479068e+02   4.1740982727e+01    0.6478828    0.4102324 -71.75    0.0025927    2.484    0.597
        72 -10.8522     82.2995    100.5119   1.1095790501e+02   4.5510954769e+01     0.269958    0.2323063  64.81  0.000945778    1.294    0.227
        73 -10.4342     63.1978     96.6019   1.1622321560e+02   4.9048006282e+01    0.2926934    0.1577222  86.25 0.0009599017    4.384    0.772
        74 -12.6234    170.4073     90.9025   8.4246633173e+01   2.9681316743e+01    0.4449672    0.4127369 -45.04  0.001085407    1.180    0.153
        75 -11.6523     42.2464     87.8257   1.2151644068e+02   5.3411133166e+01    0.6208407    0.3441424 -12.76   0.00244654    3.023    0.669
        76 -10.4762     45.3618     82.1371   1.1927686573e+02   5.4444544821e+01    0.2484075    0.1515491 -70.76 0.0008314234    1.619    0.382
        77 -11.1218     87.2910     87.9005   1.0624569987e+02   4.7599809555e+01    0.3230101    0.2227428  66.02  0.001458238    2.087    0.521
        78 -10.7373    104.4517     83.6192   9.9590359690e+01   4.5521269519e+01    0.3229378    0.2450363 -82.62  0.001469996    1.961    0.490
        79 -12.0462    127.7756    100.4225   9.7499586147e+01   3.7356821063e+01    0.6135025    0.3173583 -52.46  0.002365672    2.228    0.551
        80  -9.8887      1.9671     77.9842   1.3404947769e+02   5.8409066067e+01    0.1918834    0.1047875 -50.25 0.0007762879    1.634    0.388
        81 -10.7350     82.7876     73.2519   1.0363003895e+02   5.1576845978e+01     0.431463    0.3100742  55.75  0.002107594    1.757    0.431
        82 -11.4457    223.5053     71.5870   6.9066317859e+01   2.0175814026e+01    0.2730043    0.2501109  -7.50 0.0001920917    1.029    0.028
        83  -9.9664     94.8276     71.6663   9.9055426655e+01   4.9841077348e+01     0.323403    0.1757144 -64.78  0.001094028    3.438    0.709
        84 -10.3975     51.9135     70.3559   1.1409655059e+02   5.6480260407e+01    0.2703493    0.1748062 -50.03  0.001134179    1.341    0.254
        85 -10.5693     62.3953     69.8144   1.0999025819e+02   5.5329350152e+01    0.2078293    0.1116385 -44.66 0.0007209134    1.690    0.408
        86  -9.9579    196.1103     67.6664   7.2413509347e+01   2.7235844859e+01    0.3034739    0.1478933  65.69  0.001109388    2.580    0.612
        87 -11.8645     39.6732     52.6254   1.1418909652e+02   6.1750952149e+01    0.6194305    0.1478129 -49.90  0.002223749    3.082    0.676
        88 -13.5349     29.7046     59.4837   1.2022641559e+02   6.1080790488e+01     1.239161    0.8184485  26.22  0.005286843    1.758    0.431
        89 -11.3704     19.5195     59.7417   1.2449937140e+02   6.1732041420e+01    0.2762467    0.2401008 -56.09 0.0008631009    1.072    0.067
        90 -11.3330      9.4221     58.3507   1.2838605867e+02   6.2595438783e+01    0.4838097    0.2203215  39.83  0.002439024    2.763    0.638
        91 -11.6959    238.1074     62.6788   6.4708662907e+01   1.8078464148e+01    0.4146788    0.1596797  44.62  0.001564695    2.977    0.664
        92 -10.2328    161.7866     53.3816   7.4593691653e+01   3.8006696045e+01    0.2316688    0.1343684  46.12 0.0009555946    1.676    0.403
        93 -11.6151    149.4608     52.3516   7.6960742976e+01   4.1283968853e+01    0.3455643    0.2710654  48.15 0.0004717443    1.240    0.193
        94 -10.2544     82.3503     47.1078   9.4905741555e+01   5.7022569880e+01    0.2323768    0.2072055  76.65 0.0008205047    1.548    0.354
        95 -10.5024    157.1170     45.0015   7.2755696980e+01   4.0433031795e+01    0.2597203    0.2127112  48.07 0.0004530339    1.177    0.150
        96 -11.5519     71.2457     42.7011   9.7466975853e+01   5.9746345111e+01    0.5707763    0.3117702  49.66   0.00247383    2.461    0.594
        97 -11.0344      7.5505     43.2413   1.2621553165e+02   6.6084695301e+01    0.4907345    0.2525696  36.78  0.002673929    2.494    0.599
        98 -12.1884     42.2029     37.4475   1.0807559801e+02   6.4729024037e+01    0.6304948    0.3976901   1.74  0.001185982    1.916    0.478
        99 -11.8273     46.4338     35.8839   1.0551346209e+02   6.4563421927e+01    0.4004294    0.2575313   4.67 0.0007173598    1.845    0.458
       100 -10.1782     83.2666     38.1858   9.1013868064e+01   5.8491262258e+01    0.3056147    0.1661742  51.43  0.001297412    2.296    0.564
       101 -10.9621    120.0114     34.1659   7.7594834398e+01   5.1265412595e+01    0.3376397    0.2896632  47.05 0.0008863783    1.165    0.142
       102 -10.0768     74.8260     32.8732   9.1993262630e+01   6.0943042677e+01    0.1762773    0.1722608 -52.48 0.0005171932    1.326    0.246
       103  -9.6698    171.9899     31.2932   6.5304316648e+01   3.8354810787e+01    0.2043172    0.1843914  55.61 0.0003466796    1.075    0.070
       104 -11.1990    104.9005     30.5690   8.0472504973e+01   5.5283231396e+01    0.6069787    0.2381635  51.65  0.002057766    2.552    0.608
       105 -12.4147    203.3363     21.3675   5.7727517234e+01   3.1321876614e+01     0.428951    0.2913403 -69.79   0.00208644    1.695    0.410
       106 -11.4020    220.9726    249.0972   1.0587861945e+02  -2.6691304953e+00     0.322751    0.1254274  36.18  0.001798792    1.901    0.474
       107 -11.1222    239.9571     20.5775   5.3728311843e+01   2.2564858460e+01    0.2592517    0.2301647  85.83 0.0004853059    1.164    0.141
       108 -11.8666     22.6872    239.9176   1.3970615641e+02   2.4066760845e+01    0.2125803    0.1634516  75.17  0.001884819    1.205    0.170
       109 -10.3012    134.4338     18.0586   6.7653283841e+01   4.9736457967e+01    0.2266398    0.1869137  53.73 0.0004364944    1.151    0.131
       110  -9.7281     89.1826     18.3990   8.0093597484e+01   6.0411687702e+01    0.1942112    0.1355677  59.75 0.0009531125    1.767    0.434
       111 -11.2229     19.7623    236.5990   1.4006070650e+02   2.4861880883e+01    0.2233149    0.1002046  33.36  0.001217859    2.107    0.525
       112 -10.2486     32.9628    242.4617   1.3812421257e+02   2.2681230815e+01    0.1478923   0.04112335  51.19 0.0008080005    2.432    0.589
       113 -10.5603      7.8431    240.8188   1.4211638903e+02   2.5262275884e+01    0.1323937    0.1048872  64.25 0.0007323528    1.211    0.174
       114  -9.5528      2.6729    240.3207   1.4291331969e+02   2.5780056801e+01    0.1025494   0.04204813  58.71 0.0005890559    1.685    0.407
