#   1 NUMBER                 Running object number                                     
#   2 MAG_AUTO               Kron-like elliptical aperture magnitude                    [mag]
#   3 X_IMAGE                Object position along x                                    [pixel]
#   4 Y_IMAGE                Object position along y                                    [pixel]
#   5 X_WORLD                Barycenter position along world x axis                     [deg]
#   6 Y_WORLD                Barycenter position along world y axis                     [deg]
#   7 A_WORLD                Profile RMS along major axis (world units)                 [deg]
#   8 B_WORLD                Profile RMS along minor axis (world units)                 [deg]
#   9 THETA_WORLD            Position angle (CCW/world-x)                               [deg]
#  10 FWHM_WORLD             FWHM assuming a gaussian core                              [deg]
#  11 ELONGATION             A_IMAGE/B_IMAGE                                           
#  12 ELLIPTICITY            1 - B_IMAGE/A_IMAGE                                       
         1 -11.0535    210.8048      7.1668   3.1337763735e+01   3.2314918728e+01    0.1519421    0.1346381  69.67 0.0006359069    1.328    0.247
         2 -11.5076    144.2901      4.9779   3.7801138056e+01   4.7822529964e+01    0.2488369    0.1624482 -83.03  0.001363785    1.640    0.390
         3  -9.5035    169.2972    246.6827   9.0407632569e+01  -1.2269280965e+00    0.1172501   0.09534117  57.02  0.000247198    1.611    0.379
         4 -10.4507    172.5642    249.6692   9.0185531954e+01  -2.1800858458e+00    0.1882491    0.1312585  -0.23 0.0006173355    1.594    0.373
         5 -10.1296     69.9670    251.0000   1.1147530357e+02   1.2353365743e+01    0.1928526   0.05980874  34.84 0.0003950602    2.818    0.645
         6 -10.6965     64.3693    249.7071   1.1248959751e+02   1.3332949140e+01    0.2119676    0.1941586  67.59  0.001512232    1.178    0.151
         7 -12.7484     30.3620    222.2996   1.1729540993e+02   2.3113501068e+01     1.726706      1.69549  -2.52   0.00942006    1.419    0.295
         8 -14.8337     85.9781    205.4982   1.0304935092e+02   1.9765599841e+01    0.9203315    0.5711367 -60.35  0.003922234    1.645    0.392
         9 -16.4872     92.7878    190.7258   9.9302757244e+01   2.2191762333e+01     2.827199     1.731927 -83.80   0.01228487    2.127    0.530
        10 -16.4113     68.4889    220.2707   1.0884077129e+02   1.8907931335e+01     1.604193     1.056217 -48.92  0.007891588    1.835    0.455
        11 -18.2438     69.8797    195.9148   1.0570855273e+02   2.4319276969e+01     5.509637     3.650662 -69.30   0.02845246    1.475    0.322
        12 -12.6947    186.3569    225.5294   8.3591958610e+01  -2.5297886792e-01    0.3302368     0.192472 -19.69  0.001568071    2.161    0.537
        13 -11.3324    192.2221    225.5866   8.2414709752e+01  -1.1468672494e+00    0.1871253    0.1112048  22.23 0.0009492522    1.666    0.400
        14 -11.7218    125.4308    221.4933   9.6106570611e+01   1.0158539262e+01     0.455699    0.2532453 -55.24  0.002167587    1.980    0.495
        15 -10.2057    115.0316    223.7627   9.8768690208e+01   1.1334303183e+01    0.1901793    0.1649987  44.10 0.0009148608    1.038    0.037
        16 -11.1046    152.5737    221.0530   9.0003140385e+01   5.8747520644e+00    0.1901385      0.13388 -48.10 0.0003871868    1.552    0.356
        17 -11.1409     11.7642    220.5416   1.2099719478e+02   2.5405971227e+01    0.1990566    0.1454913  80.62 0.0006020996    1.094    0.086
        18 -12.2810      8.4165    226.7570   1.2201352272e+02   2.4395054000e+01    0.2182434    0.1545907 -75.52 0.0005033794    1.387    0.279
        19 -10.9690    118.0474    219.5704   9.7500950593e+01   1.1727949927e+01    0.3168201     0.218274  64.83  0.001591338    1.743    0.426
        20 -10.6978    121.2927    217.8215   9.6509772973e+01   1.1575500194e+01    0.2413179    0.2002257 -66.40  0.001375261    1.335    0.251
        21 -11.3278    173.7358    218.5897   8.5040615120e+01   2.9329772267e+00    0.1873504    0.1185899  41.70 0.0009450974    1.586    0.369
        22 -11.3386    139.0660    217.8650   9.2492844738e+01   8.6920611870e+00    0.1983851    0.1939655 -48.71 0.0003126334    1.126    0.112
        23 -11.9546    176.8682    215.3695   8.3828021400e+01   3.0192524506e+00    0.2216786    0.1899953 -47.72  0.000811651    1.342    0.255
        24 -13.9874    186.2315    213.3141   8.1514424122e+01   1.8985253087e+00    0.6118503    0.3366388  38.86  0.002960856    1.785    0.440
        25 -11.2269    143.3294    210.8866   9.0414808323e+01   9.3994999079e+00    0.4028682    0.2165092 -37.26  0.001644453    2.211    0.548
        26 -13.4685    146.8464    202.7120   8.8236219694e+01   1.0488738921e+01    0.7586197    0.4362109  47.74 0.0009549244    1.839    0.456
        27 -11.5161    155.7429    213.7754   8.8117335198e+01   6.7629432166e+00    0.3073553    0.1814175  40.26   0.00110625    1.604    0.376
        28 -13.0710    153.7802    210.2463   8.7959103039e+01   7.7838289907e+00    0.6657446    0.3994288 -16.67  0.002575447    2.746    0.636
        29 -11.3569    117.9066    213.3096   9.6625413596e+01   1.3070161588e+01    0.2393139    0.2230734  55.87 0.0002026222    1.046    0.044
        30 -10.9153    113.7806    212.6270   9.7482241237e+01   1.3877974188e+01    0.2669518    0.1825628  35.22 0.0007604258    1.377    0.274
        31 -10.7233      4.9189    250.5074   1.2382968824e+02   1.9917199217e+01     0.135694   0.09164388  44.95  0.000322346    1.365    0.267
        32 -10.8254    125.2380    211.0134   9.4581472696e+01   1.2368320999e+01    0.3526624    0.2252197 -13.41  0.001448385    2.794    0.642
        33 -10.8284    123.6212    206.6892   9.4284882512e+01   1.3560869705e+01    0.3521192    0.2060532  40.30  0.001639355    1.588    0.370
        34 -10.2218     14.3435    211.1144   1.1987872867e+02   2.7235004988e+01    0.2463307     0.109418  46.37  0.001276699    1.956    0.489
        35 -13.8534    167.9939    206.5514   8.4185025069e+01   6.1315988013e+00    0.6865324    0.4532424   6.87  0.003072514    1.962    0.490
        36 -10.7458    220.0389    206.5081   7.3614164655e+01  -2.1029638891e+00    0.1894942    0.1201074  31.06  0.000679676    1.581    0.368
        37 -10.7104     18.4363    205.7133   1.1863371555e+02   2.8059541516e+01    0.2710517     0.131739  47.59  0.001039698    1.836    0.455
        38 -12.3194     14.0952    201.4282   1.1927584936e+02   2.9457178817e+01    0.2845667    0.2152039 -74.54 0.0004250511    1.257    0.205
        39 -10.5926      6.3072    202.0948   1.2100358348e+02   3.0010748208e+01    0.2972791     0.123678 -86.88  0.001421173    2.166    0.538
        40 -11.3733     26.4532    201.0090   1.1649976052e+02   2.8340022385e+01    0.3393479    0.1892575  76.83  0.001014365    1.741    0.426
        41 -11.4520    213.0079    200.7990   7.3884456512e+01  -8.7512616102e-02    0.2534605    0.2071339  89.02  0.001345607    2.296    0.564
        42 -11.4622    113.9842    199.7658   9.5485958953e+01   1.6682095035e+01    0.3088419    0.2725692   1.93  0.001658679    1.307    0.235
        43 -13.0354    140.0050    197.2402   8.8868965034e+01   1.2825269924e+01    0.5307627    0.4120479  17.63  0.002727601    1.397    0.284
        44 -13.7292    190.0679    194.0468   7.7175106414e+01   4.8191624361e+00    0.6891927    0.3131748  33.03  0.001460815    2.293    0.564
        45 -12.2224    166.0795    197.7781   8.3019876014e+01   8.1867670780e+00    0.2825683    0.1967888  14.76  0.001365902    1.644    0.392
        46 -12.6000    125.8592    195.5803   9.1942136241e+01   1.5627331799e+01    0.5407839    0.3832866  41.56  0.001782603    1.348    0.258
        47 -12.4227    159.7017    192.6464   8.3495406773e+01   1.0346586638e+01    0.3075877    0.2294207 -44.29  0.001131719    1.367    0.268
        48 -11.7252     10.3305    192.0531   1.1944721166e+02   3.1977624138e+01    0.4826034     0.212081  82.62  0.002215324    2.309    0.567
        49 -10.6282      6.2317    187.7756   1.2007079452e+02   3.3334750271e+01    0.1856309     0.138456  76.76 0.0006439465    1.114    0.102
        50 -13.9507    150.9572    189.8760   8.4982597354e+01   1.2481145447e+01    0.6778698    0.4652207 -41.80  0.003285894    1.492    0.330
        51 -11.0430    228.1734    192.1719   6.9424689064e+01  -9.1536495594e-01    0.1634655    0.1483753 -36.34 0.0003306421    1.297    0.229
        52 -10.7949    116.5183    191.0131   9.3445078677e+01   1.8254065107e+01     0.372444    0.2461756   5.43  0.001545758    2.410    0.585
        53 -11.3083    180.0469    244.2081   8.7863862872e+01  -2.3942029243e+00    0.1960108     0.173107 -21.76 0.0005945765    1.226    0.185
        54 -12.8208    174.1987    189.4094   7.9657393976e+01   8.4524186775e+00    0.3271328    0.2416716  51.94  0.001642028    1.585    0.369
        55 -11.6495    176.4841    183.4606   7.7997056789e+01   9.2467740930e+00    0.2038338    0.1386372 -53.78 4.911806e-05    1.654    0.395
        56 -11.6809     26.8730    189.9359   1.1545930980e+02   3.0916641601e+01    0.4992193    0.2434734  83.79  0.002273363    2.203    0.546
        57 -13.0363    135.0612    186.5181   8.8127710929e+01   1.6052389885e+01    0.5713544    0.3499553 -67.59  0.002402545    2.156    0.536
        58 -11.7800    124.7760    188.4996   9.0985655865e+01   1.7413278403e+01    0.3221554    0.2423656 -64.11 0.0008205941    1.444    0.308
        59 -12.0595    128.3477    184.2370   8.9347813657e+01   1.7761660627e+01     0.297447    0.2780575 -30.39 0.0002946085    1.116    0.104
        60 -10.1555    156.9500    243.2371   9.2442260318e+01   1.1786908350e+00    0.1708593    0.0942069  34.97 0.0005408067    1.569    0.363
        61 -10.6049     26.2777    184.5879   1.1511697641e+02   3.2267133984e+01    0.1560676    0.1286223  12.23 0.0009453277    1.599    0.375
        62 -10.5624     17.9975    183.2651   1.1698628283e+02   3.3379824644e+01    0.1860929    0.1593304 -61.09 0.0004920748    1.294    0.227
        63 -11.5088     21.0087    180.3308   1.1600603634e+02   3.3811790009e+01    0.3248772    0.2418945  76.35  0.001690829    1.190    0.159
        64 -12.4992    165.6618    180.8432   7.9874376123e+01   1.1743462232e+01    0.3377921    0.2218561 -26.88  0.001178889    1.764    0.433
        65 -11.0285    119.1868    181.6262   9.1152578654e+01   1.9978744095e+01    0.2674454    0.2034353 -56.27 0.0005349985    1.339    0.253
        66 -13.1312    180.3557    179.5228   7.6373228891e+01   9.3483123719e+00    0.3817064    0.3057348 -33.19  0.001541121    1.204    0.170
        67 -13.3266    174.8940    174.6712   7.6573840401e+01   1.1336591114e+01    0.4285746    0.3621685  13.02  0.001112294    1.224    0.183
        68 -12.3909    144.8934    181.2560   8.4777899185e+01   1.5455159961e+01    0.3089689    0.2086644  26.32   0.00115213    1.606    0.377
        69 -12.3322    125.6009    176.4243   8.8583921888e+01   2.0062291465e+01    0.6953956    0.2348284 -57.27  0.002139941    3.476    0.712
        70 -13.1167    120.7017    172.9052   8.9159870746e+01   2.1772708422e+01    0.5178863     0.359658 -53.78  0.002078598    1.446    0.309
        71 -12.7606    140.8782    161.8629   8.1849770385e+01   2.0611365005e+01    0.3431054    0.2816113  60.51  0.001360778    1.364    0.267
        72 -12.1472    139.1607    165.9227   8.3121169116e+01   2.0001236606e+01    0.3043871    0.2607665   5.44 0.0003945066    1.315    0.240
        73 -12.8530    132.8933    168.3467   8.5177923833e+01   2.0617420344e+01    0.5168842    0.2938324  37.87 0.0008743448    1.761    0.432
        74 -11.0687     28.5081    176.8323   1.1382183381e+02   3.3944492221e+01    0.2435648    0.1081083 -67.85  0.000621813    1.933    0.483
        75 -11.8066    192.6137    176.3071   7.3141969929e+01   7.7948377393e+00    0.2504681    0.1710508  14.94 0.0005976235    1.768    0.434
        76 -12.7040    104.0058    164.3345   9.1912202214e+01   2.6793922980e+01    0.8769041    0.3907286 -36.15  0.002683088    3.766    0.734
        77 -12.3585    105.3779    172.1821   9.2997743056e+01   2.4628048220e+01     0.505567    0.3293313 -80.17   0.00149706    2.018    0.504
        78 -12.8600    107.6990    168.9989   9.1803387879e+01   2.5008420755e+01    0.4980089    0.3621269 -74.49 0.0008882176    1.560    0.359
        79 -12.7672    143.1026    170.6692   8.3121366586e+01   1.8167881369e+01    0.3784503    0.2305847 -52.86 0.0008624206    1.689    0.408
        80 -12.4237    158.3928    172.2037   7.9795544004e+01   1.4943276841e+01    0.3195947     0.233885 -58.17  0.001494071    1.522    0.343
        81 -12.4976    160.5998    169.8007   7.8788838661e+01   1.5049569077e+01    0.3505319    0.2684014 -73.88  0.001639823    1.742    0.426
        82 -10.3851      9.4833    172.0588   1.1810625191e+02   3.6836585965e+01    0.1878116     0.104728 -77.09 0.0004479837    1.485    0.327
        83 -13.2736    126.9766    166.0411   8.6214365275e+01   2.2261101720e+01    0.5317274    0.3835354 -38.09  0.001395429    1.481    0.325
        84 -11.2003     27.7478    170.9904   1.1341659200e+02   3.5469687583e+01    0.2322298    0.1458958 -71.81 0.0006452906    1.378    0.275
        85 -11.0827     27.3641    166.8357   1.1307580246e+02   3.6545938523e+01    0.2357929    0.1963582  82.53  0.001438224    1.078    0.072
        86 -12.3712     32.5155    167.8900   1.1184118368e+02   3.5770519289e+01    0.3775015    0.2150853 -75.79  0.001873552    1.563    0.360
        87 -12.8925    149.4024    166.0470   8.0646584097e+01   1.8018182591e+01    0.4132047    0.2506471 -33.74  0.001196505    1.879    0.468
        88 -12.8923    117.6983    161.1934   8.7649553298e+01   2.5134070724e+01    0.4732691    0.3166874 -11.95  0.001623266    2.494    0.599
        89 -10.0615    108.6761    243.3573   1.0265385289e+02   8.4129677747e+00    0.1360086   0.08805353  63.09 0.0007044949    1.771    0.435
        90 -12.7735    171.2898    159.4990   7.4169343517e+01   1.5216832163e+01    0.3586005    0.2431858 -55.97  0.001621873    1.636    0.389
        91 -10.4088     38.2962    164.2900   1.0987854032e+02   3.6076464737e+01    0.1328971   0.09709416 -43.40 0.0002767564    1.555    0.357
        92 -11.7029     19.9560    233.2863   1.2013178096e+02   2.1873338926e+01    0.3789641    0.2679027  31.25  0.002472985    1.619    0.382
        93 -12.5747    123.1953    160.8350   8.6135040118e+01   2.4207161340e+01    0.4640902    0.2946889 -67.85  0.001443419    1.932    0.482
        94 -13.1564    112.8859    155.3606   8.7745839339e+01   2.7437119037e+01    0.5337852    0.4103741 -27.11  0.001559499    1.544    0.352
        95 -12.8675    118.0480    152.8503   8.5832209954e+01   2.7100000112e+01    0.4784919    0.3215103 -24.63  0.001970051    2.039    0.510
        96 -10.3530     20.3415    239.8308   1.2044366848e+02   2.0483352570e+01    0.1574303    0.1334541 -87.45 0.0002476998    1.259    0.206
        97 -12.4123     15.7383    242.2585   1.2145165042e+02   2.0467971809e+01    0.2184418    0.1774838  89.75    0.0007122    1.226    0.184
        98 -10.9620     28.2933    160.1401   1.1208439501e+02   3.8143557760e+01    0.1906074    0.1841497 -28.50 0.0003677406    1.261    0.207
        99 -10.8671      1.9008    159.1631   1.1893221871e+02   4.0563083899e+01    0.2463472    0.1390117  74.76   0.00111875    1.725    0.420
       100 -12.8496    155.2701    157.6998   7.7463343008e+01   1.8752333880e+01      0.47858    0.2051474 -44.84  0.001723689    2.288    0.563
       101 -13.3106     44.1247    152.9924   1.0676449526e+02   3.8327073080e+01    0.5723577    0.2670328  45.47 0.0003032797    2.281    0.562
       102 -11.3609     13.6105    238.0865   1.2162803417e+02   2.1529683014e+01    0.2588675    0.1555069 -86.04 0.0007708356    1.473    0.321
       103 -13.1575     46.6895    158.1000   1.0676062112e+02   3.6723285370e+01    0.4848009    0.3346747   3.74  0.002380591    2.045    0.511
       104 -12.9247     49.4095    153.6942   1.0535739196e+02   3.7538400301e+01    0.4010542    0.2580802 -70.93  0.001978017    1.424    0.298
       105 -12.8030    101.9191    156.9007   9.1045997464e+01   2.9002695035e+01     0.468885    0.2813242  69.21  0.001729126    2.663    0.625
       106 -12.7949     97.5716    152.4663   9.1374913169e+01   3.0860997315e+01     0.350737    0.3246033  67.13 0.0005473315    1.103    0.093
       107 -10.9755    159.5230    157.4941   7.6417727276e+01   1.7959838558e+01    0.1534816    0.1462443 -17.52 -7.251957e-06    1.030    0.029
       108 -14.8295     35.3770    131.0572   1.0607438286e+02   4.4890787976e+01     1.649125    0.6811128 -37.83  0.005921671    3.367    0.703
       109 -13.5603     21.9715    148.8193   1.1250934729e+02   4.1589295301e+01    0.7103298    0.3375917  53.60  0.003162715    2.412    0.585
       110 -12.6793     27.2600    154.6574   1.1172569451e+02   3.9631588835e+01    0.4002265    0.2503221  32.30 0.0009081647    1.759    0.432
       111 -13.8966     21.2852    152.9187   1.1317396949e+02   4.0610342021e+01    0.6306776    0.4782063  15.67  0.003170378    1.648    0.393
       112  -9.7464    198.6702    242.6854   8.3944209384e+01  -4.8000767093e+00     0.129762   0.08366726   0.05 0.0005774942    1.677    0.404
       113 -13.5569     73.6295    154.3296   9.8520784376e+01   3.4178501435e+01       0.5265    0.3365146  51.42   0.00180657    1.686    0.407
       114 -12.3321    144.8907    154.8663   7.9353679419e+01   2.1442714048e+01    0.2838074    0.2142258  47.02 0.0007992876    1.370    0.270
       115 -11.4813    212.4133    154.1329   6.4610818134e+01   8.5252715564e+00    0.2250248    0.1754418  47.61  0.001015908    1.467    0.319
       116 -14.9308    105.6484    152.8381   8.9203518250e+01   2.9362278040e+01     2.514993     1.220569  66.63  0.004810559   10.119    0.901
       117 -14.3407    101.7993    134.3559   8.6304955087e+01   3.4651067539e+01     1.281499    0.5517077  56.53  0.003507302    4.566    0.781
       118 -12.7879     99.9630    130.0213   8.5844604196e+01   3.6054725831e+01     0.500902    0.2864438  54.74 0.0003375207    2.186    0.543
       119 -12.3364    120.5321    146.8862   8.3875641791e+01   2.8081250005e+01    0.3026233    0.2684872  28.39  0.000309228    1.182    0.154
       120 -13.4559    108.2197    147.0861   8.7288182048e+01   3.0328910590e+01     0.592261    0.4421944 -47.56  0.001792488    1.317    0.241
       121 -14.5892    104.5421    142.1672   8.7258207070e+01   3.2216160087e+01     1.181969    0.4827782  40.16  0.004152877    2.474    0.596
       122 -11.8448    114.5251    143.0149   8.4653786950e+01   3.0164329728e+01    0.2665747    0.2392779  20.22 0.0001369963    1.201    0.168
       123 -11.4216    185.4157    240.8291   8.6264609351e+01  -2.6329580320e+00    0.1759594    0.1086262 -26.63 0.0009483233    1.761    0.432
       124 -13.3146    144.0619    149.8656   7.8450484042e+01   2.2758688336e+01    0.5390767     0.301591  46.22  0.002174019    1.858    0.462
       125 -14.0017     89.5036    150.4210   9.3253834252e+01   3.2725102458e+01    0.6538196    0.4627557 -23.46  0.002278036    1.908    0.476
       126 -11.9926    180.2893    150.6136   7.0241991415e+01   1.5328838832e+01    0.3087778    0.2495264 -83.76 0.0008309657    1.678    0.404
       127 -12.8104    164.7211    148.8457   7.3290572671e+01   1.8824035062e+01     0.435512    0.2881457  65.76  0.001787169    2.176    0.541
       128 -11.3442    159.4798    149.4883   7.4648517242e+01   1.9741421834e+01    0.1540242    0.1484057 -27.20 -1.039244e-05    1.006    0.006
       129 -13.4182     10.3850    149.4819   1.1579871964e+02   4.2351997828e+01    0.9846611    0.4208193  65.62  0.003965592    3.082    0.676
       130 -10.7645    116.5808    239.3989   1.0048121828e+02   7.9921450632e+00    0.2313932    0.1721064  73.61  0.001038624    1.633    0.388
       131 -12.6724     46.6193    146.6145   1.0509792434e+02   3.9688494546e+01     0.436208    0.2018004 -48.85  0.001598412    2.147    0.534
       132  -9.9862     46.8170    249.7948   1.1597141153e+02   1.5502407875e+01    0.1563264    0.1318007  70.31 0.0004526104    1.104    0.094
       133 -13.4639    133.9952    146.1627   8.0164286565e+01   2.5629313518e+01    0.4774334     0.381405 -19.84  0.002240468    1.475    0.322
       134 -12.1259    116.0437    146.2334   8.4948304390e+01   2.9091109152e+01    0.3505493    0.3051665  74.83  0.000371037    1.277    0.217
       135 -12.5156     82.2234    144.5976   9.4218403959e+01   3.5374942793e+01    0.2698538    0.2521927  21.90 0.0006512929    1.166    0.142
       136 -12.6819     82.8282    141.1509   9.3351223265e+01   3.6159676580e+01    0.3381927    0.2650124  21.39  0.001348626    1.455    0.313
       137 -11.0347    201.5055    235.9876   8.2311074811e+01  -4.1694935307e+00    0.1808229    0.1162483 -35.85  0.000803712    1.589    0.371
       138 -11.7562    185.0275    236.2715   8.5620995515e+01  -1.8427677832e+00    0.1799149    0.1460864  18.83  0.000213051    1.065    0.061
       139 -10.9876    189.9707    145.0000   6.6960562921e+01   1.4570959070e+01    0.2422618   0.08593909  44.89 0.0008125745    3.013    0.668
       140 -11.4894    171.8081    144.1905   7.0633103874e+01   1.8392424095e+01    0.2098855    0.1785382  -5.94 0.0003262119    1.321    0.243
       141 -11.6912    154.9868    144.0045   7.4456499336e+01   2.1877734966e+01    0.2510707    0.1939561  -5.96  0.001131222    1.670    0.401
       142 -10.4773    179.6718    143.2779   6.8714908504e+01   1.6987712949e+01    0.1472779    0.1210218 -87.96 0.0002747853    1.595    0.373
       143 -11.9803    159.9113    137.3506   7.1739292478e+01   2.2335753821e+01    0.3949063    0.2085191 -42.53   0.00118251    1.843    0.457
       144 -13.3341     56.6693    137.4980   1.0056076533e+02   4.0833278459e+01    0.4329608    0.3140442 -67.25   0.00111708    1.276    0.216
       145 -12.0771    173.3539    235.8716   8.7935978183e+01  -3.9498376112e-02    0.2677033    0.1741612  25.19  0.001451644    1.401    0.286
       146 -13.4874    141.6317    133.7943   7.5322868244e+01   2.6955099476e+01    0.5832456    0.4369852 -23.18  0.002105374    1.594    0.372
       147 -11.6885    137.5706    131.0088   7.5682014929e+01   2.8439692433e+01    0.3338169    0.2203157  33.34 0.0005745435    1.669    0.401
       148 -11.9390    130.4403    135.5101   7.8623202151e+01   2.8854158940e+01    0.2444346    0.2428918 -74.62 0.0004796555    1.022    0.022
       149 -12.4391    131.2615    131.9875   7.7562059389e+01   2.9513921472e+01     0.349151    0.2930894 -15.22 0.0003526173    1.380    0.275
       150 -12.3398     16.8420    137.1951   1.1258485135e+02   4.4955277069e+01    0.2287969    0.1943641  73.54 0.0009076412    1.206    0.171
       151 -12.6727     20.3720    133.7182   1.1108480538e+02   4.5556614925e+01    0.3299401     0.216511 -64.77 0.0005280311    1.270    0.213
       152 -12.5030    115.7391    130.7462   8.1482385284e+01   3.2912898036e+01    0.3771087    0.2673005  55.23  0.001033363    1.584    0.369
       153 -12.9294     83.8845    134.5852   9.1669197147e+01   3.7660622641e+01    0.3431698    0.2956177   6.92   0.00143838    1.341    0.254
       154 -11.4685     32.7459    249.2403   1.1864504966e+02   1.7248214981e+01    0.1722293    0.1344252  85.72 0.0004697457    1.190    0.160
       155 -13.8131     73.1824    121.7744   9.2196203646e+01   4.2562037578e+01    0.6070455    0.4862385 -80.76 0.0007653554    1.401    0.286
       156 -13.5550     69.6770    130.6831   9.5217830556e+01   4.0823525949e+01    0.5352985    0.3651503 -76.05  0.002464297    1.643    0.391
       157 -12.5005     68.5542    125.4749   9.4483451939e+01   4.2309245991e+01    0.5089814     0.277842 -77.81  0.001872925    2.718    0.632
       158 -12.1523     75.5330    132.9952   9.3880386022e+01   3.9369169034e+01    0.2585211    0.2240096  22.85 0.0001046202    1.269    0.212
       159 -12.3440     74.1961    129.5991   9.3581313952e+01   4.0434515173e+01    0.3601389    0.2029324 -52.42 0.0008104247    1.636    0.389
       160 -14.6682    154.6280    128.2247   7.0780913744e+01   2.5462613127e+01     1.030267    0.8301753  45.92  0.002374637    1.282    0.220
       161 -13.1581    154.9416    117.6817   6.8068279774e+01   2.7688352875e+01    0.5070528     0.378411  25.77  0.001670592    1.619    0.382
       162 -10.8152    193.2922    132.6851   6.3483911314e+01   1.6389999333e+01    0.1471152    0.1153635 -72.63 0.0002013468    1.596    0.373
       163 -13.2858     22.0054    128.3265   1.0984150036e+02   4.6790855170e+01    0.2867789    0.2540926  49.15  0.001551965    1.275    0.215
       164 -13.2315     44.5724    129.4778   1.0291225069e+02   4.4332649682e+01    0.6851879    0.3558586  -6.90  0.002357197    4.115    0.757
       165 -11.2986    103.6639    233.1906   1.0251420106e+02   1.1148162608e+01    0.3189043    0.2295869  52.19  0.001105386    1.285    0.222
       166 -12.3261     19.3732    114.1373   1.0855842603e+02   5.0564658138e+01    0.2921482      0.14788  40.00 0.0005608831    2.279    0.561
       167 -13.8654     29.1302    118.1515   1.0596790999e+02   4.8756104717e+01    0.7129439    0.4506859  45.00  0.003538112    1.824    0.452
       168 -14.9531     58.0293    127.9941   9.8354630701e+01   4.3101046103e+01     1.063744    0.6698987  23.55  0.004982324    1.829    0.453
       169 -14.5601     60.9619    119.4441   9.5653305997e+01   4.4885880804e+01     1.004796    0.5305139 -38.43  0.004118662    2.132    0.531
       170 -12.4135     45.7521    118.3503   1.0047039650e+02   4.7034009249e+01     0.527248    0.3237717  12.63  0.001060005    2.062    0.515
       171 -11.8919      3.8781    129.4547   1.1551806633e+02   4.7793312550e+01    0.2853832    0.1171736 -58.08  0.001329975    1.940    0.485
       172 -15.2020     33.0962    147.9494   1.0922962094e+02   4.0783565810e+01     1.230078    0.6848722  51.42  0.005843651    1.981    0.495
       173 -13.6317    102.8084    124.5424   8.3703362455e+01   3.6876587671e+01    0.5396633    0.4679272  67.16  0.002399918    1.288    0.224
       174 -12.4786    108.3097    122.3347   8.1549858391e+01   3.6371565979e+01    0.3679514    0.2578114  12.15  0.001539172    1.983    0.496
       175 -13.2438    143.4866    122.0668   7.1959314024e+01   2.9217023302e+01    0.6487814    0.2865728 -51.19  0.002249307    2.395    0.582
       176 -13.4983     90.5638    120.6828   8.6466460661e+01   4.0017495132e+01    0.4826744    0.3722286  17.91  0.002304876    1.506    0.336
       177 -12.8808     48.3260    122.8338   1.0048717986e+02   4.5604416790e+01    0.5293563    0.3219903  -4.31 0.0003617571    2.511    0.602
       178 -12.2732    135.1823    120.5508   7.3690145903e+01   3.1330904951e+01    0.2808273    0.2506384  62.08  0.001406597    1.194    0.163
       179 -11.6879    119.9326    120.5408   7.7791410262e+01   3.4501537738e+01    0.3069928    0.2163744 -32.15 0.0006765637    1.575    0.365
       180 -13.8210     54.8779    110.5432   9.5751006648e+01   4.7899874534e+01     1.155798    0.5040097 -62.73  0.004474212    2.293    0.564
       181 -11.6727      5.0762    120.1572   1.1405152210e+02   5.0028595467e+01    0.2031047    0.1454307 -52.81 0.0006347413    1.255    0.203
       182 -12.7400     12.5382    114.2862   1.1085244382e+02   5.1013904943e+01    0.3977951    0.1281357 -52.43  0.001624256    2.444    0.591
       183 -10.4540    189.5054    114.4861   5.9910673131e+01   2.0790058825e+01    0.1492355    0.1397974 -38.51 6.467645e-05    1.046    0.044
       184 -11.9337     99.4897    114.2906   8.2138447658e+01   3.9959934446e+01    0.4051692    0.1444675  33.32  0.001226205    3.437    0.709
       185 -12.5082     82.2566    113.5023   8.7330723382e+01   4.3176743543e+01    0.3243445    0.2504621 -76.11   0.00140221    1.531    0.347
       186 -13.2988     88.9440    110.1762   8.4353789702e+01   4.2842571934e+01    0.5247334    0.3826095  -6.41  0.002282395    1.852    0.460
       187 -13.7115    150.0311    107.9894   6.6711936355e+01   3.0836800115e+01    0.7123383    0.4444779  44.07  0.003054765    1.656    0.396
       188 -12.5463    141.7740    108.5741   6.8879316737e+01   3.2546408310e+01     0.367862     0.291376  58.75   0.00109978    1.355    0.262
       189 -12.5988    143.4993    105.4734   6.7620741267e+01   3.2824224108e+01    0.3378626    0.3036151  56.01 0.0009750561    1.143    0.125
       190 -13.0550     61.6060    108.2711   9.2924585250e+01   4.7574378843e+01    0.4771965     0.315545   4.03   0.00215672    2.037    0.509
       191 -12.1192     78.6442    105.1060   8.6384471043e+01   4.5787476902e+01    0.2729851    0.2199802  20.33 0.0003508709    1.350    0.259
       192 -10.7902    212.8851    104.0362   5.3316751944e+01   1.7821527164e+01    0.2085955    0.1871058 -50.44 0.0003812384    1.008    0.008
       193 -13.1092     75.3750    111.0953   8.8977766738e+01   4.4867114301e+01    0.3875226    0.3578369  85.24  0.001241614    1.206    0.171
       194 -12.0134    137.3429    102.2309   6.8277654288e+01   3.4877520114e+01    0.4525486    0.1930566 -39.16  0.001566851    2.440    0.590
       195 -12.1606     57.9162    100.1443   9.2245093919e+01   5.0038095264e+01    0.3475237    0.3186853 -78.43  0.001076797    1.207    0.172
       196 -13.6187     60.0908     96.1422   9.0455014931e+01   5.0692764329e+01    0.8614585    0.3226469 -54.29  0.001880737    2.448    0.592
       197 -11.3486    109.2315    109.3765   7.7937642951e+01   3.9238011444e+01    0.2174119    0.1453655  51.21  0.000427921    1.635    0.388
       198 -13.0221     79.8730     99.8570   8.4584227653e+01   4.6819108020e+01    0.3976837    0.2756934 -39.09  0.001885736    1.412    0.292
       199 -13.6346     69.3032     96.0179   8.7161555032e+01   4.9390319656e+01    0.5265833    0.3408014 -57.60  0.002464912    1.566    0.362
       200 -13.2324     38.0923    121.0145   1.0350663270e+02   4.7178434395e+01    0.7579715     0.162716  34.04  0.002440163    4.265    0.766
       201 -10.7271      1.4642    101.4992   1.1274080584e+02   5.4787989433e+01     0.128055    0.1021332 -63.11 4.952154e-05    1.005    0.005
       202  -9.6504    102.2950    228.7043   1.0226279186e+02   1.2266144737e+01    0.2056311    0.1859448 -40.32 0.0008068462    1.301    0.232
       203 -10.8391    214.7984     91.6794   5.0158302673e+01   1.9603424188e+01    0.2069681    0.1810177  36.91  0.001188631    1.391    0.281
       204 -11.2210      3.1724     91.1843   1.1053407112e+02   5.7162668405e+01    0.1629336    0.1386431  84.29 0.0005164839    1.325    0.245
       205 -11.4998     71.7297     87.4093   8.3900845038e+01   5.0967993233e+01    0.2009096    0.1384266  19.04  0.000951179    1.645    0.392
       206 -12.9931     53.6196     85.1063   8.9880553118e+01   5.4098976078e+01    0.5203813    0.4086764  48.92  0.002713687    1.546    0.353
       207 -10.9989    154.9582    230.6965   9.0995822402e+01   3.6963729183e+00    0.2413715    0.1467302  36.69 0.0006946133    1.473    0.321
       208 -11.3650    113.9031    228.7452   9.9691475423e+01   1.0493782773e+01    0.4097669     0.250899  41.27  0.002112607    1.444    0.308
       209 -10.1288    172.3160     80.2844   5.4501723850e+01   3.1082448956e+01    0.1428308    0.1168313  19.95   0.00029622    1.583    0.368
       210 -10.7257    153.1235     80.2302   5.8389216701e+01   3.5593895799e+01    0.2149513    0.2024303  28.38  0.000419921    1.149    0.130
       211 -10.0705    105.4241     79.4521   7.0407998528e+01   4.6442831962e+01    0.1462251    0.1431182  -9.46 4.591524e-05    1.031    0.030
       212 -12.2487     75.4726     75.8902   7.9076771002e+01   5.2817136379e+01     0.300279     0.250555 -35.96 0.0006778479    1.142    0.125
       213 -11.5775     59.1304     76.8606   8.5396974863e+01   5.5159875299e+01    0.2006805    0.1954111 -79.17 0.0005289041    1.240    0.193
       214 -11.6832     87.1182     79.4673   7.6199962681e+01   5.0025230098e+01    0.2412387    0.2092045 -64.99  0.001178541    1.358    0.264
       215 -11.4367    116.0011     74.3346   6.5758377892e+01   4.5174036632e+01     0.316658    0.1597825 -29.34  0.001184494    2.467    0.595
       216 -11.0678    137.1233     86.8710   6.4004774214e+01   3.8049885086e+01    0.3549444    0.1949484 -42.16   0.00108996    1.813    0.449
       217 -10.8512    125.1914     73.2510   6.2958603391e+01   4.3329169546e+01    0.2241955    0.2037107  24.53   0.00120369    1.140    0.123
       218 -11.6157     87.0425     68.5486   7.2697830906e+01   5.2195099517e+01    0.2199743    0.1870998 -31.88 0.0003634734    1.154    0.134
       219 -10.8598    195.8269     67.8613   4.7307124542e+01   2.7730594124e+01     0.199466    0.1542715 -72.40 0.0007995711    1.304    0.233
       220 -10.0896    119.2810     68.6475   6.3072246576e+01   4.5482930953e+01    0.1480036    0.1163407 -73.93 0.0006387445    1.654    0.395
       221  -9.8000     15.4741    225.4772   1.2054799053e+02   2.3979697176e+01    0.2495983    0.1393741  65.35  0.001457696    1.520    0.342
       222 -10.1300    188.0201     65.0054   4.7788168276e+01   2.9974902675e+01    0.1710564      0.15582 -75.03  0.000466813    1.005    0.005
       223 -11.4751     45.1301     60.6464   8.5850897990e+01   6.0370349916e+01    0.2205367    0.1772874 -49.49  0.000759704    1.313    0.238
       224 -10.4859      1.8782     60.3609   1.0495713822e+02   6.4180380688e+01    0.1667536    0.1277769 -32.46 0.0006548269    1.138    0.121
       225 -10.0891     99.3090     57.9257   6.5189225915e+01   5.1651700924e+01    0.2345724    0.1044112 -54.96 0.0007021721    4.493    0.777
       226 -10.3196    193.6711     57.6821   4.5093069433e+01   2.9797868831e+01     0.132831    0.1078668  27.59  0.000490853    1.682    0.406
       227 -10.3697    138.5681     56.4917   5.4574900058e+01   4.3044605559e+01    0.1416507    0.1363322  65.60 8.882278e-05    1.009    0.009
       228 -11.3983    109.6728     59.9622   6.2871425688e+01   4.9099895257e+01    0.2030268      0.19094 -27.71 0.0008742097    1.097    0.088
       229 -10.4000    224.4863     55.5230   4.0654622548e+01   2.3312770901e+01    0.1302613    0.1109551 -65.10 -4.84308e-05    1.024    0.024
       230 -10.8074    111.5079     53.5251   6.0203625397e+01   4.9738453471e+01    0.1424254    0.1328169  30.81 0.0001103824    1.019    0.018
       231  -9.9769     65.5339     52.4824   7.4739060043e+01   5.8926107702e+01    0.1358571    0.1206335  -2.69 0.0001045776    1.012    0.012
       232 -10.0581     17.3350     51.3177   9.5294131619e+01   6.5065185830e+01     0.134749   0.07465705 -28.00  0.000687442    1.697    0.411
       233 -11.0227     15.8973    229.0000   1.2067373342e+02   2.3188215658e+01    0.3286143    0.1638871  25.22  0.001734233    2.503    0.600
       234  -9.9937    153.3300     44.2998   4.7966230372e+01   4.1288130823e+01    0.1410633    0.1034178  33.49   0.00030074    1.644    0.392
       235 -11.6346     11.7084     36.7738   9.3245837098e+01   6.8277460655e+01    0.2445528    0.1939485 -44.58  0.001608896    1.269    0.212
       236 -11.4569     26.8983     35.9653   8.5223694970e+01   6.7036759657e+01    0.3099782    0.1153722 -30.99  0.001240454    3.157    0.683
       237 -11.0642     43.8545     34.1460   7.6496138854e+01   6.5251788277e+01    0.1790804    0.1631352   1.66 0.0004887027    1.221    0.181
       238 -10.7995    106.5917     32.2731   5.4066326220e+01   5.3809013233e+01    0.2369753    0.1267524 -33.98  0.000982019    2.004    0.501
       239 -11.1060     39.2299     28.9828   7.6401938677e+01   6.6677822326e+01     0.206301    0.1571938  14.28 0.0005068004    1.175    0.149
       240 -10.8875    101.9871     25.5024   5.2764453216e+01   5.5630965172e+01      0.18302    0.1156199  83.79  0.000810392    2.568    0.611
       241 -11.0942    106.3955     24.2275   5.1204094314e+01   5.4793629362e+01    0.1781347    0.1203411 -39.14 0.0009531955    1.673    0.402
       242 -11.0294     84.0124     23.4932   5.6969331865e+01   5.9681649013e+01    0.1951816    0.1160407  50.33 0.0005750578    1.532    0.347
       243 -10.0511     20.5036     23.4648   8.3292304249e+01   6.9754613005e+01    0.1210827   0.09170074 -12.00 3.873896e-05    1.042    0.040
       244 -11.1196    172.5726     21.7607   3.8731244592e+01   3.9457594427e+01    0.1814833    0.1102146 -46.53 0.0009540552    1.651    0.394
       245 -10.3004    191.5025     21.4650   3.6429542054e+01   3.5074252539e+01    0.1270993    0.1091596 -86.84  0.000809341    1.038    0.037
       246 -12.3194     10.5844    229.7889   1.2175727618e+02   2.3547255847e+01    0.2851894     0.177093  69.72 0.0006213629    1.298    0.230
