#   1 NUMBER                 Running object number                                     
#   2 MAG_AUTO               Kron-like elliptical aperture magnitude                    [mag]
#   3 X_IMAGE                Object position along x                                    [pixel]
#   4 Y_IMAGE                Object position along y                                    [pixel]
#   5 X_WORLD                Barycenter position along world x axis                     [deg]
#   6 Y_WORLD                Barycenter position along world y axis                     [deg]
#   7 A_WORLD                Profile RMS along major axis (world units)                 [deg]
#   8 B_WORLD                Profile RMS along minor axis (world units)                 [deg]
#   9 THETA_WORLD            Position angle (CCW/world-x)                               [deg]
#  10 FWHM_WORLD             FWHM assuming a gaussian core                              [deg]
#  11 ELONGATION             A_IMAGE/B_IMAGE                                           
#  12 ELLIPTICITY            1 - B_IMAGE/A_IMAGE                                       
         1 -14.8207     68.4934    144.2942   1.0632087418e+02   3.7150707511e+01     5.357436     2.661295  67.94  0.005195943    3.627    0.724
         2 -14.3516    213.0544     24.1490   4.1686247723e+01   2.9106391020e+01     1.218274    0.9408231  22.43  0.006716378    1.817    0.450
         3 -14.4973    200.5028     36.7547   4.6450636208e+01   3.0561166458e+01     2.190858     1.539719  30.31  0.008177186    1.928    0.481
         4 -12.4869      3.3384     24.4597   1.0091728060e+02   7.0328814064e+01    0.5875669      0.30566 -51.39  0.003545908    1.565    0.361
         5 -13.0034      2.6497      6.9958   9.3942462410e+01   7.3333569115e+01     1.048864     0.475459 -40.68  0.006261188    1.675    0.403
         6 -12.0512    237.6765      2.1637   3.4362164721e+01   2.5924896242e+01    0.6508783    0.2282719  76.02  0.002870898    2.735    0.634
         7  -9.7942     66.4257      3.2003   6.2153530990e+01   6.5453268970e+01    0.1624163    0.1063085 -30.01 0.0007015465    1.659    0.397
         8  -9.9079     41.5580    232.1079   1.2198120949e+02   2.1071896766e+01    0.1703966    0.1579084 -85.10 0.0008193783    1.425    0.298
         9 -11.4196    139.6373    248.2704   1.0527255739e+02   4.4868752443e+00    0.4093519     0.253112 -63.57  0.002378819    2.164    0.538
        10 -13.1745     47.4541    221.4408   1.2010861125e+02   2.2451014939e+01     1.025935    0.5931748  68.30  0.001399266    1.531    0.347
        11 -14.1346     85.6075    229.5835   1.1351947035e+02   1.5841642351e+01     1.613613      1.19796  52.17  0.002085258    1.134    0.118
        12 -12.7020     12.5083    189.2023   1.2453758633e+02   3.2906781491e+01    0.2274336    0.1813904  69.33 0.0004055793    1.150    0.130
        13 -12.8890     24.8004    225.1857   1.2453151284e+02   2.4274515323e+01    0.3697171    0.3551379 -77.93  0.002431627    1.541    0.351
        14 -16.3947      8.3339    193.2880   1.2562882660e+02   3.2407181600e+01     8.247728      1.22681 -74.43   0.01967647    4.901    0.796
        15 -14.2767     52.0932    193.6333   1.1671073613e+02   2.7711862176e+01     1.364769     1.000202  62.67  0.007801344    1.204    0.170
        16 -11.6180    193.5264    195.5112   8.6497586680e+01   4.1895477659e+00     1.002657    0.5337998 -63.47  0.002979747    6.280    0.841
        17  -8.6119     99.3768    200.2762   1.0727876622e+02   1.9641887186e+01    0.1250248     0.105466  -1.93 0.0007004459    1.699    0.411
        18 -10.6946    209.1937    197.9622   8.3904726115e+01   1.0627076966e+00    0.2543657    0.1789054 -48.06 0.0009398297    1.751    0.429
        19 -10.2800    112.0395    197.5131   1.0412874846e+02   1.8188479861e+01    0.2352041    0.2244643  55.40  0.001002041    1.106    0.096
        20  -9.8471     72.6902    229.9115   1.1603370156e+02   1.7570068129e+01    0.2170369    0.1877478   2.01  0.001442547    1.840    0.456
        21 -15.9166     63.5895    247.0711   1.1913970077e+02   1.5606565229e+01     9.168783      2.87111  29.64  0.008389011    9.919    0.899
        22  -9.2826     34.0044    227.7305   1.2304438800e+02   2.2776869363e+01    0.1512944    0.1133396  59.67 0.0009046019    1.147    0.128
        23  -8.9556    111.5436    217.5264   1.0696191186e+02   1.4254246753e+01    0.1286269    0.1115269  57.03 0.0001220502    1.007    0.007
        24  -8.9044     97.6592    189.6791   1.0619655243e+02   2.2182390335e+01    0.1304579     0.108251 -17.72 0.0005692162    1.719    0.418
        25 -16.1305      8.7030    241.3748   1.2811394319e+02   2.2874223771e+01     1.765811     1.203394 -76.55   0.01357397    1.522    0.343
        26  -9.0953     71.1936    185.4497   1.1160493237e+02   2.7047079022e+01    0.1685586    0.1104054  54.29 0.0003285425    1.439    0.305
        27 -10.3697    146.7785    183.0354   9.4036035809e+01   1.5093009688e+01    0.2946061    0.2226617  57.27  0.001116466    1.410    0.291
        28 -10.0992     99.2047    181.0062   1.0456441256e+02   2.3855156882e+01    0.3159806    0.2242101  19.69  0.001563839    1.909    0.476
        29 -12.1784     67.6614    177.2671   1.1138105493e+02   2.9395562316e+01    0.4369536    0.2841295 -41.22  0.001686865    2.067    0.516
        30 -12.1805     72.1321    172.2953   1.0966796685e+02   2.9934451287e+01    0.2954049    0.2535694 -62.40  0.000699652    1.210    0.173
        31  -9.7344     42.9997    180.0148   1.1731184395e+02   3.1835398198e+01    0.1874847    0.1576385  80.64 0.0003378436    1.053    0.050
        32 -11.3761    141.3336    174.6282   9.3705112161e+01   1.7858010960e+01    0.6635273    0.4379405 -84.95  0.002732922    2.559    0.609
        33  -9.9953     46.4206    177.2353   1.1625273660e+02   3.2077021679e+01    0.2462961    0.1669232 -85.95 0.0008053166    1.305    0.234
        34 -12.8908     87.8509    155.7823   1.0323298413e+02   3.1522850990e+01     1.837754    0.8771881 -69.51  0.002011921    2.444    0.591
        35  -9.8730    197.5741    223.0049   9.0564806769e+01  -8.7444866243e-01    0.1918799    0.1503398  28.02 0.0004417876    1.100    0.091
        36  -8.9632     45.2989    158.6345   1.1436281254e+02   3.6565726154e+01    0.1403052   0.08635262  74.78 0.0007033063    1.726    0.421
        37 -12.4951     54.8166    146.3723   1.1027134727e+02   3.8410357069e+01    0.6882765    0.6724041  50.47  0.004454819    1.220    0.181
        38 -11.2032    133.3831    143.1940   8.9150246354e+01   2.6341188474e+01     1.296518    0.2960039 -53.91  0.002779659    6.779    0.852
        39 -12.5228     81.0156    162.6476   1.0608482978e+02   3.0927350492e+01    0.6615155    0.4023983  58.19 0.0004259739    1.780    0.438
        40 -10.6823    174.3552    148.4743   8.0770677091e+01   1.6757864196e+01    0.3808417    0.2926698 -63.58   0.00170603    1.586    0.370
        41  -9.7864     96.2807    147.6393   9.9575973154e+01   3.2116669426e+01    0.1518975    0.1101889  83.95 0.0004468979    1.672    0.402
        42 -10.6211     39.0468    146.3987   1.1437647710e+02   4.0187533836e+01    0.2646462    0.2256662 -88.85 0.0008384748    1.052    0.049
        43 -10.0543     83.4843    143.1036   1.0210216652e+02   3.5263175241e+01    0.2695489     0.202885  73.17 0.0006122261    1.489    0.328
        44 -10.4859    100.6832    141.6886   9.7241904486e+01   3.2800223755e+01    0.3802084     0.284098 -42.73  0.001264573    1.401    0.286
        45  -9.9261    103.3401    138.9777   9.5975246585e+01   3.2987850110e+01     0.325097     0.200066 -41.23  0.001415947    1.764    0.433
        46 -12.4240     89.2117    140.6377   1.0009567002e+02   3.4963202552e+01    0.2928644    0.2524877 -48.83 0.0004367168    1.174    0.148
        47  -9.8691     79.6616    139.9219   1.0253927964e+02   3.6619471313e+01    0.2052188    0.1700194 -69.34 0.0005527743    1.112    0.101
        48 -11.4199     25.7401    137.4469   1.1670242346e+02   4.3636730384e+01    0.3263747    0.2075724  42.25  0.001119583    1.733    0.423
        49 -11.1887     45.8741    134.8881   1.1092960762e+02   4.2256694138e+01    0.2749593    0.2405239 -85.86  0.001335598    1.065    0.061
        50 -10.2696    105.9670    130.8637   9.3505952154e+01   3.4459623737e+01    0.3475123    0.3008134 -77.70  0.001207122    1.202    0.168
        51 -10.2480    111.2679    130.7041   9.2039153343e+01   3.3523935503e+01    0.3176147    0.2561322   7.58 0.0007181458    1.595    0.373
        52 -12.4484     45.0807    129.3730   1.1028416248e+02   4.3695218009e+01    0.4536219    0.3167968  50.28  0.002509909    1.574    0.365
        53 -11.3954    135.8871    127.5940   8.4870368588e+01   2.9371903041e+01     0.567621    0.2433827 -52.06  0.001952102    2.477    0.596
        54 -13.6372     68.7810    158.4781   1.0850016732e+02   3.3671199744e+01    0.5908455    0.4793868 -40.54   0.00138244    1.472    0.320
        55 -10.2058    160.4000    127.7054   7.8959958475e+01   2.4089181092e+01    0.3747249    0.2656202 -78.91   0.00152328    2.173    0.540
        56 -11.0581     98.3698    126.9308   9.4708509102e+01   3.6749798581e+01    0.3057246     0.243698 -31.82 0.0006544767    1.404    0.288
        57 -10.5285    117.0637    124.9465   8.9130855333e+01   3.3775369143e+01    0.2899454    0.2100897   6.10  0.001140143    2.054    0.513
        58 -10.9171    135.0000    112.2163   8.1163800399e+01   3.2999396083e+01    0.7075539   0.08787595 -44.77  0.001330922    7.809    0.872
        59  -9.8947    107.7718    119.4849   9.0342886193e+01   3.6827001485e+01    0.2396515    0.1985465 -49.20 0.0003744092    1.148    0.129
        60 -12.0178     33.8138    118.2080   1.1173165489e+02   4.7566419208e+01    0.4180458    0.2326124 -35.19  0.001995214    2.291    0.564
        61 -10.5800     45.2780    118.0143   1.0830313026e+02   4.6456093214e+01    0.1984364    0.1532872 -67.27 0.0004495947    1.107    0.096
        62  -9.7790    168.4737    113.2981   7.3428135758e+01   2.5291258050e+01    0.3122095    0.2404242 -89.32  0.001158299    1.786    0.440
        63 -12.0727     41.6997    104.1696   1.0679769830e+02   5.0193869328e+01    0.4238352    0.3017709  49.28  0.001662176    1.659    0.397
        64  -9.1000     35.8292    167.1138   1.1759939622e+02   3.5596974672e+01    0.1555199    0.1343136 -64.23 0.0003468296    1.269    0.212
        65 -10.1127    205.4652    110.1923   6.5137770539e+01   1.7484484565e+01    0.3128144     0.216094  41.57 0.0009733145    1.574    0.365
        66 -11.2069    119.1701    106.5871   8.3856951006e+01   3.7573480070e+01    0.7074429    0.2524243 -38.79    0.0021388    3.251    0.692
        67 -10.3992    159.3915    162.8546   8.7250306014e+01   1.6840999262e+01    0.3088128    0.2439238 -79.76 0.0009604808    1.677    0.404
        68  -9.6361     65.2280    103.3943   9.9132259680e+01   4.7578774395e+01     0.181202     0.131581  47.09 0.0003546938    1.577    0.366
        69 -11.4876    241.4370    100.2098   5.6807414573e+01   1.1513200953e+01    0.3734121    0.1151656 -38.12  0.001311882    2.725    0.633
        70 -10.1927     32.9499     99.8551   1.0876664216e+02   5.2074435999e+01    0.2320603    0.1736863  58.69  0.001149126    1.618    0.382
        71 -14.5137     44.1243    203.9841   1.1932352283e+02   2.6433116148e+01      2.74877     1.044316  54.03   0.01109964    2.460    0.593
        72 -10.3501     52.9711     91.1344   1.0020614872e+02   5.2038641668e+01    0.2604014    0.1761984 -53.46 0.0006688378    1.265    0.210
        73 -10.7877     41.6784     91.7556   1.0418035038e+02   5.3148739779e+01    0.2344822    0.2047244 -65.06  0.000414153    1.106    0.096
        74  -9.8896    158.6648     81.0640   6.6577993111e+01   3.3944496118e+01    0.2217919    0.2007702 -34.67   0.00071247    1.088    0.081
        75  -9.5459    106.7837    210.1894   1.0700519711e+02   1.6445036868e+01    0.1632373    0.1513558  20.64 0.0004050706    1.301    0.231
        76  -9.8084     54.6876     65.6324   9.2478994650e+01   5.7489401787e+01    0.2298582     0.197785  51.05  0.001016544    1.485    0.327
        77 -10.7215     13.4580     59.7929   1.0703573134e+02   6.2694432825e+01    0.2374701    0.1846819 -64.09 0.0004391093    1.241    0.194
        78 -10.1631    113.1913    207.5143   1.0529369959e+02   1.5956595866e+01    0.2158842    0.1793013 -73.56 0.0005657339    1.275    0.216
        79 -14.0222     30.8246    246.7368   1.2475177034e+02   1.9587630745e+01    0.7705225    0.7187178 -43.08   0.00626319    1.811    0.448
        80 -12.6829    191.8072     43.2961   4.9441851363e+01   3.1825582878e+01    0.7572588    0.5743707  31.48  0.001142344    1.635    0.388
        81 -10.4915    171.7503    240.3593   9.8159670017e+01   6.7137378323e-01    0.3645755    0.2044491 -56.77   0.00181992    2.652    0.623
        82 -10.5663      6.0024     38.9493   1.0448894093e+02   6.7434129352e+01    0.1797654    0.1360984 -40.52 0.0003924471    1.018    0.018
        83  -8.5545    115.6601     31.2851   6.0031015252e+01   5.2140937620e+01    0.1357375    0.1106542 -75.11 0.0003666295    1.634    0.388
        84 -11.6663    186.6846    210.2442   9.0509803145e+01   2.9219468147e+00    0.2853969    0.2006911  13.94  0.001511659    1.547    0.354
        85  -8.7455     43.5241    236.4731   1.2192969851e+02   2.0016499873e+01    0.1116566   0.08676007  69.74 2.599615e-06    1.059    0.056
        86  -9.4551    189.4945     14.9871   4.1886582461e+01   3.5857488709e+01    0.1917648    0.1307449 -30.21  0.000629283    1.548    0.354
        87 -11.0113    143.1964     48.1781   5.9628944698e+01   4.3262690346e+01    0.4137067     0.282746 -78.61 0.0005843194    2.177    0.541
        88 -10.1530    145.9491     42.6261   5.7201292270e+01   4.3390056988e+01    0.2532819    0.2082035 -40.51 0.0004136037    1.258    0.205
        89  -9.9872     29.2748    233.5674   1.2424991710e+02   2.2183887092e+01    0.3184018    0.1519853 -67.11  0.001903495    2.127    0.530
