#   1 NUMBER                 Running object number                                     
#   2 MAG_AUTO               Kron-like elliptical aperture magnitude                    [mag]
#   3 X_IMAGE                Object position along x                                    [pixel]
#   4 Y_IMAGE                Object position along y                                    [pixel]
#   5 X_WORLD                Barycenter position along world x axis                     [deg]
#   6 Y_WORLD                Barycenter position along world y axis                     [deg]
#   7 A_WORLD                Profile RMS along major axis (world units)                 [deg]
#   8 B_WORLD                Profile RMS along minor axis (world units)                 [deg]
#   9 THETA_WORLD            Position angle (CCW/world-x)                               [deg]
#  10 FWHM_WORLD             FWHM assuming a gaussian core                              [deg]
#  11 ELONGATION             A_IMAGE/B_IMAGE                                           
#  12 ELLIPTICITY            1 - B_IMAGE/A_IMAGE                                       
         1 -12.1002    218.1592     36.1058   3.7026921734e+01   2.7333927109e+01     1.026037    0.7540303  50.36  0.006109897    1.704    0.413
         2 -11.9948    226.0191     30.1463   3.4976818989e+01   2.6417639097e+01    0.9701262     0.711256  40.32  0.001945831    2.052    0.513
         3 -11.5369    243.2424     15.4624   3.0617195207e+01   2.4667831487e+01    0.6542188    0.4478801 -62.53  0.002732299    1.145    0.127
         4  -9.9560      1.8401     15.7563   9.0491780646e+01   7.2605026416e+01    0.5390501   0.09039646 -49.12  0.001995087    4.609    0.783
         5  -9.1327      1.8506      5.2247   8.5526882631e+01   7.4198594225e+01    0.4972387   0.09894272 -43.49  0.002026848    4.070    0.754
         6  -7.2569     32.6628     13.6815   7.2463285980e+01   6.9695893887e+01    0.1255849   0.07635529   3.04 0.0007049169    1.704    0.413
         7 -12.0199     82.7014    243.0259   1.0810790646e+02   1.2196561099e+01    0.9898786    0.6154712  16.12  0.004941379    2.363    0.577
         8 -11.0061     69.3858    246.4498   1.1119093073e+02   1.3318392569e+01    0.6197122    0.3028399  32.63  0.002817122    1.979    0.495
         9 -10.1049     67.5072    240.9426   1.1108023632e+02   1.4666816553e+01    0.2899588    0.1959786 -77.65  0.001192661    1.546    0.353
        10 -10.0191     47.6212    250.3571   1.1585519393e+02   1.5295305018e+01    0.4889044    0.3850154  -8.64  0.002692422    2.195    0.544
        11 -10.4094     53.8300    249.2415   1.1455241894e+02   1.4756101275e+01    0.7684273    0.3568963  19.54  0.003013697    4.338    0.769
        12 -11.1683     58.1998    242.4163   1.1312567126e+02   1.5570163181e+01    0.6942415    0.4591508  71.58  0.002224592    1.429    0.300
        13 -10.2935     22.6920    244.0004   1.2023764453e+02   1.9391923192e+01    0.4530846      0.29852 -70.97  0.002976372    1.586    0.370
        14  -9.2362     40.5066    246.4933   1.1696906777e+02   1.6903460499e+01    0.6126516    0.2075302 -60.73  0.002811825    3.158    0.683
        15  -9.5800     27.1828    250.2077   1.1975360792e+02   1.7675353903e+01    0.5799305    0.1690123  29.21  0.002316433    4.139    0.758
        16 -10.2794     32.7075    248.5923   1.1861161859e+02   1.7380388565e+01    0.4967036    0.3432102  61.27  0.003253796    1.138    0.121
        17 -13.3597      2.5321    134.7935   1.1649032564e+02   4.6548851096e+01     13.76455    0.7577404 -74.38   0.01768337   25.270    0.960
        18 -10.2235     84.9769    220.7511   1.0518092764e+02   1.6502379319e+01    0.5223978    0.2972948 -77.57  0.001828823    2.074    0.518
        19  -9.3457     77.2667    224.7066   1.0735935300e+02   1.6739107127e+01    0.2175116    0.2114377 -11.64 0.0008542466    1.288    0.223
        20 -10.0807    133.4707    230.7843   9.5659243644e+01   7.0500970613e+00    0.3245311    0.1523809  33.02  0.001438958    1.970    0.492
        21 -12.0582     10.3248    206.8599   1.2045136111e+02   2.8569255382e+01    0.7016861    0.6753898  43.86    0.0040346    1.369    0.269
        22 -11.1674     20.8701    205.2403   1.1806877006e+02   2.7927567421e+01    0.3909765    0.3131742 -50.33 0.0008786218    1.566    0.362
        23 -10.1859     48.6834    205.2319   1.1180465045e+02   2.4861800176e+01    0.4026872    0.1713986  48.74  0.001789538    2.187    0.543
        24 -10.0742     58.2887    211.4293   1.1022533808e+02   2.2234032621e+01    0.4650253    0.2107386  44.18  0.002149069    1.970    0.492
        25 -10.2607     97.7688    227.1326   1.0307518536e+02   1.3267761343e+01    0.3246692    0.2275015 -42.56  0.001752042    1.753    0.430
        26  -9.8380     83.9658    234.5577   1.0695806729e+02   1.3728169756e+01    0.2401623    0.1753678 -47.33  0.001382618    1.680    0.405
        27 -11.4656    111.5997    230.8184   1.0047196901e+02   1.0428979747e+01    0.5396048    0.3357871  36.90  0.002826568    1.432    0.302
        28 -10.3072     51.2210    179.1404   1.0830294362e+02   3.0854377560e+01    0.6478162     0.357161 -34.13  0.002061872    2.959    0.662
        29  -9.9506     58.3813    172.5204   1.0556885497e+02   3.1619764453e+01    0.3269463     0.249303 -46.43 0.0009484027    1.440    0.306
        30 -11.4567      3.0953    243.5139   1.2384365722e+02   2.1464434659e+01     1.704981     0.427972 -80.83  0.007233438    3.718    0.731
        31 -10.5063     14.4862    248.2396   1.2199737993e+02   1.9405953956e+01    0.5426615    0.2998008  52.81  0.001631094    1.415    0.293
        32  -8.8875     83.3724    163.2533   9.7339420807e+01   3.0438245771e+01    0.2107345    0.1379084 -71.75 0.0009458852    1.603    0.376
        33  -9.6312     70.0798    162.7415   1.0093235536e+02   3.2531277714e+01    0.3796462    0.2546087  27.25 0.0006249062    1.671    0.401
        34 -11.5273     55.8733    159.1201   1.0433523206e+02   3.5354375771e+01    0.5693012    0.3181868 -39.32  0.001475788    2.257    0.557
        35 -10.7896     77.7739    156.4302   9.7710617635e+01   3.3027866548e+01    0.6400545    0.4674206 -25.50  0.001957855    1.790    0.441
        36  -9.1663     33.0000    154.9679   1.1016950622e+02   3.8997993554e+01    0.5339983   0.06881868 -69.13  0.001237429    6.772    0.852
        37  -9.2196     72.5309    153.0431   9.8610194552e+01   3.4668401815e+01    0.3667381    0.2521486  44.86  0.001764318    1.504    0.335
        38 -10.4435     69.8807    145.8648   9.8097153049e+01   3.6896505223e+01    0.4936961    0.4423446 -36.17  0.001355464    1.200    0.167
        39 -10.5243     67.5232    142.5007   9.8180623618e+01   3.8096122975e+01       0.4863    0.3356743  45.80   0.00130916    1.536    0.349
        40  -9.4227     20.0644    224.7565   1.1958113773e+02   2.3670372456e+01    0.2854955     0.194911 -39.57  0.001659753    2.314    0.568
        41  -9.0968     93.6613    142.7577   9.0505290581e+01   3.3974314848e+01    0.2731769    0.2327032 -32.74 0.0009640033    1.264    0.209
        42 -10.4493     81.2741    141.0672   9.3795739670e+01   3.6425642401e+01    0.3378212    0.3086945 -52.42 0.0005194541    1.063    0.059
        43  -9.7872     56.5808    129.9599   9.9194498237e+01   4.2783075909e+01    0.6032785    0.2460485 -78.76  0.001432034    6.667    0.850
        44  -8.8335    106.5317    131.1907   8.4203810423e+01   3.4561437672e+01    0.3087617    0.2709872  20.57  0.001337417    1.239    0.193
        45  -9.3129     93.3384    127.6932   8.7277755041e+01   3.7805650765e+01    0.2781383    0.2463005 -32.05 0.0004180834    1.167    0.143
        46  -9.2344    114.4609    125.6362   8.0601988016e+01   3.4388334311e+01    0.4131121    0.2460254 -38.26  0.001668674    1.804    0.446
        47 -10.1753      9.5961    126.7844   1.1347434052e+02   4.8095515130e+01    0.3267115    0.1919883  -3.41  0.001662939    2.360    0.576
        48 -10.0565     55.9287    118.9258   9.7204212170e+01   4.5672430179e+01    0.3823259    0.3641784  58.24   0.00109998    1.149    0.130
        49  -7.8371    104.5437    119.8458   8.2032950385e+01   3.7685572000e+01    0.2302909    0.1493131 -48.95 0.0006079415    1.488    0.328
        50 -12.8251     32.2103    195.3334   1.1469075201e+02   2.9072407286e+01     1.262204     1.161494  63.88  0.005973916    1.177    0.150
        51  -7.8035     79.5431     85.5119   8.0615637569e+01   5.0096487177e+01    0.1452837    0.1379573 -26.46 0.0001435679    1.042    0.040
        52  -9.3943     13.1359     60.3034   9.9848704110e+01   6.3532319844e+01    0.2213584    0.1348469 -45.49 0.0006113775    1.308    0.236
        53 -11.7656     11.1858    233.2933   1.2183176265e+02   2.2757218774e+01     1.291525      0.36117 -81.77   0.00212928    3.527    0.716
        54  -8.1771    134.3174    239.3568   9.6670375656e+01   5.3060733018e+00    0.1317003   0.09779654  -5.52 0.0007045036    1.752    0.429
        55 -10.0950    113.5179    238.3499   1.0100942674e+02   8.6543697359e+00    0.2919286    0.1984901  56.04  0.001603281    1.502    0.334
        56  -8.0888    125.9158     33.6953   5.0052133344e+01   4.9205424501e+01    0.1884855    0.1603567  65.52  0.000446747    1.117    0.105
        57  -8.6838     33.0000     32.9847   8.1044523923e+01   6.6844534866e+01    0.1977811   0.06301945 -43.77 0.0008064192    2.970    0.663
        58  -7.8428    126.7943     26.9515   4.7644806631e+01   4.9795708964e+01    0.2162705    0.1379021 -58.38 0.0009794948    1.999    0.500
        59  -9.0468     73.5903    238.4328   1.0956985546e+02   1.4365828360e+01    0.2620739    0.1206509 -70.18   0.00124258    2.393    0.582
        60 -12.8429     15.8736    164.7973   1.1585251548e+02   3.8094647706e+01     3.414007     1.193897  81.57  0.009610629    5.885    0.830
        61  -8.4798     32.8632    234.2527   1.1763391543e+02   2.0280247507e+01    0.3525107   0.08027906 -76.46  0.001191341    4.935    0.797
