#   1 NUMBER                 Running object number                                     
#   2 MAG_AUTO               Kron-like elliptical aperture magnitude                    [mag]
#   3 X_IMAGE                Object position along x                                    [pixel]
#   4 Y_IMAGE                Object position along y                                    [pixel]
#   5 X_WORLD                Barycenter position along world x axis                     [deg]
#   6 Y_WORLD                Barycenter position along world y axis                     [deg]
#   7 A_WORLD                Profile RMS along major axis (world units)                 [deg]
#   8 B_WORLD                Profile RMS along minor axis (world units)                 [deg]
#   9 THETA_WORLD            Position angle (CCW/world-x)                               [deg]
#  10 FWHM_WORLD             FWHM assuming a gaussian core                              [deg]
#  11 ELONGATION             A_IMAGE/B_IMAGE                                           
#  12 ELLIPTICITY            1 - B_IMAGE/A_IMAGE                                       
         1 -14.2195    170.1561     51.1691   6.8549675955e+01   3.6114837984e+01     1.677673     1.170714  25.01  0.006045215    2.232    0.552
         2 -14.1714    184.6050     36.3107   6.2806000304e+01   3.4797844644e+01    0.8769358    0.7684093 -73.11  0.003461905    1.106    0.096
         3 -13.5956    188.9610     30.0532   6.0809366619e+01   3.4592093098e+01    0.5329047    0.4440607  89.17  0.001450404    1.001    0.001
         4 -14.5452    205.8356      6.7705   5.4044846420e+01   3.3511239255e+01     1.094571     1.055341  35.10  0.007158027    1.526    0.345
         5 -13.1972    189.7593     14.8921   5.7351166158e+01   3.6138351502e+01    0.4250826    0.3311365 -66.54  0.001480793    1.215    0.177
         6 -12.4766     51.8129      5.4197   8.1829776832e+01   6.5441368811e+01    0.3045063    0.2689187  54.27  0.001549888    1.595    0.373
         7 -11.3975    152.9841    212.4628   1.0930585754e+02   6.7175492342e+00    0.2736022    0.2066255 -71.06 0.0009531379    1.636    0.389
         8 -11.9295    248.6091    248.9682   9.6502029611e+01  -1.4410918750e+01    0.2931478    0.2204917 -10.57  0.002004247    1.068    0.064
         9 -18.0870     49.0368    242.1918   1.3604909941e+02   1.6658457789e+01     8.621439     8.404379  64.39   0.05890679    1.364    0.267
        10 -12.3560    150.2156    181.8925   1.0417243863e+02   1.4043320469e+01    0.4921017    0.3251133 -79.70  0.001761273    2.395    0.582
        11 -11.7452     99.3541    180.7847   1.1647679571e+02   2.3656744746e+01    0.2947395    0.2786126  85.92 0.0005783697    1.019    0.019
        12 -12.6872     73.3848    212.6587   1.2763665669e+02   1.9977028435e+01    0.2998434    0.2519801 -73.40 0.0006110246    1.148    0.129
        13 -10.4942    201.6655    169.3155   9.0303705954e+01   6.8989708709e+00    0.3624199    0.2556835 -69.86  0.001649889    1.957    0.489
        14 -11.1876    204.5616    165.4841   8.8924890710e+01   7.1466608771e+00    0.7877881    0.3450399 -43.57  0.002435945    2.102    0.524
        15 -10.8365     77.1687    207.5660   1.2609012849e+02   2.0628035863e+01    0.4181385    0.2775197 -66.22  0.001310666    1.446    0.309
        16 -10.3190    165.1188    172.0029   9.8682526037e+01   1.3394875248e+01    0.2304994    0.2155357 -70.21 0.0005232043    1.118    0.105
        17 -11.5865    193.5864    166.2500   9.1291399351e+01   9.0769253090e+00    0.3533861    0.2986819 -46.77 0.0007358344    1.124    0.110
        18 -10.7706    191.0202    161.9625   9.0902496373e+01   1.0487663099e+01    0.3588859    0.3053542  80.66  0.001412724    1.433    0.302
        19 -11.9492    193.6113    196.0322   9.7383217713e+01   2.8824925386e+00     1.287816    0.6300738 -64.73  0.003379007    6.425    0.844
        20 -10.9980    160.2685    165.1718   9.8338007857e+01   1.5914466069e+01    0.2901108    0.2097014 -67.48 0.0006870729    1.643    0.391
        21 -13.1466     55.2660    222.2944   1.3278920239e+02   2.0260617940e+01    0.3504999    0.2264609  60.62  0.001423584    1.451    0.311
        22 -10.3755      6.3283    161.1683   1.3737746022e+02   4.0226424362e+01    0.1699819    0.1653167 -22.81 0.0005185797    1.324    0.245
        23 -11.4250    189.1561    154.9367   8.9761581142e+01   1.2361098667e+01    0.4883846    0.4124058  77.48  0.002359021    1.413    0.292
        24 -12.8051     99.6850    153.1545   1.1106109220e+02   3.0513567268e+01    0.6961156    0.4732119 -32.54  0.003048893    1.781    0.439
        25 -11.6990    133.8763    145.4082   1.0033085845e+02   2.5900661519e+01     1.265625    0.3266076 -54.80  0.002872597    5.634    0.823
        26 -11.2480     86.0107    201.5266   1.2314722360e+02   2.0730009701e+01    0.5868752    0.3174975  62.15  0.002392077    2.328    0.570
        27 -10.3545    113.1456    150.9424   1.0696782393e+02   2.8617911839e+01    0.2639258    0.1804616 -82.80 0.0009002506    2.053    0.513
        28 -10.6881    174.5982    148.9268   9.1518936588e+01   1.6643573527e+01    0.2906484    0.2400583 -89.44 0.0006276522    1.461    0.316
        29  -9.7856    161.9402    149.4724   9.4478061179e+01   1.9155867354e+01    0.2200532    0.1361488  68.46    0.0008085    2.493    0.599
        30 -12.2151     65.9639    200.5163   1.2776344770e+02   2.3955167043e+01    0.2926504    0.2393793 -55.06 0.0005601877    1.302    0.232
        31 -12.0452     66.4619    195.5467   1.2697142969e+02   2.5100949005e+01    0.3982372    0.2484165  72.96  0.001193878    1.863    0.463
        32  -9.3870     90.6475    146.2946   1.1211246801e+02   3.3774420521e+01     0.156489    0.1167987  74.41 0.0005836458    1.684    0.406
        33 -12.3309    109.6358    139.2444   1.0529954483e+02   3.2132131681e+01    0.6705411    0.3882639 -31.65  0.002546499    2.310    0.567
        34 -12.6699     98.5918    138.7105   1.0823488074e+02   3.4277919309e+01    0.3011601    0.2893012 -15.86 0.0007657433    1.103    0.094
        35 -12.6435     58.2781    213.6455   1.3116092193e+02   2.1868287418e+01    0.2955999    0.2319372  48.32 0.0005316908    1.266    0.210
        36 -11.5986    106.0659    130.8454   1.0432402074e+02   3.4817181407e+01    0.4327289    0.3467336 -67.76  0.001221661    1.342    0.255
        37 -11.5334    104.2777    125.6859   1.0358549467e+02   3.6370001856e+01    0.3143651    0.2580915 -10.29 0.0004913221    1.464    0.317
        38 -11.0725    116.3520    129.6919   1.0121965031e+02   3.3121338864e+01    0.3337459    0.2642359 -27.32 0.0006216837    1.422    0.297
        39 -11.1945    135.7219    127.4936   9.5608081788e+01   2.9686955895e+01    0.5999473    0.1355012 -50.32  0.001431635    5.002    0.800
        40 -10.6805    160.5487    127.6715   8.9694665734e+01   2.4320665003e+01    0.3870515    0.2530349 -63.60  0.001455268    1.825    0.452
        41 -10.2171    111.1854    118.9252   9.9975331091e+01   3.6619224100e+01    0.2481555    0.2173129  43.32 0.0003511816    1.178    0.151
        42 -11.9497     64.9903    209.4188   1.2913825302e+02   2.1947078688e+01    0.4855552    0.4209782 -48.34  0.002315221    1.365    0.268
        43 -10.6362    168.0553    113.0262   8.4475403675e+01   2.5774814197e+01    0.3407431    0.2586557  80.99  0.001008377    1.599    0.375
        44 -10.3557    135.1884    111.3736   9.1680352108e+01   3.3358938721e+01    0.3054096    0.1169679 -42.63   0.00101839    2.627    0.619
        45 -10.6075    205.5220    110.1422   7.6596760693e+01   1.8146898885e+01    0.2922766    0.2119843  45.39 0.0008138076    1.570    0.363
        46 -11.1929    117.5229    109.6984   9.5856806022e+01   3.7412255342e+01    0.3180719    0.2378916  72.10  0.001445948    1.756    0.431
        47 -11.0607     81.8963    194.9522   1.2315443013e+02   2.2970843256e+01    0.3347443    0.3170976   6.28  0.001386063    1.284    0.221
        48 -12.6675    152.4022    193.1083   1.0586669290e+02   1.1071622324e+01    0.4817704    0.3367937  78.47  0.001882785    2.210    0.547
        49  -8.9957    127.6962     94.7173   8.9151794999e+01   3.8398702721e+01    0.1465469    0.1179559   7.67 0.0003380424    1.556    0.357
        50 -10.9912     41.5074     91.8304   1.1489101407e+02   5.3436627356e+01    0.2145577    0.1808295   9.17 0.0004543372    1.259    0.206
        51 -13.0670     69.5092    218.6463   1.2925860989e+02   1.9135906864e+01    0.3698237    0.2570954  76.86  0.001336269    1.453    0.312
        52 -12.6310    168.7950     68.5465   7.3166945089e+01   3.3807748063e+01    0.9390142    0.5049098 -73.47 0.0008853044    3.686    0.729
        53 -19.0658     26.0622    101.6396   1.2243923134e+02   5.2800736167e+01     16.03403     1.134195 -60.46   0.02969112   12.188    0.918
        54 -10.0916    168.9144    234.9357   1.0968693836e+02  -5.3649872687e-01    0.1958975    0.1845144  10.63 0.0003985087    1.042    0.040
        55 -10.6908     60.5519    189.2396   1.2752884201e+02   2.7477272069e+01    0.3412928    0.2042172 -64.16  0.001132058    1.520    0.342
        56 -11.8883     71.9406    230.0072   1.3007141401e+02   1.6197194914e+01    0.2456729    0.1857354  58.68 0.0004398936    1.189    0.159
        57  99.0000      7.2932    227.8522   1.4297536267e+02   2.4583526874e+01    0.3576321    0.1747451  16.80  0.001586575    4.267    0.766
