#   1 NUMBER                 Running object number                                     
#   2 MAG_AUTO               Kron-like elliptical aperture magnitude                    [mag]
#   3 X_IMAGE                Object position along x                                    [pixel]
#   4 Y_IMAGE                Object position along y                                    [pixel]
#   5 X_WORLD                Barycenter position along world x axis                     [deg]
#   6 Y_WORLD                Barycenter position along world y axis                     [deg]
#   7 A_WORLD                Profile RMS along major axis (world units)                 [deg]
#   8 B_WORLD                Profile RMS along minor axis (world units)                 [deg]
#   9 THETA_WORLD            Position angle (CCW/world-x)                               [deg]
#  10 FWHM_WORLD             FWHM assuming a gaussian core                              [deg]
#  11 ELONGATION             A_IMAGE/B_IMAGE                                           
#  12 ELLIPTICITY            1 - B_IMAGE/A_IMAGE                                       
         1 -14.8032    192.6542    131.5431   4.7014155329e+01   1.6325069120e+01     2.202483    0.4826047 -40.84  0.005763747    4.470    0.776
         2 -10.9161     92.0000     44.9886   4.7066009164e+01   5.5487332076e+01    0.4391453    0.1689282 -30.18   0.00158465    3.011    0.668
         3 -11.6078      5.0465     38.8621   7.9614676103e+01   6.7130917721e+01    0.6324522     0.137689 -59.48   0.00254943    3.420    0.708
         4  -9.5484    111.8320     32.3149   3.6404806824e+01   5.3277237414e+01    0.3975686    0.1812495 -14.01  0.001345389    3.740    0.733
         5 -11.7697     45.1394     49.7950   6.5938764363e+01   6.1763816126e+01    0.5114537    0.1912815 -42.36 0.0006546761    2.288    0.563
         6 -10.8000     40.8454     14.0285   5.3561325181e+01   6.8255805000e+01    0.1988901    0.1465648  -1.50 0.0003234645    1.164    0.141
         7  -9.2296     97.5103     12.9695   3.2653994447e+01   5.8689076478e+01    0.1907143    0.1031641   8.29 0.0008102512    2.606    0.616
         8  -9.8760     59.5139    222.5024   9.1398829889e+01   2.1555003929e+01    0.1208976   0.09073199  69.45  0.000810342    1.030    0.029
         9 -11.0640    126.2499    220.5530   7.8104869817e+01   1.1918505088e+01     0.271147    0.2000744  60.12 0.0007269878    1.254    0.203
        10  -9.6700     75.0302    219.4912   8.8163688864e+01   2.0050714699e+01    0.1854351    0.1023616  44.63  0.001029091    1.583    0.368
        11 -10.0966    143.9645    216.5551   7.3970964145e+01   9.6161993383e+00    0.2329557    0.1845792 -84.74   0.00127076    1.548    0.354
        12  -9.6110     22.0787    217.4992   9.7884874449e+01   2.6914092222e+01     0.151548   0.09293031  45.50 0.0005230483    1.544    0.352
        13  -8.9668     99.6805    216.3217   8.2940687752e+01   1.7021487852e+01    0.1350016    0.0834597  67.84 0.0007044123    1.669    0.401
        14  -9.8324    131.5044    213.9691   7.6149484206e+01   1.2244744445e+01    0.1828588    0.1308707 -55.42  0.001029998    1.595    0.373
        15 -10.2214     77.1512    211.7191   8.6970698268e+01   2.1296694386e+01    0.2772962    0.2567414 -83.22  0.001931084    1.294    0.227
        16 -10.6521    116.5520    209.6356   7.8649560056e+01   1.5603998061e+01    0.3080721    0.1685062 -73.08  0.001427927    2.399    0.583
        17  -9.3740    148.3196    209.6556   7.2053936145e+01   1.0096287551e+01    0.1377465   0.09860979  70.96 0.0004404466    1.725    0.420
        18  -9.7707    139.4892    207.5092   7.3563329060e+01   1.2063285258e+01    0.1366685    0.1172113  54.72 0.0008100766    1.047    0.045
        19  -9.7912     99.3999    206.1175   8.1774205415e+01   1.9091373685e+01    0.2603798    0.1399716  67.07  0.001105107    2.253    0.556
        20 -10.9241    185.8907    204.1460   6.3479611404e+01   4.2477898079e+00    0.2074388    0.1798211  58.50  0.001003277    1.315    0.240
        21 -12.2852    165.3968    202.4742   6.7367447247e+01   8.2986506315e+00    0.5794871    0.4148328  85.78  0.002806731    2.247    0.555
        22 -13.3042    164.0407    194.4708   6.6280856140e+01   1.0013873209e+01    0.8527505    0.4826274  56.19  0.003777694    2.047    0.511
        23 -13.5054    178.1188    196.6252   6.3729229105e+01   6.9767588915e+00     0.893636    0.5691673 -25.43  0.003662498    2.037    0.509
        24 -12.3745    172.5050    195.6313   6.4712726249e+01   8.2078012372e+00    0.4151612    0.3440539 -51.01  0.001554821    1.371    0.271
        25 -11.4902    172.7836    190.6968   6.3769213771e+01   9.0540317018e+00    0.3557527    0.2850593 -74.58   0.00154221    1.655    0.396
        26 -10.6018    130.6917    201.9903   7.4593090982e+01   1.4677157188e+01    0.3401925     0.170042 -64.28  0.001464958    2.566    0.610
        27 -11.0851    149.3557    198.1645   7.0018668682e+01   1.2054017614e+01    0.4083057    0.2689175 -86.46  0.001813241    2.544    0.607
        28 -11.7948    125.2105    196.8745   7.5003077608e+01   1.6658996642e+01    0.4140342    0.3436427  69.52  0.001843841    1.172    0.147
        29 -10.8226    112.7474    195.4472   7.7500297807e+01   1.9098548089e+01    0.4400409    0.2319845 -57.55  0.001250465    2.019    0.505
        30  -9.3837    105.4050    197.7938   7.9419042735e+01   1.9833036378e+01     0.174045    0.1222838 -52.03  0.000867945    1.626    0.385
        31  -9.7446     88.3762    198.1466   8.3120774563e+01   2.2446882082e+01    0.1866541    0.1133932 -82.23 0.0009479507    1.804    0.446
        32 -10.3405    132.9849    195.4869   7.3105468780e+01   1.5557759673e+01    0.2073062     0.156069 -89.69  0.001088171    1.604    0.376
        33 -11.7432    186.2355    193.6418   6.1528685456e+01   5.9775069116e+00    0.2748016    0.2616449  80.50  0.001025331    1.259    0.206
        34  -9.2512     66.3329    194.0087   8.7334790508e+01   2.6492133210e+01     0.209689   0.08934785  87.91 0.0007050724    4.339    0.770
        35  -9.6023     43.7806    193.1905   9.1955251944e+01   2.9502695213e+01    0.2209219   0.09251991  67.70 0.0009537996    2.822    0.646
        36 -11.8824    139.3586    188.6419   7.0603529036e+01   1.5772412744e+01    0.5193057     0.262456 -59.40  0.002201249    2.360    0.576
        37 -11.0996    129.7200    188.2498   7.2668080833e+01   1.7617838786e+01    0.3536079    0.2384645  78.60  0.001547197    1.974    0.493
        38 -12.1603    204.1642    186.3966   5.6562777274e+01   3.8495481702e+00    0.3841717    0.3084889 -13.83  0.002157527    1.297    0.229
        39 -11.2157    165.7251    186.4305   6.4485535420e+01   1.1206609282e+01    0.3386047    0.2646866  86.51  0.001346322    1.750    0.428
        40 -11.5645    156.0950    186.2764   6.6533088702e+01   1.3087597777e+01    0.4028493    0.2709733 -68.33  0.001895307    1.988    0.497
        41 -13.0935    147.9922    177.8729   6.6796890339e+01   1.6332494974e+01    0.8618958    0.3715588 -52.08  0.003344555    2.542    0.607
        42 -11.5275     94.8476    183.8332   7.9821221963e+01   2.4521101954e+01    0.6189099    0.3783785 -83.71  0.002977054    1.926    0.481
        43 -11.9846    183.1352    184.6280   6.0477547034e+01   8.1736286982e+00    0.3858705    0.2605399 -51.95  0.001308176    1.730    0.422
        44 -11.0386    120.2329    183.8577   7.4083812486e+01   2.0239354819e+01    0.4154004    0.1968368 -62.96  0.001536347    2.472    0.595
        45 -10.5228    109.4563    185.3211   7.6742037739e+01   2.1795544238e+01    0.3295792    0.2500474  77.64  0.001444535    1.373    0.272
        46 -11.7732    174.8459    183.5065   6.2000842670e+01   9.9906652225e+00    0.3623376    0.2786081  61.47  0.001370696    1.492    0.330
        47 -10.0163     74.1171    182.8257   8.4348951887e+01   2.7861760453e+01    0.3318524    0.1567239 -84.96   0.00132426    2.947    0.661
        48 -12.0850      3.9457    181.5943   9.9076511148e+01   3.5947593765e+01    0.4320477    0.2614039 -67.85  0.002859256    1.557    0.358
        49 -11.8664    197.5110    182.5014   5.7126933497e+01   5.7796550775e+00    0.3146667    0.2551201  86.32  0.001184241    1.861    0.463
        50  -9.4706     44.3767    182.1642   9.0802633356e+01   3.1830657034e+01    0.1795274   0.09817678 -87.05 0.0007303961    1.722    0.419
        51  -9.4320     83.3249    181.6612   8.2128950740e+01   2.6779796840e+01    0.1444986   0.09069023  71.83 0.0007051289    1.724    0.420
        52 -11.3580    138.2273    178.9052   6.9179492517e+01   1.7986750186e+01     0.358637     0.260217 -68.65  0.001339109    1.587    0.370
        53  -9.9545    129.4136    177.1946   7.0884781638e+01   1.9998052412e+01    0.2016554    0.1354533 -70.88 0.0009463631    1.762    0.433
        54 -11.9139    183.9202    175.7079   5.8573217946e+01   9.6629224630e+00    0.3353776    0.2544072  57.33  0.001337787    1.469    0.319
        55 -11.4745    159.6466    175.0656   6.3676965397e+01   1.4619219629e+01    0.4017076    0.3044912  87.04  0.001414322    1.822    0.451
        56  -9.6281     54.7477    186.5007   8.9011975171e+01   2.9629490062e+01     0.313559    0.1242766  77.44 0.0009021485    6.141    0.837
        57 -10.6069     77.7324    175.2659   8.2552598490e+01   2.9039689987e+01    0.3943794    0.2101666  80.19    0.0016365    2.674    0.626
        58  -9.3894     59.9798    176.4981   8.6761710973e+01   3.1191662280e+01    0.1891568   0.08276233  57.15 0.0008094545    2.469    0.595
        59 -10.4660    105.7565    174.5133   7.5917147174e+01   2.4792204700e+01    0.3269818    0.1877626 -81.48   0.00123757    2.430    0.589
        60 -12.4106    177.8295    170.4068   5.8797061641e+01   1.1890243428e+01    0.4482992     0.388837 -66.21  0.001720119    1.353    0.261
        61 -11.4160    135.0052    170.8325   6.8460302014e+01   2.0311241792e+01    0.4129893    0.3026699 -78.94  0.001637239    1.671    0.401
        62 -12.0324    122.2418    167.5262   7.0849658152e+01   2.3429822658e+01    0.6819683    0.4157113 -64.36  0.003093715    1.814    0.449
        63 -10.8516    206.9832    169.6558   5.2638406460e+01   6.1934273672e+00    0.2434748    0.2093355 -68.54 0.0008586477    1.529    0.346
        64 -12.2047    168.2247    167.6730   6.0326076106e+01   1.4377240921e+01     0.646073    0.2868004 -52.15  0.002395828    2.652    0.623
        65 -12.7683    144.9324    154.3865   6.2906003469e+01   2.1916898256e+01    0.6850743    0.4712884  80.29  0.002882255    2.162    0.538
        66 -11.0692    142.7396    148.5163   6.2187705735e+01   2.3650643150e+01    0.4058288    0.2224615 -58.52  0.001603754    2.118    0.528
        67 -12.6903    139.3723    163.8423   6.6120528574e+01   2.0974855528e+01    0.7787334    0.4605009 -63.39  0.003165452    2.049    0.512
        68 -11.7884    149.9871    169.0254   6.4677013613e+01   1.7774072745e+01    0.3943665    0.3144221  85.96  0.001488991    1.542    0.352
        69 -13.0844    148.1230    163.8368   6.4084773012e+01   1.9239355864e+01    0.7589868    0.5047376  20.38  0.002257115    2.104    0.525
        70 -11.9495    144.4248    159.6547   6.4106470410e+01   2.0877283882e+01    0.5190489    0.2988869  44.24 0.0003347661    1.669    0.401
        71  -9.4612     55.3127    169.6441   8.7020850353e+01   3.3338192943e+01    0.1397591   0.08370667  72.83 0.0007044256    1.737    0.424
        72  -9.4306     88.9674    168.4981   7.8946857778e+01   2.8891122643e+01    0.2012101   0.09931019  59.12 0.0008082193    2.424    0.588
        73  -9.3272    111.5115    166.9971   7.3311045004e+01   2.5482691230e+01     0.203758    0.1222563 -85.61  0.000809909    2.508    0.601
        74 -11.1091     24.1088    163.0970   9.3437819130e+01   3.8215862426e+01    0.3183908    0.2013473  16.20  0.001200104    2.404    0.584
        75 -10.5549     99.0455    165.8393   7.6110404504e+01   2.7878555328e+01    0.3155603    0.1877465  72.32  0.001341308    2.261    0.558
        76 -10.4074     79.7770    163.2945   8.0374943110e+01   3.1488639402e+01    0.4947319    0.2506571  86.71  0.001757069    3.551    0.718
        77 -12.6206    158.4070    157.1830   6.0358230983e+01   1.8546130622e+01    0.8772125    0.3528693 -56.08  0.002790505    3.467    0.712
        78 -10.1282    132.4959    163.0724   6.7592328199e+01   2.2480843928e+01     0.225088    0.1457957 -54.46  0.001034919    1.600    0.375
        79  -9.5185     37.5184    163.5072   9.0433329706e+01   3.6786341746e+01    0.1269525    0.1004425  86.18  0.000810048    1.039    0.038
        80 -11.6276    205.8782    161.7794   5.1193473968e+01   7.8149775270e+00    0.3463465    0.2348699 -63.07  0.001534841    2.217    0.549
        81 -13.0876    205.3342    154.9412   4.9817067404e+01   9.1667891625e+00     0.499407    0.4324956 -79.00  0.002645379    1.506    0.336
        82  -9.1625     69.6732    162.3700   8.2688279069e+01   3.3144208789e+01    0.1473831   0.09120702  73.96 0.0007032925    1.816    0.449
        83 -12.1674    177.7499    160.2609   5.6705837248e+01   1.3888534676e+01    0.4146641    0.3497124 -66.14  0.001705759    1.393    0.282
        84 -11.4369    178.1968    155.1564   5.5509719316e+01   1.4807485213e+01    0.2890596    0.2701389  -3.30 0.0006297883    1.100    0.091
        85 -10.9884     16.9838    165.0000   9.5180491871e+01   3.8436092634e+01    0.3064402     0.193571  26.70  0.001191255    2.042    0.510
        86 -10.3765     92.8723    159.7795   7.6618706540e+01   3.0286064847e+01     0.424568    0.2751684 -82.54  0.001961562    1.772    0.436
        87  -9.7970     94.5509    154.4827   7.5303948860e+01   3.1250576434e+01    0.2643431    0.1916914 -22.48 0.0009019888    2.165    0.538
        88 -10.9894     13.4877    165.5394   9.5983272222e+01   3.8619185890e+01     0.281613    0.1703929 -87.48  0.001040081    1.317    0.241
        89  -9.4591     16.6775    244.2874   1.0021178425e+02   2.2491165908e+01    0.1110139   0.05176492  64.26 0.0003410438    1.602    0.376
        90 -12.3465    179.8421    132.7090   5.0010897496e+01   1.8966331438e+01    0.5689331    0.3148023 -47.75  0.002291862    1.882    0.469
        91 -10.8648      2.4993    140.5942   9.6403794355e+01   4.5035085033e+01    0.4593324     0.125928 -85.24  0.001605184    4.324    0.769
        92 -10.0219     68.8736    138.9891   7.9302126471e+01   3.8791411330e+01     0.376295    0.1745507 -76.32  0.001426787    2.793    0.642
        93 -13.5040    189.4613    149.0665   5.1753228196e+01   1.3609480743e+01    0.8302856    0.4521265 -49.36   0.00327465    2.027    0.507
        94 -12.2614    172.5122    137.0953   5.2670447000e+01   1.9705767503e+01    0.6195799    0.3248048 -52.79  0.002256683    2.197    0.545
        95 -12.8126    168.9538    128.3938   5.1384663119e+01   2.2304457006e+01    0.7122728     0.464668 -44.97  0.003113468    1.542    0.352
        96 -11.4918     23.0579    135.7408   9.0866932823e+01   4.4589619093e+01    0.7792022     0.294174 -79.06   0.00335168    2.553    0.608
        97 -12.5776    168.0156    156.3545   5.8011281435e+01   1.6711272965e+01    0.6432442    0.3692296 -48.21   0.00249183    1.831    0.454
        98 -10.8433    138.6751    137.2941   6.0703141622e+01   2.6983408075e+01    0.3611561    0.1854021 -48.73  0.001395357    1.962    0.490
        99 -12.0157    143.2607    129.8380   5.7832266483e+01   2.7674266026e+01    0.7728197    0.3122078 -49.10  0.002649486    2.533    0.605
       100 -10.6763     38.8614    135.5509   8.6747138122e+01   4.3167688184e+01    0.2673679    0.1494172 -88.39  0.001168293    1.900    0.474
       101 -10.7698    112.8875    132.3965   6.6220346098e+01   3.3224118785e+01    0.4815836    0.3033792 -69.99  0.002039147    1.936    0.484
       102 -11.9989    132.0943    129.3300   6.0519777749e+01   3.0139675108e+01    0.8598792    0.3632606 -53.17  0.002989323    2.530    0.605
       103 -11.4949     83.4114    128.5251   7.3417490282e+01   3.9192967443e+01     1.027666    0.2974066 -58.08  0.003326361    3.272    0.694
       104 -12.1579    153.0474    127.4570   5.4871076787e+01   2.6063310129e+01    0.7557644    0.3409878 -50.17  0.002687748    2.354    0.575
       105 -11.7111     12.6507    126.1467   9.2464158080e+01   4.7623242296e+01    0.8342801    0.2207592 -72.36  0.003326789    2.972    0.663
       106 -11.8725    162.8143    149.9215   5.7787453890e+01   1.9143225060e+01    0.5293031    0.3152518 -61.66   0.00210529    2.228    0.551
       107 -11.9070     99.2889    124.4017   6.8140386298e+01   3.7565435430e+01     1.012839     0.452354 -54.26  0.003925362    2.141    0.533
       108 -10.4469     72.9034    127.6353   7.6173614173e+01   4.0957606922e+01    0.5227539    0.2201458 -67.80  0.001946004    2.689    0.628
       109 -12.7184    180.5995    122.7125   4.7401918462e+01   2.0809521519e+01    0.7101136    0.3186661 -36.88  0.002534746    2.336    0.572
       110 -11.6719    117.9605    123.3777   6.2814320415e+01   3.4345632215e+01    0.7253939    0.4151305 -57.64  0.002865433    1.842    0.457
       111 -11.2749     59.0635    122.9227   7.9211233823e+01   4.3918991541e+01    0.7260857    0.3428216 -82.56  0.002528745    3.644    0.726
       112 -11.5620     43.2658    120.7387   8.3339952718e+01   4.6233392658e+01    0.9441706     0.414014 -85.22  0.003277457    3.930    0.746
       113 -11.2793     28.3884    121.8126   8.7681894016e+01   4.7392217357e+01    0.6949682    0.3090507  79.74  0.002496849    4.212    0.763
       114 -12.9235    166.7993    143.9749   5.5549889200e+01   1.9531099075e+01    0.9072058     0.487819 -61.67  0.003198578    2.842    0.648
       115 -12.4236    162.4061    134.6752   5.4398073407e+01   2.2448491097e+01    0.7502414    0.3638662 -56.53  0.002587729    2.718    0.632
       116 -10.7492    128.4608    158.1844   6.7613625835e+01   2.4341178930e+01     0.368477    0.2471607 -68.15  0.001336175    1.719    0.418
       117 -11.7971    172.8057    120.0403   4.8442008070e+01   2.3148163954e+01    0.5157664    0.2954465 -41.77  0.002035633    1.741    0.426
       118 -12.2209    158.6957    119.6951   5.1594061574e+01   2.6458218024e+01    0.6165933    0.3007595 -45.79  0.002302367    2.063    0.515
       119 -12.3289    141.9937    116.7699   5.4924071080e+01   3.0828344189e+01     1.023392    0.3750124 -47.16  0.003324516    2.750    0.636
       120 -11.7536    130.8431    116.7597   5.7783174529e+01   3.3230840805e+01    0.7177416    0.3403731 -51.56  0.002650952    2.182    0.542
       121 -10.7105     70.8920    118.4995   7.4959186213e+01   4.3426637765e+01    0.4538688    0.1986452 -63.61  0.001808751    2.270    0.559
       122 -11.3428      2.7119    114.8203   9.3855187223e+01   5.0858210801e+01    0.7469158    0.2234392 -81.77  0.002838757    3.593    0.722
       123 -10.3216    105.4625    157.3742   7.3092227654e+01   2.8738529712e+01    0.3920009    0.2637299  85.68  0.001701383    1.910    0.477
       124 -11.8258    109.0874    111.8794   6.2456683975e+01   3.8702491203e+01     0.989982    0.3669224 -53.86  0.003288602    2.833    0.647
       125 -10.9027    119.3871    154.5585   6.9123894221e+01   2.6878364899e+01    0.4895394    0.2628668 -68.61  0.001884697    2.473    0.596
       126 -10.2470    120.8274    149.6331   6.7796086902e+01   2.7733699301e+01    0.2520556    0.2273655 -83.18 0.0008972367    1.104    0.094
       127 -12.9788    192.8708    113.5057   4.2516155407e+01   1.9773113525e+01    0.6278273    0.2702392 -41.86  0.002259939    2.267    0.559
       128 -11.4932     92.6243    109.4112   6.6576102357e+01   4.2229336711e+01     1.044932    0.3234025 -53.10  0.003393753    3.063    0.674
       129 -11.1743     78.7199    111.0979   7.1078284761e+01   4.4054100856e+01    0.7414932    0.3649408 -71.52  0.002672497    3.021    0.669
       130 -11.4651    159.5224    110.5686   4.9038970800e+01   2.8184895557e+01    0.6256357    0.2374423 -45.07  0.002047797    2.652    0.623
       131 -11.4200    122.3127    110.7011   5.8507671466e+01   3.6360923724e+01    0.6258897    0.2728937 -44.47   0.00226208    2.275    0.561
       132 -11.7493    175.0021    110.0027   4.5374343764e+01   2.4667204010e+01    0.5897031    0.2768904 -44.46  0.002161777    2.133    0.531
       133 -11.1394     66.2117    108.8295   7.4338613951e+01   4.6360212005e+01    0.5790022    0.2409815 -63.13  0.002261664    2.419    0.587
       134 -11.7940     14.2822    108.5167   8.9844698135e+01   5.1573743834e+01     0.594193    0.2447658 -64.37  0.002989436    1.814    0.449
       135 -10.7674    133.4151    108.3256   5.4929050190e+01   3.4547971195e+01    0.4377481    0.2660645 -53.28  0.001815121    1.732    0.422
       136 -10.4193     81.5757    153.3475   7.8381499574e+01   3.3552148783e+01    0.4511743    0.2341046 -76.90  0.001849477    2.366    0.577
       137 -11.6981    139.8767    102.7296   5.1749708046e+01   3.4331608456e+01    0.6372461    0.3308635 -46.63   0.00246346    1.931    0.482
       138 -11.7971     44.7498    101.1008   7.9376661177e+01   5.0714236192e+01    0.7835315    0.4228246  83.99  0.003007031    3.612    0.723
       139 -11.0545     44.0863     92.3263   7.7782284050e+01   5.2812817687e+01    0.3680034    0.2321111  -9.55  0.001827437    2.331    0.571
       140 -12.4173     22.0099     99.3569   8.6168785199e+01   5.3134688005e+01     1.070251    0.4304435 -80.03  0.004279173    3.142    0.682
       141 -11.3498    166.7967    102.5038   4.5204303328e+01   2.8119633836e+01    0.4978194    0.2235277 -35.94  0.001737082    2.375    0.579
       142 -12.0262    150.2539    100.6583   4.8586856079e+01   3.2396492025e+01    0.9231325    0.2698122 -43.50  0.002675588    3.395    0.705
       143 -11.2021      6.6237    102.1309   9.1225593648e+01   5.3514500423e+01    0.3866032    0.1308541 -73.18  0.001732073    2.404    0.584
       144  -9.9887     49.3886    154.1532   8.6526018937e+01   3.7637798029e+01    0.3849703    0.1961066  86.52   0.00169066    2.444    0.591
       145 -11.7568    175.9803    100.3480   4.2596013450e+01   2.6342289273e+01    0.3813384    0.2358205 -38.23  0.001602549    1.615    0.381
       146 -11.4139    159.8455     99.0298   4.5849558820e+01   3.0473655875e+01    0.5548219    0.2260174 -38.31  0.001867498    2.523    0.604
       147 -11.8674    108.2088     97.7714   5.9023622394e+01   4.2053913049e+01    0.6674177    0.4753412  81.42  0.002864139    2.161    0.537
       148 -10.8944    107.6485     92.5016   5.7722873608e+01   4.3317529828e+01    0.4932385    0.3409183   5.07  0.002066338    2.254    0.556
       149 -11.4013     81.8678     97.5374   6.6880716744e+01   4.6722959225e+01    0.6616575    0.2194598 -52.34  0.002304974    2.759    0.638
       150 -11.8078    133.3088    151.5840   6.5115466076e+01   2.4872087414e+01    0.6317203    0.3901627 -63.32  0.002293051    1.872    0.466
       151 -12.0883     63.4656     92.8940   7.1572996119e+01   5.0428358899e+01     1.043342    0.3687605 -57.71  0.003900742    2.648    0.622
       152 -10.3497     58.0012     92.0000   7.3140580597e+01   5.1323736006e+01    0.1977661    0.1932473 -25.01            0    1.126    0.112
       153 -13.2679    149.4369    143.1759   5.9412078312e+01   2.3425730102e+01     1.058775     0.565336 -55.24  0.003660789    2.101    0.524
       154 -10.9454     95.2734     93.9653   6.1819225919e+01   4.5291585348e+01    0.7654897    0.3028882 -41.60   0.00271328    2.627    0.619
       155 -12.2795    188.8438    156.8261   5.3599808248e+01   1.2240310245e+01    0.4365476    0.3424281 -46.49  0.001660614    1.341    0.254
       156 -11.7069    182.3436    150.3763   5.3559276655e+01   1.4875431399e+01    0.3791832    0.2761237 -46.89  0.001465358    1.428    0.300
       157 -10.9823    164.7446     92.7857   4.2989392849e+01   3.0535342944e+01    0.3882953    0.1959688 -32.91  0.001425163    2.186    0.543
       158 -11.0474    138.7552     90.2034   4.8505760889e+01   3.7194184519e+01     0.558498    0.2744398 -41.61  0.002117531    2.024    0.506
       159 -11.5632      4.5587     89.8780   9.0154742753e+01   5.6389675064e+01    0.4660085    0.1834814 -71.99  0.002295605    2.045    0.511
       160 -11.5072      7.6106     84.2086   8.8297982238e+01   5.7490114523e+01    0.3021522    0.1412942 -51.37   0.00155014    1.697    0.411
       161 -11.7847    125.0094     87.5559   5.1372414043e+01   4.0797422983e+01    0.9057278    0.4114694 -34.74  0.003191027    2.533    0.605
       162 -11.1423     34.9009     86.9407   7.9692338218e+01   5.4921573058e+01    0.8291234    0.2418271 -60.20  0.003256154    2.703    0.630
       163  -9.5347     98.4279    150.2308   7.3566742202e+01   3.1605572689e+01    0.2103604    0.1334085 -72.65 0.0009531477    1.732    0.423
       164 -10.3303    171.5828     94.2468   4.1881894594e+01   2.8591612784e+01    0.2234035    0.1526197 -26.69 0.0009498778    1.654    0.396
       165 -11.2428     86.2268     85.8403   6.2373153173e+01   4.8632642262e+01    0.4603516     0.313725 -73.07  0.001635919    2.066    0.516
       166 -11.1668     86.5155     80.8260   6.0836445771e+01   4.9665181863e+01    0.5369639    0.2833323  21.75  0.002036875    2.935    0.659
       167 -12.1505    107.4745    143.9064   7.0041136389e+01   3.1521188041e+01    0.9244093    0.5016738 -70.75  0.003587341    2.432    0.589
       168 -10.2694     39.5049    147.3643   8.8113351429e+01   4.0317971502e+01    0.3652328    0.1725219  68.93  0.001548823    2.856    0.650
       169 -10.8938     55.8521    144.1782   8.3536823917e+01   3.9227283240e+01    0.6857084    0.3268835 -81.25  0.002844111    2.530    0.605
       170 -12.0224    175.5933    144.9472   5.3804842891e+01   1.7421441889e+01     0.413987    0.2881172 -53.19  0.001842929    1.569    0.363
       171 -11.9866     48.1527     81.0435   7.3808144750e+01   5.4931811533e+01    0.8059825    0.2968676 -54.96  0.003377186    2.248    0.555
       172 -11.6510    128.7110    100.4457   5.4044266831e+01   3.7275536248e+01     0.602178    0.3036323 -44.65  0.002328709    1.954    0.488
       173  -9.5582    116.7310     83.5374   5.2484734284e+01   4.3384268115e+01    0.2798913    0.1772491 -32.88 0.0006926978    1.684    0.406
       174 -11.3580    104.6430     80.6243   5.5137333124e+01   4.6420307066e+01    0.8263672     0.324454 -46.19   0.00297198    2.491    0.599
       175 -11.1361    140.8718     81.3538   4.5352310312e+01   3.8464414960e+01    0.4678497    0.2166846 -36.54  0.001707672    2.240    0.554
       176 -10.1887    170.6147     82.1643   3.8690300482e+01   3.1108830399e+01    0.2255573    0.1507295 -25.18  0.000953448    1.720    0.419
       177 -10.8688    158.5062     81.5461   4.1180540883e+01   3.4205817246e+01    0.3320098    0.1549653 -37.23  0.001211494    2.170    0.539
       178 -11.7888     26.4686     72.1851   7.9407116122e+01   5.8902898487e+01     0.792789    0.2809483 -30.81  0.002541513    5.573    0.821
       179 -10.6819     68.1188    153.3044   8.1762154610e+01   3.5484315000e+01    0.4222957     0.248244  74.69  0.001580731    2.111    0.526
       180 -10.3807     74.3079     78.5448   6.4178906127e+01   5.2094896831e+01    0.5702504    0.2089376 -55.95  0.001984018    3.112    0.679
       181 -10.8428    150.4898     79.0040   4.2293549962e+01   3.6629381667e+01    0.4240502    0.1531677 -38.36  0.001375781    2.780    0.640
       182 -10.2497    119.2161     78.5992   5.0278106282e+01   4.3858753474e+01    0.4272009    0.2185861 -43.06  0.001708381    1.929    0.482
       183 -10.0431     12.7745    145.5947   9.4422071181e+01   4.3157205639e+01    0.2169099    0.1174815  81.40 0.0009909821    1.763    0.433
       184 -10.9383    128.3216     72.3828   4.5838276397e+01   4.3064135560e+01    0.7132702    0.2828536 -34.53   0.00241462    2.773    0.639
       185 -11.5209     62.3197     70.5290   6.5971579766e+01   5.5493182504e+01     1.051102    0.1114285 -47.47  0.002519616    6.604    0.849
       186 -12.0745    124.9056    141.2671   6.5033335465e+01   2.8865528135e+01    0.8257639     0.430135 -64.46   0.00305776    2.507    0.601
       187 -11.2807     24.2485     79.6529   8.1819990529e+01   5.7431129332e+01    0.4653213    0.2112253 -73.62   0.00199032    2.478    0.596
       188 -10.4962      9.9418     74.5631   8.5824877161e+01   5.9486974348e+01    0.2021547    0.1240408 -55.27 0.0004549739    1.243    0.196
       189 -11.0031    138.2532    143.7488   6.2244586460e+01   2.5627931331e+01    0.3167546    0.2578358 -55.89  0.001579273    1.249    0.199
       190 -11.0866     81.8889     71.5672   5.9549764557e+01   5.2367107337e+01    0.5848078    0.2983353 -54.35  0.002455352    2.175    0.540
       191 -11.3944     82.2517     66.4830   5.7813898851e+01   5.3330911583e+01    0.5481451     0.278117 -25.10   0.00202434    3.026    0.669
       192  -9.6722    151.4826     71.9768   3.9933796011e+01   3.7681813235e+01    0.2421888    0.1528592 -36.27  0.001038554    1.609    0.378
       193 -10.1136    115.5751     70.8232   4.8861303338e+01   4.6150209090e+01    0.3747169    0.1415052 -42.31  0.001303066    2.618    0.618
       194 -10.9514     94.9368     68.1951   5.4229170371e+01   5.0762970284e+01    0.8543748    0.2025464 -44.88  0.002467032    4.136    0.758
       195 -10.1743     42.7280     70.4704   7.3033255634e+01   5.7811299230e+01     0.434985    0.1186285 -50.87  0.001658895    2.799    0.643
       196 -10.3325    167.4996     76.0104   3.7573720570e+01   3.3000406379e+01    0.2424815    0.1539726 -35.30  0.001035923    1.603    0.376
       197 -10.7321     87.9092    142.1000   7.4801238905e+01   3.5246649654e+01    0.5881153    0.1930309 -59.49   0.00201896    2.964    0.663
       198 -10.4464    105.6249     69.3349   5.1298186602e+01   4.8484496731e+01    0.5053644     0.172115 -39.09  0.001686512    2.963    0.662
       199 -11.3574     51.1363     66.8382   6.8933630552e+01   5.7661554572e+01    0.8222988    0.2223768 -56.46  0.002670533    4.012    0.751
       200 -10.5606      5.6189     70.0289   8.6512679875e+01   6.0700316202e+01    0.2789157   0.08898057 -66.69  0.001253359    2.454    0.593
       201  -9.7782    162.8031     70.0466   3.6814877425e+01   3.5226660884e+01    0.2530124     0.182909   1.21  0.001079238    1.958    0.489
       202 -11.1322     17.6544     63.5347   8.0694845189e+01   6.1392778054e+01    0.4773669   0.07989125 -52.43  0.001797528    3.293    0.696
       203 -12.1263    182.1513    140.6056   5.1375320000e+01   1.6864390232e+01    0.5396096    0.3387049 -53.82  0.002250068    1.820    0.451
       204 -10.1266    146.9835     66.0675   3.9156783494e+01   3.9824976200e+01     0.438589     0.198645 -24.07  0.001400307    3.315    0.698
       205 -10.7370    138.6923     64.2724   4.0585987893e+01   4.2132102059e+01    0.4626289    0.1874134 -32.52  0.001590963    2.709    0.631
       206 -10.9196     37.7093     61.0646   7.2339562666e+01   6.0288984923e+01    0.6718483    0.1699193 -46.92  0.002538491    3.044    0.671
       207 -10.4228    110.2806     60.8713   4.7107853908e+01   4.9110397663e+01    0.5563982     0.264332 -30.36  0.002129211    2.399    0.583
       208 -10.3812    100.4129     54.8198   4.7979467006e+01   5.2192503637e+01    0.3420318    0.2081693 -19.49  0.001470706    2.029    0.507
       209 -11.1183     73.5191     55.8564   5.7275295333e+01   5.6793204424e+01    0.8876991    0.2445296 -40.80  0.002964508    3.477    0.712
       210 -10.1513    140.3958     72.7877   4.2852243900e+01   4.0198461574e+01    0.2231753    0.1476789 -25.03 0.0009535716    1.731    0.422
       211 -10.6154     25.2068     56.5732   7.5997570457e+01   6.2302675867e+01    0.3532168    0.1176934 -45.04  0.001575627    2.364    0.577
       212 -11.3111      7.0319     56.2734   8.3151126444e+01   6.3538151108e+01    0.3263079    0.1727825 -79.27  0.001702254    2.374    0.579
       213 -10.9541      8.1451     50.4318   8.1322159267e+01   6.4676510342e+01    0.4059818   0.08671823 -48.36  0.001718843    2.875    0.652
       214  -9.8988    130.5870     55.6787   3.9799886696e+01   4.5502466598e+01    0.2880774    0.1471366 -29.49  0.001139535    2.139    0.532
       215 -10.1673    118.9988     54.1557   4.2340797327e+01   4.8394318149e+01    0.3853292    0.2028782 -37.71  0.001628638    1.911    0.477
       216 -10.7711     63.0113     48.7181   5.8606034520e+01   5.9687475479e+01    0.4979444    0.2304184 -29.91  0.002086893    2.508    0.601
       217 -10.2097     53.6192     52.4399   6.3489535625e+01   6.0250101216e+01    0.3984207    0.1814342 -56.45  0.001675655    2.711    0.631
       218  -9.8109     53.4953     47.9920   6.2007952506e+01   6.1104800603e+01    0.3130268    0.1309478 -35.63  0.001339622    2.377    0.579
       219 -10.4734     92.0141    230.0000   8.5929525379e+01   1.5591822094e+01    0.2052331    0.1206193  67.17 0.0008881037    1.689    0.408
       220 -10.0004     21.6583     48.2836   7.5121904058e+01   6.4244073417e+01    0.5164622    0.1793962 -31.92  0.001998364    3.806    0.737
       221 -10.5770     83.5891     40.5166   4.8145286361e+01   5.7765751167e+01    0.5321764     0.274909 -11.02  0.001832573    3.942    0.746
       222 -10.1667    113.5195     42.3260   3.9655087928e+01   5.1480386658e+01    0.4461111    0.2448927 -10.91  0.001700452    2.856    0.650
       223 -10.2627    121.5639     63.7527   4.4877436791e+01   4.6163007093e+01     0.511595    0.2411346 -31.36  0.001927374    2.360    0.576
       224 -10.5581     17.0355     41.5576   7.5104520117e+01   6.5889531415e+01    0.5243487   0.08758498 -48.24   0.00199865    3.450    0.710
       225 -10.0173    122.9224     41.9174   3.7007195005e+01   4.9427186686e+01    0.3547534    0.1961234  -4.11  0.001251602    3.337    0.700
       226  -9.6413    105.5776     50.9284   4.5036549308e+01   5.1810933523e+01    0.3653253    0.1365897 -36.24  0.001332164    2.674    0.626
       227 -10.0079     84.6680    227.3169   8.7066036595e+01   1.7171532295e+01     0.130847   0.07479683  66.02 0.0007047272    1.688    0.408
       228  -9.7917     36.5984     39.8246   6.6039069469e+01   6.4545081308e+01    0.1718478    0.1063229 -55.42 0.0009530212    1.769    0.435
       229  -9.5658     26.2466     36.9867   6.9554890635e+01   6.6038464639e+01    0.1608054    0.0841135 -48.82 0.0008889182    1.604    0.376
       230 -10.4624     30.7325     50.7523   7.2091876284e+01   6.3018382355e+01    0.2448633    0.1570337 -67.10  0.001360436    1.899    0.473
       231 -10.1494    105.7693     38.4581   4.0409021689e+01   5.3725931195e+01     0.305229    0.1721946 -16.23  0.001304861    2.233    0.552
       232 -11.0242    162.2863    225.0643   7.1547181660e+01   4.9735416682e+00    0.3797672    0.2519442  24.17  0.002044315    1.688    0.408
       233  -9.9544     12.6903     30.5104   7.3542012527e+01   6.8254684480e+01    0.2055242    0.0836622 -53.17  0.001072875    2.000    0.500
       234 -10.4491     27.8685     28.5941   6.5758556081e+01   6.7388849033e+01    0.3862016   0.08885375 -38.37  0.001349021    4.239    0.764
       235  -9.4397     60.3898     32.1832   5.3284769044e+01   6.2886055214e+01    0.1767004    0.1111105 -44.30 0.0009479788    1.716    0.417
       236 -10.3816     99.0053    225.2343   8.4077774735e+01   1.5424080051e+01      0.27544    0.1912695  38.45  0.001076685    1.441    0.306
       237 -10.1012     12.8789     21.2839   7.0132527162e+01   6.9872752469e+01    0.1859176    0.1362725 -48.58 0.0006304817    1.358    0.263
       238  -9.4277     50.5197     15.5337   5.0052806139e+01   6.6755380381e+01    0.1247806   0.09666339  -2.44 0.0006183522    1.071    0.067
       239 -10.1834    114.6105    222.2273   8.0648161261e+01   1.3525094984e+01    0.2269618    0.1224562 -65.12  0.001152469    2.160    0.537
