#   1 NUMBER                 Running object number                                     
#   2 MAG_AUTO               Kron-like elliptical aperture magnitude                    [mag]
#   3 X_IMAGE                Object position along x                                    [pixel]
#   4 Y_IMAGE                Object position along y                                    [pixel]
#   5 X_WORLD                Barycenter position along world x axis                     [deg]
#   6 Y_WORLD                Barycenter position along world y axis                     [deg]
#   7 A_WORLD                Profile RMS along major axis (world units)                 [deg]
#   8 B_WORLD                Profile RMS along minor axis (world units)                 [deg]
#   9 THETA_WORLD            Position angle (CCW/world-x)                               [deg]
#  10 FWHM_WORLD             FWHM assuming a gaussian core                              [deg]
#  11 ELONGATION             A_IMAGE/B_IMAGE                                           
#  12 ELLIPTICITY            1 - B_IMAGE/A_IMAGE                                       
         1 -11.6446     17.2862     20.9333   7.5345228366e+01   7.1200735515e+01    0.5600932    0.2684609  25.54  0.001999315    1.852    0.460
         2 -10.0165     60.9956     15.9663   5.0502063664e+01   6.4903434695e+01    0.2433419    0.1841291 -40.02    0.0014487    1.728    0.421
         3 -10.4435     39.5042     15.0565   5.9599841872e+01   6.8946335824e+01    0.2750125    0.1985417 -29.70  0.001549036    1.579    0.367
         4 -11.3662     34.5921     12.0280   6.0634642956e+01   7.0117242987e+01    0.3649698    0.2336814  40.44  0.001275038    1.522    0.343
         5 -11.6849     29.2686      8.2573   6.1600946929e+01   7.1406090838e+01     0.457683    0.2502717  20.74  0.001729901    1.701    0.412
         6 -11.7377    125.4154     17.0076   3.4009167601e+01   5.0373446593e+01    0.2308901    0.1859147  66.15  0.000177408    1.048    0.046
         7 -12.2794    125.9294     10.9341   3.2049528283e+01   5.0801209461e+01    0.3143033    0.2726927  72.11   0.00037227    1.047    0.045
         8 -11.6228    236.6418     15.0930   2.1860484198e+01   2.6886049180e+01    0.3398829    0.1870618 -65.28  0.002074755    1.563    0.360
         9 -11.5712    170.9022     16.1834   2.7510866520e+01   3.9974986276e+01     0.221325    0.1870676 -78.63 0.0002889477    1.071    0.066
        10 -11.2045    171.7760     11.0472   2.6182944635e+01   4.0270915822e+01    0.2930117    0.1500118 -51.65  0.001586715    1.955    0.489
        11 -10.0767      8.8838      9.4279   7.5428941983e+01   7.3857522803e+01    0.3789251    0.1872573  40.70  0.001552763    3.105    0.678
        12 -12.0619    206.9140     13.0854   2.3531329294e+01   3.2692289149e+01    0.4011688    0.1831868  76.57  0.002232142    2.018    0.504
        13  -9.6825     93.0000     13.1392   3.9409492707e+01   5.8282153772e+01    0.2275447     0.130679 -28.57  0.001162676    2.043    0.511
        14 -10.2754    164.9332     12.0726   2.7155140636e+01   4.1696164306e+01    0.1784599    0.1498055  86.99 0.0003706222    1.008    0.008
        15 -10.4535     97.5437     10.1187   3.7216834808e+01   5.7506244734e+01     0.292398    0.1779397 -16.49  0.001585699    2.037    0.509
        16 -10.5685     50.9992     10.6312   5.2050930909e+01   6.7409173400e+01    0.2823361    0.2001743  36.05 0.0008493565    1.126    0.112
        17 -10.9812     55.6042      9.4536   4.9588928913e+01   6.6643210865e+01    0.3023698    0.2648213 -22.80  0.002027887    1.407    0.289
        18 -10.8310     45.9094      9.9384   5.3956836335e+01   6.8425356613e+01    0.2926131    0.2005431  32.74  0.000547001    1.157    0.135
        19 -10.2128     42.2307      9.1802   5.5294812805e+01   6.9165505137e+01    0.1771404    0.1460719  21.77 0.0002155103    1.103    0.094
        20 -11.7975    192.6512      9.7866   2.3978208641e+01   3.5914621258e+01    0.4427328    0.1570503  72.88  0.001600987    2.491    0.599
        21 -12.0662    196.3296      4.7978   2.2624452299e+01   3.5620195912e+01    0.5455912    0.2565056  71.26  0.002635365    1.871    0.465
        22  -9.8302    148.3960     10.2305   2.8626124386e+01   4.5623654327e+01    0.1604264      0.10584 -46.14 0.0003186161    1.622    0.383
        23 -10.7952      3.5614      8.0758   7.8669609864e+01   7.4566483451e+01    0.3572035     0.206298 -18.63  0.002136703    1.509    0.337
        24 -10.3966    116.8686      8.8109   3.2910835580e+01   5.3110463769e+01    0.2156122    0.1751607  71.72  0.000680154    1.080    0.074
        25  -9.5836     16.3282      8.2894   6.9644651693e+01   7.3186260350e+01    0.2193422    0.1196111  -4.67 0.0008088888    2.069    0.517
        26 -11.9934     19.1138      2.6684   6.4674747125e+01   7.3553021172e+01    0.5529946    0.2690812  26.23  0.002832199    1.732    0.423
        27  -9.3304    165.6283      7.6773   2.5996987630e+01   4.1940075051e+01    0.1229618   0.07843442  46.94 -1.835761e-05    1.808    0.447
        28  -9.7146    247.0724      5.9035   1.9656659717e+01   2.5985129107e+01    0.1501696   0.09599146 -65.13 0.0003029059    1.202    0.168
        29 -10.0320     88.7921      6.2428   3.7809357920e+01   5.9830497911e+01    0.1731372    0.1185559  41.60 0.0003029799    1.287    0.223
        30 -10.9177    157.1629      4.6519   2.6135510191e+01   4.4103609913e+01     0.226069    0.1298827  65.96  0.001298535    1.473    0.321
        31 -10.3013     59.5683      3.4105   4.5225861508e+01   6.6407769385e+01    0.2953043    0.1785004  65.73  0.001361428    1.992    0.498
        32 -10.3056    104.7576      4.1307   3.3571699103e+01   5.6318706593e+01    0.2078099    0.1465941  60.91 0.0004805351    1.137    0.121
        33 -10.9967    149.0715      2.5651   2.6492067963e+01   4.6117255489e+01    0.3542506    0.1465168  82.14  0.001587554    2.455    0.593
        34 -10.9043    123.3551      1.9082   2.9673911791e+01   5.2136492166e+01    0.2571229    0.1687516 -73.72  0.001080432    1.746    0.427
        35  -9.7282     43.8171      3.1168   5.1426162696e+01   6.9502778192e+01    0.2227812     0.144366 -15.96  0.001335342    1.694    0.410
        36 -11.0185     80.0146      1.5141   3.8131793293e+01   6.2173070774e+01    0.2051677    0.1114974  55.82 0.0004914787    1.431    0.301
        37  -9.5648     29.4446      1.1422   5.7577417411e+01   7.2186473521e+01    0.2350062   0.07143445  44.41 0.0009597539    2.996    0.666
        38  -8.9702      3.5047    177.5127   1.1184475665e+02   3.5552444217e+01    0.1258936    0.1155185 -84.85 -7.926671e-05    1.036    0.035
        39 -10.3476    110.0406    250.5603   9.1521046157e+01   8.0235644809e+00    0.2000817    0.1076459  26.32 0.0005117641    1.535    0.348
        40 -10.7462     28.2430    250.2477   1.1031636858e+02   1.7246179800e+01    0.2491617    0.1275486  35.74  0.001390454    1.573    0.364
        41 -11.9401     18.2681    247.8092   1.1235327934e+02   1.8639998457e+01    0.3710045    0.2908724  27.98  0.002553899    1.233    0.189
        42 -12.3398      3.8347    233.6026   1.1481718169e+02   2.2742046170e+01    0.3914923    0.3034133  31.92  0.002684073    1.238    0.192
        43 -13.0601      3.8428    245.7580   1.1533255061e+02   2.0265621616e+01    0.8422038    0.5010512 -69.11  0.005254676    1.812    0.448
        44 -12.8310     10.8114    244.2452   1.1378620100e+02   1.9996305231e+01    0.6782992    0.3679572 -84.94  0.003943918    1.905    0.475
        45  -9.9261      1.3943    158.2111   1.1107504921e+02   4.0476649642e+01    0.1724677    0.1127975  86.93 0.0002233286    1.487    0.328
        46 -10.7954      5.0946    154.2827   1.0963982182e+02   4.1264511402e+01     0.438237    0.2055291  39.97  0.002004353    2.195    0.544
        47 -10.2794     23.5522    148.1359   1.0312858759e+02   4.1614673051e+01    0.2705879    0.1334713 -77.74   0.00114203    2.095    0.523
        48 -11.0869      6.6347    145.3182   1.0835842257e+02   4.3466211937e+01    0.2378182      0.21741  83.06 0.0002882413    1.098    0.089
        49  -9.2989    235.7085    138.3518   4.5541718254e+01   1.0368178528e+01    0.1202602   0.08807859 -58.62 0.0007028765    1.675    0.403
        50  -9.0767     25.3447    136.2450   1.0101475788e+02   4.4568639165e+01    0.1440895    0.0962203 -30.40  0.000509676    1.570    0.363
        51  -9.7920     95.8949    134.0879   7.6261320054e+01   3.6178348504e+01    0.2281347    0.2155114  67.77 0.0006190806    1.228    0.186
        52  -9.0464     50.5189    131.4879   9.1274223331e+01   4.3386498800e+01    0.1500751    0.1375288 -27.68 0.0008099918    1.036    0.035
        53 -10.4633     41.0046    127.5421   9.4031752657e+01   4.5432334440e+01    0.4339992    0.1007408 -48.43  0.001279835    3.728    0.732
        54 -11.2795     25.8103    124.2186   9.9119320914e+01   4.7655125364e+01    0.3639604    0.2126746 -81.15  0.001630551    1.946    0.486
        55 -10.6880     22.1857    121.4642   1.0005980371e+02   4.8640115751e+01    0.3357845    0.1928043 -10.09  0.001515223    2.020    0.505
        56  -9.2051    226.4822    124.5167   4.4191609952e+01   1.4003029283e+01     0.125676    0.1068731 -38.97 5.029148e-05    1.044    0.042
        57 -12.0168     10.7019    120.2187   1.0418768780e+02   4.9696742546e+01    0.5907069    0.3484199  -1.92  0.001188915    1.889    0.471
        58 -10.1331     86.1478    118.8339   7.5905403826e+01   4.1485642562e+01    0.2209701    0.1763371 -17.64 0.0004755525    1.321    0.243
        59 -10.2861     69.2617    116.6478   8.1354303124e+01   4.4683713713e+01    0.2476335    0.2316216  -3.28 0.0001911946    1.020    0.020
        60 -11.5668      2.9907    113.3136   1.0622650890e+02   5.1840800882e+01    0.2999711    0.2917607 -62.14 0.0007733752    1.118    0.106
        61 -10.4648     24.5712    112.1578   9.7655469511e+01   5.0849023661e+01    0.2094007    0.1101584 -52.09 0.0009396877    1.654    0.395
        62 -10.8047     16.1676    111.9149   1.0093378848e+02   5.1497262561e+01    0.2060905    0.1822759  54.15 0.0005425795    1.305    0.234
        63  -9.9903     27.5003    107.9997   9.5749601137e+01   5.1672004299e+01    0.2156847    0.1331953 -64.85 0.0005642771    1.572    0.364
        64 -10.6955     13.1949    108.2060   1.0154951285e+02   5.2619540860e+01    0.2048659    0.1657459 -57.53 0.0006547346    1.112    0.100
        65 -11.4448     13.2906    103.4616   1.0077287582e+02   5.3810610789e+01     0.322174    0.1804653 -54.04 0.0007133503    1.513    0.339
        66  -9.6834     66.4824    104.5444   7.9455490628e+01   4.8015035740e+01    0.1551446    0.1373129 -10.80 1.816593e-05    1.064    0.060
        67 -10.6086      1.4177    103.3320   1.0558263662e+02   5.4421795437e+01    0.3191277    0.1200717 -74.19  0.001278745    2.505    0.601
        68  -9.2172    186.6491    102.7099   4.5944713087e+01   2.4778178661e+01    0.1353969     0.105695  10.65 0.0007026878    1.670    0.401
        69 -10.1784    247.0374    101.5025   3.7031016284e+01   1.4264579611e+01    0.1475443     0.116152  57.86 0.0007504968    1.543    0.352
        70 -12.0610     20.1387     93.6852   9.6137363390e+01   5.5798374129e+01    0.6982918    0.3476202 -52.01    0.0032092    1.704    0.413
        71 -10.9299     60.8313     99.1621   8.0276019958e+01   5.0109120289e+01    0.2190967    0.2081206  47.29 0.0006987563    1.229    0.186
        72  -9.2575    218.0040     98.7026   4.0155811372e+01   1.9522935764e+01    0.1376815    0.1137262  58.76 0.0004535571    1.365    0.267
        73 -12.2654    197.0957     97.5255   4.3017296408e+01   2.3595231971e+01    0.2267338    0.2066995 -39.75 0.0003001938    1.043    0.041
        74 -10.7481     87.3930     95.1523   6.9241981940e+01   4.6661656275e+01    0.3597531    0.2282133  -4.69  0.001396309    2.397    0.583
        75 -10.3230     37.0526     95.9869   8.9307336973e+01   5.3778303703e+01    0.2185415    0.1931933 -23.36 0.0003479513    1.008    0.008
        76 -10.7930      7.1427     95.2203   1.0203395124e+02   5.6190676223e+01    0.2184619    0.1624843  -3.74 0.0002201549    1.383    0.277
        77 -11.2943     10.8724     93.4082   1.0012618290e+02   5.6446556399e+01    0.2989242    0.2109075 -57.97 0.0004974653    1.258    0.205
        78 -10.7393      7.1669     90.6428   1.0127464426e+02   5.7314667975e+01    0.2486544    0.1837069 -48.89 0.0004638988    1.145    0.127
        79 -11.9793    125.2057     93.0687   5.6955244623e+01   3.9462989385e+01    0.2744665    0.2437622  27.18 0.0002991961    1.099    0.090
        80  -9.9638     30.1383     93.6537   9.1766635948e+01   5.5004822434e+01    0.3407459    0.2564982 -14.65  0.001820031    1.286    0.222
        81 -10.4702    105.7608     91.4811   6.2129401439e+01   4.3855320102e+01     0.278566    0.2427149  85.99 0.0006245364    1.497    0.332
        82 -11.8454     57.8077     91.1090   7.9360358307e+01   5.2406289896e+01    0.4338262     0.296526  28.85 0.0008244257    1.428    0.299
        83  -9.5878     82.7625     90.7293   6.9616688647e+01   4.8454069260e+01    0.1888266    0.1795237  65.63  0.001018972    1.271    0.213
        84 -10.3862    159.9606     89.0666   4.7706559496e+01   3.2645771334e+01    0.2072977    0.1997913 -86.23 0.0003237102    1.060    0.057
        85 -10.7528     67.0259     87.3938   7.4599634341e+01   5.1852672002e+01    0.2780107    0.2202683 -53.20 0.0009115887    1.409    0.290
        86 -10.7796      7.9034     83.6823   9.9716589777e+01   5.8965197434e+01    0.4536468    0.2014548 -31.87  0.001994086    2.137    0.532
        87 -11.1637     65.4328     81.3079   7.3437949441e+01   5.3421606677e+01      0.33834    0.2660282  -3.60  0.001042609    1.280    0.219
        88  -9.9685    250.2141     80.7675   3.2816483318e+01   1.6678344399e+01    0.1419642    0.1217612 -28.11 0.0006554042    1.306    0.234
        89 -10.0112    158.9859     80.0702   4.5594526068e+01   3.4362304778e+01    0.2020206    0.1955034  86.83 0.0003450597    1.023    0.022
        90 -10.4838     85.9924     78.6929   6.4833531927e+01   5.0323081096e+01    0.3726583    0.2615573  43.41 0.0005729348    1.414    0.293
        91  -9.6208     87.5246     75.4369   6.3270333661e+01   5.0656893502e+01    0.2272661    0.1331478  30.15 3.221152e-05    1.729    0.422
        92 -10.4231     48.0603     78.9694   8.0102927627e+01   5.6458640029e+01    0.2176165    0.1837197 -12.55 0.0003557821    1.066    0.062
        93  -9.5939     22.6047     76.8125   9.1320885907e+01   5.9634080521e+01    0.1771947    0.1296475 -71.72 0.0004395979    1.631    0.387
        94 -11.6069     12.9862     76.4720   9.5872785464e+01   6.0392246975e+01    0.3947166    0.2047704  -9.17  0.001825768    2.045    0.511
        95  -9.9638    177.1352     76.1874   4.1323202884e+01   3.1042507804e+01    0.2001387    0.1857475  26.83 0.0007916698    1.222    0.182
        96  -9.1320     74.5650     76.5377   6.8364670463e+01   5.2863817386e+01    0.1469467     0.135041  13.81 7.820297e-05    1.063    0.060
        97 -10.8839     52.8861     75.6505   7.6993058364e+01   5.6522450375e+01    0.3898034    0.2403029  27.51 0.0008649218    1.547    0.354
        98 -10.0535     70.2810     74.4198   6.9358098519e+01   5.4038349928e+01    0.3683796    0.2162592  23.92   0.00161487    1.759    0.432
        99 -11.0031      3.8686     74.1051   9.9805808398e+01   6.1422261541e+01    0.3126906    0.1581068  23.01  0.001146192    2.127    0.530
       100  -9.7337     34.5001     73.3146   8.4709699366e+01   5.9315768987e+01     0.244366    0.1201606  21.79  0.001071268    1.980    0.495
       101  -9.7891    117.3466     71.6686   5.2876423153e+01   4.5057763566e+01     0.340116     0.194379  24.23  0.001294764    2.656    0.623
       102  -9.8784    105.9034     71.8887   5.6199908193e+01   4.7520781552e+01    0.1964621    0.1636599  58.11 0.0005353687    1.293    0.227
       103 -10.3262     75.3327     71.6333   6.6495338526e+01   5.3691325414e+01    0.2825285    0.1701275  33.59 0.0006645568    1.552    0.356
       104  -9.6447     92.4038     71.4372   6.0324827342e+01   5.0429944559e+01    0.3194101    0.1236767  56.02 0.0008058313    5.572    0.821
       105 -11.3105     81.0744     67.2293   6.2897992237e+01   5.3443924387e+01    0.3537442    0.2146669 -36.92  0.001630984    1.745    0.427
       106  -9.3267     70.0230     69.9529   6.8010303614e+01   5.4964445543e+01    0.1688773    0.1508521   4.03 0.0009368294    1.026    0.025
       107 -11.1449      8.8620     70.0909   9.6499341536e+01   6.2106599625e+01    0.2411473    0.1858095  16.19 0.0009692711    1.389    0.280
       108 -11.6642      5.8733     66.2150   9.7153836436e+01   6.3145196573e+01     0.561358    0.1797069 -50.33  0.002359821    2.295    0.564
       109  -9.5190     46.7062     69.4893   7.7853787180e+01   5.8674487421e+01    0.3296941    0.1342607  24.67 0.0009086013    2.473    0.596
       110 -12.3213    211.8682     67.4752   3.4398275556e+01   2.5249795025e+01    0.2222372    0.2016235 -66.61 0.0003491638    1.045    0.043
       111 -10.0124     58.7428     66.4011   7.1492787205e+01   5.7541419886e+01    0.5421256    0.2208485 -41.04  0.001631273    2.507    0.601
       112 -11.6648     55.0300     61.0500   7.1295597109e+01   5.9162250763e+01     0.264954    0.2088404   2.61   0.00144881    1.182    0.154
       113 -11.0421     58.8912     58.8867   6.8843963360e+01   5.8952197805e+01    0.3099303    0.1795172  32.37  0.001459299    1.590    0.371
       114 -12.2242     11.2315     58.1602   9.2346054126e+01   6.4627948827e+01    0.4542542    0.3312322 -52.53  0.002670049    1.323    0.244
       115 -13.9912     20.5284     58.3114   8.7391108997e+01   6.3902793489e+01    0.5848022     0.338728 -33.73  0.001011756    1.534    0.348
       116 -11.1315     13.5573     49.0283   8.8409976840e+01   6.6391131013e+01     0.803026    0.2780233  32.36  0.003250197    3.187    0.686
       117 -10.4825     63.4763     63.3118   6.8438614888e+01   5.7361702309e+01    0.2744245    0.2344504 -30.87 0.0008454303    1.223    0.182
       118  -9.9565    138.6619     61.4263   4.4700637853e+01   4.1858179525e+01      0.22791    0.1320789 -35.07 0.0007365879    1.853    0.460
       119  -9.0712    128.6436     62.7294   4.7330923776e+01   4.3956422926e+01    0.1467684    0.1038501  28.82 0.0006997167    1.640    0.390
       120  -9.9000     39.4437     61.5076   7.8725230820e+01   6.1256912255e+01    0.1405881    0.1190046  -7.96 0.0001099867    1.006    0.006
       121 -10.0573    146.2359     59.2953   4.2544538548e+01   4.0433762746e+01    0.2276037    0.1999479 -50.73  0.001329147    1.196    0.164
       122 -10.0557     90.8565     59.6227   5.6928130109e+01   5.2805105759e+01    0.2220317    0.1896849 -12.57  0.000543102    1.231    0.188
       123  -9.2781     49.4838     59.5558   7.3291465797e+01   6.0285905865e+01    0.1413214    0.1219457   3.90 9.602588e-05    1.032    0.031
       124  -9.3905    229.3557     56.7564   3.0308152771e+01   2.3411841853e+01    0.1561155   0.09967539 -31.66 0.0009433046    1.654    0.395
       125  -9.3971    130.6974     57.2851   4.5239875528e+01   4.4301152474e+01    0.1363523    0.1077052 -83.74 0.0002429168    1.558    0.358
       126 -10.6955     71.9144     57.0473   6.2831213210e+01   5.6993835499e+01    0.2057952    0.1853695  14.35 0.0003550817    1.058    0.055
       127 -10.0357     68.2790     56.2786   6.3992630674e+01   5.7796442262e+01    0.1676183     0.164263  36.66  0.000193809    1.278    0.218
       128 -12.1549     67.0323     52.5075   6.3119954073e+01   5.8670274643e+01    0.4631578    0.2285362  36.60  0.001260767    1.840    0.456
       129 -11.6100    119.8430     48.2424   4.4979624989e+01   4.8086945694e+01    0.4468198    0.2758965 -51.41    0.0018038    1.996    0.499
       130 -13.4123    114.5230     53.3257   4.7909657612e+01   4.8590051451e+01    0.3755312    0.2949781  47.03 0.0006214055    1.146    0.127
       131 -13.0750    106.1802     50.3085   4.9144168938e+01   5.0915718780e+01    0.4249634    0.3178206  64.61 0.0005896981    1.440    0.306
       132 -11.9812     86.6466     54.0851   5.6419107002e+01   5.4578859268e+01     0.504453    0.2442588  37.88  0.002113946    1.954    0.488
       133 -10.0611     97.5106     51.9505   5.2200136150e+01   5.2595833306e+01    0.2974732    0.1431512 -26.97  0.001193478    2.614    0.618
       134  -9.9069     32.3412     55.8891   8.0422515269e+01   6.3233493640e+01    0.3567037    0.1583154  -1.28  0.001109301    4.533    0.779
       135 -10.6020     44.9506     52.4539   7.2907549163e+01   6.2284671982e+01    0.2311834    0.1727558 -21.75  0.001278792    1.272    0.214
       136  -9.2158    181.7017     52.2784   3.4868623757e+01   3.3467579919e+01    0.1276878   0.08950043 -72.19 0.0002168854    1.537    0.350
       137  -9.7405    148.9188     52.1377   4.0052560842e+01   4.0820485043e+01    0.2030039    0.1712189  89.48 0.0004767141    1.222    0.182
       138 -10.8131    137.8017     50.7773   4.1811447504e+01   4.3575137890e+01    0.4310176    0.2157589  43.36  0.001315479    2.106    0.525
       139  -9.8847    232.5683     50.2659   2.8742764527e+01   2.3649619560e+01    0.2208745   0.08807424 -40.96  0.001141978    2.087    0.521
       140  -9.7717    129.0372     51.4877   4.3874890571e+01   4.5510943610e+01    0.2090805    0.1265072  56.30  0.000344079    1.503    0.334
       141 -10.3442     53.4144     49.5293   6.7848300364e+01   6.1524269420e+01    0.2679429    0.2138064  36.41  0.001082438    1.314    0.239
       142 -10.4126     37.9422     52.3303   7.6328678875e+01   6.3255765878e+01    0.4347383     0.224005 -21.73  0.001834263    2.433    0.589
       143 -10.4480     74.2907     47.4971   5.8424936385e+01   5.8108906515e+01    0.2473037    0.2243058  57.23 0.0007645965    1.344    0.256
       144 -11.8932      2.8769     44.0487   9.3165890584e+01   6.8092275977e+01    0.4844913    0.3554078 -75.88  0.002859562    1.849    0.459
       145 -10.2634    155.1679     46.8144   3.7509112285e+01   4.0089710733e+01    0.2296811    0.1936037  40.88 0.0004458668    1.297    0.229
       146 -10.0238    135.7462     46.0551   4.0846434632e+01   4.4682528712e+01    0.1975958    0.1725502 -86.63 0.0004840554    1.209    0.173
       147 -11.3163     79.2088     45.5850   5.5916513745e+01   5.7417671230e+01    0.2443984    0.2224291  34.16 0.0002979646    1.119    0.107
       148 -10.0031     68.9562     46.2527   6.0003129358e+01   5.9332177341e+01    0.2091416    0.1590201  17.72 0.0005497111    1.244    0.196
       149 -10.7166     26.2865     44.3798   7.9627866919e+01   6.6141899353e+01    0.3543946    0.2730619 -36.66   0.00212913    1.285    0.222
       150 -10.0177     28.7165     40.3268   7.6743462787e+01   6.6614797859e+01    0.1812868    0.1602122  11.43 0.0003054145    1.244    0.196
       151 -10.8221     16.9220     42.0448   8.4142077405e+01   6.7506644027e+01    0.4702235    0.2282762 -43.92  0.002133829    1.832    0.454
       152  -9.7374    221.0119     43.2842   2.8433249793e+01   2.6629337350e+01    0.1534289    0.1286627 -79.36 0.0001913964    1.083    0.077
       153 -10.7540     92.0017     42.6605   5.0615817139e+01   5.5137078511e+01    0.3054968     0.161232  42.85  0.001392911    1.675    0.403
       154 -12.1534    141.6360     41.0904   3.8282977891e+01   4.3940163396e+01    0.2570657     0.200042  70.52 0.0002985342    1.195    0.163
       155  -9.8257     86.7444     41.2733   5.1764020685e+01   5.6463796401e+01    0.2714458     0.162383  -3.68  0.001154299    2.611    0.617
       156 -10.0789     69.0961     41.7566   5.8212186530e+01   5.9993956021e+01    0.3253363    0.2362175  89.81  0.001387766    3.271    0.694
       157 -10.1300     36.4795     42.0184   7.3214190731e+01   6.5339343256e+01    0.2082653    0.1573455  14.16  0.000449447    1.145    0.127
       158 -10.8754    184.5048     40.4151   3.1704905784e+01   3.4356208664e+01     0.323841    0.2264518  79.26  0.001931581    1.367    0.268
       159 -10.6011    169.9912     40.0248   3.3495548119e+01   3.7581693125e+01     0.296453    0.1992501 -89.53 0.0009345071    1.585    0.369
       160 -12.8792    121.3863     37.5403   4.1244719983e+01   4.9110753225e+01    0.4216798    0.3074179  35.69 0.0006052404    1.441    0.306
       161  -9.0317    110.5441     41.4877   4.5060088561e+01   5.1130470690e+01    0.1388321    0.1224829  48.19 0.0001447994    1.004    0.004
       162  -9.7744     81.7582     35.9883   5.1408938963e+01   5.8237888958e+01    0.1549553    0.1159172 -24.96 0.0008493033    1.490    0.329
       163 -10.2326     50.0889     33.8009   6.3060727956e+01   6.4619235572e+01    0.2790926    0.1789283 -43.75  0.001351003    1.938    0.484
       164  -9.8923     40.7484     34.7624   6.8032808756e+01   6.5953812637e+01    0.1633355    0.1333149  28.66 0.0004360125    1.263    0.209
       165 -10.5437     28.6698     33.0766   7.3832544775e+01   6.7883443793e+01    0.2413796    0.1551936  -3.11 0.0006910768    1.517    0.341
       166 -10.0604     19.7482     34.5723   7.9663622274e+01   6.8630828729e+01    0.1623699    0.1070729  25.60 0.0004090026    1.501    0.334
       167 -13.1617      9.1332     29.4901   8.4305376922e+01   7.0508536279e+01    0.3664329    0.2524032  18.13  0.001488387    1.415    0.293
       168  -9.8534    145.0597     32.6692   3.5302771247e+01   4.4139317598e+01    0.1923759    0.1571634  88.76 0.0002521912    1.201    0.167
       169 -10.6229    144.7754     28.4030   3.4150997502e+01   4.4678274741e+01    0.2607843    0.2393718 -16.83  0.001070429    1.306    0.234
       170 -10.8724     90.2040     30.7655   4.6790984410e+01   5.7063410495e+01      0.46666    0.3034252  74.31  0.002060649    2.136    0.532
       171 -11.8610     91.3896     26.8092   4.4970730518e+01   5.7258554544e+01    0.3592413    0.2589393  49.44 0.0002791403    1.168    0.144
       172  -9.3580     77.4366     31.9761   5.1304492791e+01   5.9666177068e+01    0.1666963    0.1145572 -58.37 0.0004258355    2.352    0.575
       173 -11.4362    205.9795     32.2532   2.7580722715e+01   3.0846758663e+01    0.2029564    0.1553397 -51.37 0.0003332983    1.202    0.168
       174 -11.3586    135.7372     29.1362   3.5867481225e+01   4.6712302341e+01    0.2266741    0.1855914  72.29  0.000279957    1.096    0.087
       175  -9.1835     59.2433     30.6893   5.7680008746e+01   6.3440926219e+01    0.1113941    0.1069056  84.91 0.0002156518    1.504    0.335
       176  -9.8940     38.9686     30.3358   6.7037599405e+01   6.6911894127e+01     0.183686    0.1367818  18.97 0.0004261345    1.122    0.109
       177  -9.5724     54.3925     29.2151   5.9132155335e+01   6.4529165721e+01     0.158056    0.1242648 -36.98 0.0003120708    1.547    0.354
       178 -10.1415    102.6529     26.3219   4.1829740361e+01   5.4755191743e+01    0.2657971    0.1757556 -33.04   0.00143495    1.742    0.426
       179 -10.4688    102.9706     22.3244   4.0343815355e+01   5.5104929059e+01    0.2822827    0.2097542  54.25  0.001018727    1.127    0.112
       180 -10.0440     80.9007     26.9391   4.8167169782e+01   5.9545825663e+01    0.2001243    0.1739943  33.79 0.0005446518    1.051    0.048
       181 -10.3938    217.0324     25.8350   2.5296358006e+01   2.9387042981e+01    0.1784936     0.120658 -66.13 0.0004669063    1.287    0.223
       182  -8.1927     18.5923     26.2509   7.6909216171e+01   7.0192226188e+01     0.256452    0.1108165 -28.87  0.001043985    2.483    0.597
       183 -10.9766    189.5114    248.6349   7.3650106109e+01  -1.4453299233e+00    0.3265784    0.1442394  37.77  0.001532631    2.676    0.626
       184  -9.3733     19.7114     16.7178   7.1775509001e+01   7.1571372147e+01    0.1535224   0.09966811  27.29 0.0003858664    1.430    0.301
       185  -9.8275     43.7824     39.8090   6.8602795562e+01   6.4678503045e+01    0.1651587    0.1533282  23.71 0.0004253852    1.329    0.248
       186  -9.3792     51.5916     24.7614   5.8409403935e+01   6.5629074756e+01    0.1624684    0.1226251 -37.36 0.0009463482    1.632    0.387
       187  -9.9832    185.8427     24.1971   2.7809297676e+01   3.5904581019e+01    0.1748996    0.1380609 -76.13 0.0003703444    1.123    0.110
       188  -9.3885     34.0226     24.2075   6.6905853025e+01   6.8560511700e+01    0.1658559   0.08791369  30.84 -0.000430966    1.638    0.389
       189 -10.3717    129.5001     23.0000   3.5129970450e+01   4.8825453780e+01    0.3508003    0.1590681  62.54  0.001621878    1.856    0.461
       190  -9.5975    132.2582     20.6740   3.3954621139e+01   4.8410163353e+01    0.2186482    0.1392819  36.34 0.0002682804    1.832    0.454
       191 -11.5225      2.4008     20.6537   8.5326789672e+01   7.2587913606e+01    0.2728791    0.2377766 -10.28 0.0009264994    1.269    0.212
       192  -9.6931      6.9847     20.4796   8.2037931351e+01   7.2267315712e+01    0.2115165    0.1373343 -19.08  0.001292254    1.269    0.212
       193  -9.5510    200.1733     21.8377   2.5911239204e+01   3.3158559793e+01    0.1464611    0.1231976  67.34 0.0004775108    1.288    0.224
       194  -9.6546     79.5141     20.4708   4.6021293033e+01   6.0567048772e+01    0.1905698    0.1518112  39.86 -3.612827e-05    1.037    0.035
       195 -10.8564     77.4925     18.0013   4.5647596734e+01   6.1262548366e+01    0.3406453    0.1845026  40.62  0.001718467    1.585    0.369
       196 -11.4353     70.2795     18.4223   4.8198435413e+01   6.2748394700e+01    0.3616149    0.2040621  55.41  0.001050054    1.677    0.404
       197 -10.0895     63.9279     19.7144   5.1053632673e+01   6.3904163135e+01    0.2899373    0.1773134  44.48 0.0009181002    1.362    0.266
       198  -9.6642    230.1414    247.1998   6.5653886903e+01  -5.5999180061e+00    0.1423815    0.1136202  -3.38 0.0005141525    1.277    0.217
       199 -10.0937    211.6751     19.6988   2.4498679765e+01   3.1080348807e+01    0.1014893   0.08265834  47.14 0.0003470865    1.636    0.389
       200  -9.5261    184.4679     19.4494   2.6866932506e+01   3.6692430217e+01    0.1184027   0.09901868 -84.53 0.0001441706    1.003    0.003
       201 -10.1154     37.6516     18.2946   6.2146675351e+01   6.8833014562e+01    0.3225377    0.2119546  53.20  0.001682337    2.306    0.566
       202 -10.0747    170.7204    246.8248   7.7305702525e+01   1.0637979820e+00    0.2285327    0.1444957   9.59 0.0009148573    1.371    0.271
       203  -9.7132    116.2520    246.9370   8.9628660059e+01   7.9090077499e+00    0.1743352    0.1614105   2.38  0.001141609    1.163    0.140
       204 -10.0811     52.4048    244.7260   1.0447895633e+02   1.5930157775e+01    0.2031841    0.1575922 -55.14 0.0009171603    1.494    0.331
       205  -9.1086    140.0289     18.2036   3.1997628126e+01   4.6829844383e+01    0.1645706   0.08729378  66.67 0.0008266629    1.601    0.376
       206  -9.9661     39.4870    242.9956   1.0733403456e+02   1.7615186781e+01    0.1733825   0.08542174  67.54 0.0005070863    2.478    0.597
       207  -9.2620    202.3468    241.2807   6.9942612195e+01  -1.8036331264e+00    0.1295202   0.07555812  -4.39 0.0004072697    1.640    0.390
       208  -9.8394    146.9922    243.9960   8.2128584472e+01   4.5046003080e+00    0.1635733    0.1324975   7.34 0.0006210027    1.024    0.024
       209  -9.8555      1.6763    170.8421   1.1190242295e+02   3.7306265060e+01    0.1851705    0.1067185  88.00 0.0003929304    1.694    0.410
       210  -9.4580    204.1749    235.4169   6.8650897642e+01  -1.1262878175e+00    0.1524244     0.102398  26.73  0.000537424    1.507    0.336
       211 -10.2258    154.0396     16.6957   2.9633408585e+01   4.3729581366e+01    0.2003129    0.1556748 -56.56 0.0006149728    1.329    0.247
       212  -9.7403     31.4524     17.2488   6.4996306399e+01   6.9921759196e+01    0.1550554    0.1177712 -40.59 0.0009442967    1.745    0.427
       213 -10.8721    160.6617     15.8654   2.8597859239e+01   4.2300223499e+01    0.3623485    0.1402707  64.82 0.0008259554    2.150    0.535
       214 -10.0438     82.8634     15.8624   4.3167581872e+01   6.0303934003e+01    0.1992748    0.1471018  36.33 0.0002717754    1.205    0.170
       215  -9.6525     49.4900    235.5371   1.0442617236e+02   1.8133519217e+01    0.1262978    0.1103993  38.73 5.495912e-05    1.015    0.015
       216 -10.4465     14.0826     15.8469   7.5035450784e+01   7.2344049829e+01    0.2122405    0.1742427  11.18 0.0003755154    1.256    0.204
       217  -9.5001     13.6897     12.6701   7.3722204055e+01   7.2867357223e+01    0.2471997    0.1314847  20.12  0.001375254    1.609    0.379
       218  -9.1291    238.7366    234.3230   6.2110758786e+01  -4.6950632796e+00   0.09636136   0.08317915 -22.40 0.0003094944    1.558    0.358
       219  -9.9674     32.1953    233.1431   1.0834588091e+02   2.0379402699e+01    0.1694316    0.1600136  17.12  0.000438103    1.173    0.147
       220 -10.2829    245.1359    230.0639   6.0338514825e+01  -4.7456167302e+00    0.3304781    0.1232631  25.33  0.001682061    2.728    0.633
       221 -10.1812    220.3191     11.3140   2.2217344833e+01   3.0264798623e+01   0.09602901   0.07986843  49.17 0.0003309286    1.651    0.394
       222  -9.2252    105.5057     11.5158   3.5991172283e+01   5.5540449642e+01    0.1314242    0.1064162  55.12  7.65347e-05    1.034    0.033
       223 -10.2418    174.4185    235.5070   7.4785083740e+01   2.4580341457e+00    0.1320273    0.1033022   0.24 -8.320472e-05    1.021    0.020
       224 -10.9510    140.2363    228.0067   8.1353030739e+01   8.2905769995e+00     0.290601    0.2346324 -76.30   0.00122995    1.953    0.488
       225 -11.0055      1.7635    224.0707   1.1485018437e+02   2.4918651012e+01    0.1882755     0.131403  59.05 0.0006580808    1.251    0.201
       226 -10.3696     12.5008    226.9155   1.1254377150e+02   2.3463366069e+01    0.1681869    0.1110176 -85.44  0.000402366    1.512    0.339
       227  -9.1849    241.3146    225.3038   6.0208982212e+01  -3.6987279222e+00    0.1213618   0.06879232 -10.53 0.0007023036    1.619    0.382
       228  -9.1740     61.4474    224.5023   1.0049493838e+02   1.9190319277e+01    0.1322525    0.1173479  38.24  0.000142698    1.019    0.018
       229  -9.8783    131.4747    221.2818   8.2439383963e+01   1.0794881116e+01    0.2619399    0.1101754  28.72  0.001069396    2.100    0.524
       230 -10.9134      8.0000    220.0159   1.1322004830e+02   2.5323367956e+01    0.2069314    0.1488471 -75.50 0.0006703478    1.398    0.285
       231  -9.6983     86.4364     10.4319   4.0036263003e+01   6.0009887940e+01    0.1294035    0.1057899  50.71 -4.055111e-06    1.027    0.026
       232  -9.8808      9.3262    216.7232   1.1273169653e+02   2.5946818197e+01    0.1760414    0.1447852  89.48 0.0003578928    1.174    0.148
       233 -10.4169      1.9603    219.2280   1.1458067528e+02   2.5954156102e+01     0.259528    0.1049735  66.73  0.001030069    2.602    0.616
       234 -10.0934     27.9972    219.6631   1.0841462159e+02   2.3706083000e+01    0.2347159    0.1163722  13.97  0.001085807    2.320    0.569
       235 -10.3947     85.9195    215.0151   9.3126602116e+01   1.8308323405e+01    0.2003821    0.1826647  22.51 0.0003186946    1.018    0.018
       236  -9.4536    205.4315    211.7462   6.4448968238e+01   2.4631521838e+00    0.1802126    0.1009907 -27.31 0.0009405969    1.618    0.382
       237  -9.6299     20.2794    209.4398   1.0961247491e+02   2.6701001741e+01    0.1758593    0.1017776  38.25 0.0009301415    1.554    0.356
       238 -10.3876     39.4015    207.2108   1.0453181259e+02   2.5460063181e+01    0.2430423    0.1890886  49.57  0.000625075    1.211    0.174
       239  -9.5627    124.0036    205.9740   8.1911268102e+01   1.4994130002e+01     0.168154    0.1451638  12.68 0.0009328881    1.020    0.020
       240  -9.1714     46.4180    202.5114   1.0222453558e+02   2.5849502939e+01    0.1330808    0.1234554  52.25  0.000115418    1.027    0.027
       241  -9.4079    193.8074    201.3938   6.4939435196e+01   5.7398566427e+00    0.1833151     0.112363  15.53 0.0006476977    1.637    0.389
       242 -10.6845      4.5784    201.2321   1.1302262107e+02   2.9818896166e+01    0.1716088    0.1038066 -66.59 0.0006620673    1.616    0.381
       243  -9.5605     19.0000    194.9723   1.0890442701e+02   3.0199786643e+01    0.2118261   0.07000475 -75.41  0.000805522    2.964    0.663
       244  -9.9078     13.5556    180.8528   1.0930711236e+02   3.4048993199e+01    0.2989483    0.1164372  89.34  0.001119695    3.123    0.680
       245  -9.1119     22.6853    179.6793   1.0663871308e+02   3.3634662005e+01    0.1388404    0.0933404 -38.73 0.0003700119    1.656    0.396
