#   1 NUMBER                 Running object number                                     
#   2 MAG_AUTO               Kron-like elliptical aperture magnitude                    [mag]
#   3 X_IMAGE                Object position along x                                    [pixel]
#   4 Y_IMAGE                Object position along y                                    [pixel]
#   5 X_WORLD                Barycenter position along world x axis                     [deg]
#   6 Y_WORLD                Barycenter position along world y axis                     [deg]
#   7 A_WORLD                Profile RMS along major axis (world units)                 [deg]
#   8 B_WORLD                Profile RMS along minor axis (world units)                 [deg]
#   9 THETA_WORLD            Position angle (CCW/world-x)                               [deg]
#  10 FWHM_WORLD             FWHM assuming a gaussian core                              [deg]
#  11 ELONGATION             A_IMAGE/B_IMAGE                                           
#  12 ELLIPTICITY            1 - B_IMAGE/A_IMAGE                                       
         1 -12.1472    189.5901     32.1419   6.2281043003e+01   3.3765943866e+01     0.873513    0.7727624 -79.52  0.003108162    1.035    0.033
         2 -12.2332    198.0387     20.5586   5.8323439645e+01   3.3063047562e+01    0.6909013    0.6588858  39.95  0.002037856    1.331    0.249
         3  -9.5036     57.9854      2.5072   8.0122424337e+01   6.7676199030e+01    0.1877634    0.1025291  45.92  0.001035507    1.601    0.375
         4  -9.5778     66.2237    233.0976   1.3388139492e+02   1.8014371245e+01    0.2449778    0.2095224 -85.83  0.001189906    1.249    0.199
         5 -12.1278    135.2806    229.8170   1.1889620539e+02   8.0359575179e+00     0.955753    0.7318547 -70.75  0.005557179    1.639    0.390
         6 -13.3580    123.1753    247.6904   1.2370085348e+02   6.8223446845e+00     2.564092    0.8227636  32.98  0.009460065    3.323    0.699
         7 -11.1582     94.1414    244.4039   1.2925016791e+02   1.1850530644e+01    0.6006931    0.3098101  34.47  0.003082712    1.814    0.449
         8 -10.8644     97.1406    239.0392   1.2807664142e+02   1.2400529376e+01     0.712745    0.3580441  87.06  0.002674438    3.989    0.749
         9 -19.3088      8.6674    130.8976   1.3783630248e+02   4.7765644988e+01     18.67184     1.952978 -74.27   0.03991618    9.619    0.896
        10  -8.0882     74.2882    226.3585   1.3156671326e+02   1.8252015834e+01    0.1143686   0.09958333 -29.53 0.0007024767    1.683    0.406
        11  -8.6800     77.2513    232.5620   1.3155062123e+02   1.6582606803e+01    0.3117593    0.1137268  34.31  0.001302653    2.665    0.625
        12  -8.8035    115.8894    212.1413   1.2069208844e+02   1.4705962086e+01    0.2114063    0.1682078  62.51 0.0004050632    1.233    0.189
        13 -10.5958    164.5748    233.3956   1.1326922587e+02   2.5556720113e+00     0.283927    0.1694673 -56.63  0.001441211    2.290    0.563
        14 -10.4180    196.4688    196.1282   1.0035697710e+02   3.4381551767e+00    0.5487577    0.4090958  48.34  0.002965769    1.492    0.330
        15  -9.0898    100.4107    231.1989   1.2652215540e+02   1.3398589904e+01    0.2217458    0.1564053  65.22 0.0006933555    1.403    0.287
        16 -11.0260     94.8507    225.8655   1.2710410065e+02   1.5308122757e+01    0.5405524    0.2541295  39.10  0.002550365    1.831    0.454
        17 -10.3844     77.8885    181.0373   1.2539779034e+02   2.7760545586e+01    0.4530415    0.2717255 -41.54  0.001874163    2.226    0.551
        18 -10.3314     81.7646    175.5890   1.2362493727e+02   2.8467576358e+01    0.3558697    0.2740559 -38.75   0.00118903    1.616    0.381
        19  -8.7257     99.4789    180.9287   1.1994062661e+02   2.4334681640e+01    0.2133339    0.1416675 -63.07 0.0009566397    1.559    0.358
        20  -9.0078    197.7744    175.2014   9.5975377609e+01   6.9430566349e+00    0.2833373    0.2625987 -85.93  0.001615294    1.385    0.278
        21  -9.4422     81.3206    169.8641   1.2286982153e+02   2.9915593633e+01     0.244973    0.1819428  53.59  0.000525704    1.295    0.228
        22 -12.5847     68.6192    145.0004   1.2229724307e+02   3.7960517142e+01      1.25973    0.7274098  81.14  0.004695809    2.601    0.616
        23 -12.6307     58.4390    131.4370   1.2293052152e+02   4.2753863883e+01      1.48728    0.4184285 -63.34  0.004754004    3.403    0.706
        24 -12.0065     77.5561    161.3832   1.2253282744e+02   3.2566037361e+01    0.5657442    0.5183356  33.24  0.001282422    1.209    0.173
        25 -10.4873     94.7398    158.3765   1.1734460302e+02   3.0527070250e+01    0.5728623     0.408051 -22.48  0.001693645    2.097    0.523
        26  -8.1724    140.7429    157.5116   1.0512721374e+02   2.2001549750e+01    0.2023952    0.1442606  53.94 0.0005973036    1.458    0.314
        27 -10.6546     94.6840    142.7809   1.1435864377e+02   3.4362542480e+01    0.2995682    0.2849715 -22.16 0.0005865695    1.175    0.149
        28  -9.3527    106.8173    142.2145   1.1081208443e+02   3.2300464406e+01    0.4667614    0.2592588 -37.46  0.001790261    2.267    0.559
        29  -8.7224    134.0000    142.0108   1.0342875625e+02   2.6928319176e+01    0.2631601   0.08998109 -48.69            0    2.971    0.663
        30 -11.3012    126.4398    229.4867   1.2074116803e+02   9.5577365485e+00    0.4718731    0.3760757  28.91  0.002729024    1.248    0.199
        31 -10.8768     69.8477    134.2415   1.1997507069e+02   4.0477023966e+01     0.460953    0.2478602  51.21   0.00182967    2.104    0.525
        32  -9.5251    114.4552    131.9249   1.0636906053e+02   3.3295265061e+01     0.318853    0.2514747 -23.57 0.0008518516    1.552    0.356
        33  -8.5540    105.9854    130.7057   1.0849223833e+02   3.5240305983e+01    0.2237975    0.2081169  56.92  0.001053098    1.076    0.070
        34  -9.1701    101.8902    128.3790   1.0914330007e+02   3.6576649757e+01    0.2913602    0.2143391 -42.53 0.0008950925    1.409    0.290
        35  -8.4534    109.8436    120.1947   1.0485541890e+02   3.6992856244e+01    0.2268332    0.2074285  89.34 0.0003718659    1.163    0.140
        36 -11.4196    145.0021    228.3580   1.1662051984e+02   6.6766393642e+00    0.5703351    0.2595328  43.23  0.002574111    1.894    0.472
        37  -9.1785     70.9250    228.4459   1.3247898304e+02   1.8301094732e+01    0.2367607     0.154603  79.88  0.001092403    1.557    0.358
        38 -12.9117    113.3589    229.7200   1.2357678498e+02   1.1640454505e+01     1.867994     0.328127  41.30  0.005690282    4.218    0.763
        39 -10.7687     88.6327    165.7613   1.2027497861e+02   2.9748220483e+01    0.4947005     0.309636  57.32  0.000454222    1.700    0.412
        40  -8.2003    167.6657    112.3315   8.7891746668e+01   2.5862622388e+01    0.1641732    0.1245281 -81.65 0.0007052199    1.730    0.422
        41  -8.0117    205.9905    110.0000   7.9667956070e+01   1.7475032495e+01    0.2304783   0.08494798  53.01 0.0007906662    2.861    0.651
        42 -11.4704    179.1616     41.0074   6.6114319387e+01   3.5240631515e+01     0.551883    0.4553678  19.46  0.001866132    1.599    0.375
        43 -11.4945    101.1799    249.3695   1.2833548753e+02   9.9006093044e+00    0.8978515    0.3506549  36.18  0.001679925    2.230    0.552
        44  -9.4935     65.9851    236.9906   1.3426982022e+02   1.7277214957e+01    0.2920206    0.1708441  70.08  0.001162425    1.681    0.405
