#   1 NUMBER                 Running object number                                     
#   2 MAG_AUTO               Kron-like elliptical aperture magnitude                    [mag]
#   3 X_IMAGE                Object position along x                                    [pixel]
#   4 Y_IMAGE                Object position along y                                    [pixel]
#   5 X_WORLD                Barycenter position along world x axis                     [deg]
#   6 Y_WORLD                Barycenter position along world y axis                     [deg]
#   7 A_WORLD                Profile RMS along major axis (world units)                 [deg]
#   8 B_WORLD                Profile RMS along minor axis (world units)                 [deg]
#   9 THETA_WORLD            Position angle (CCW/world-x)                               [deg]
#  10 FWHM_WORLD             FWHM assuming a gaussian core                              [deg]
#  11 ELONGATION             A_IMAGE/B_IMAGE                                           
#  12 ELLIPTICITY            1 - B_IMAGE/A_IMAGE                                       
         1 -12.5132     60.4778     45.6982   1.0544661193e+02   5.9738696048e+01     0.980553    0.4352943 -39.74  0.004706931    2.081    0.520
         2 -11.1321    105.8785     20.2678   8.2102162471e+01   5.5151782023e+01    0.4699677    0.2527359 -26.82  0.001202813    1.987    0.497
         3 -10.7628     60.4403     25.5299   9.7920371151e+01   6.2688872472e+01     0.543558    0.2179835 -34.51  0.002607488    2.398    0.583
         4 -11.2360     22.7032     11.2005   1.0704263631e+02   6.9195414042e+01     1.184505    0.5303043   3.18   0.00509183    4.179    0.761
         5 -11.0682     14.4853      9.4978   1.1003396473e+02   7.0180860101e+01    0.3342639    0.2428258  20.09  0.002566847    1.509    0.337
         6 -11.5031     16.8358     13.6712   1.1070903469e+02   6.9412523845e+01    0.5253779    0.2461326 -21.96  0.002605798    2.100    0.524
         7 -11.4784     19.8886     22.9461   1.1303722712e+02   6.7821416500e+01    0.5085209     0.252739 -36.88  0.002562203    1.620    0.383
         8 -10.5854    153.2077     25.1647   7.3629400829e+01   4.3876798773e+01    0.6075861    0.3538961  14.17  0.002542732    2.928    0.658
         9 -11.2650    178.2087     21.4257   6.8541845108e+01   3.8175060571e+01    0.4502766    0.3149972  21.39  0.001853233    2.035    0.509
        10  -8.2217     87.8979      7.6439   8.2095116131e+01   5.9978922069e+01    0.6129965    0.3113344  53.75   0.00321777    1.864    0.463
        11 -11.5365     90.7934     19.9141   8.6005195042e+01   5.8196356174e+01    0.5224926    0.3834425 -16.49    0.0026727    1.385    0.278
        12  -9.7515     32.2047     12.3786   1.0344068780e+02   6.8041895562e+01     0.226311    0.1556507  43.19 0.0009541057    2.158    0.537
        13 -11.0034     47.3150     18.7051   1.0002302565e+02   6.5399602500e+01     0.345245    0.2797361 -27.35  0.002223465    1.359    0.264
        14 -12.1172     49.1719     12.9702   9.6903232832e+01   6.5844712569e+01    0.5504091    0.2941729  42.54  0.002849848    2.055    0.513
        15 -11.1685     42.3859     14.2612   1.0008433389e+02   6.6589464571e+01    0.3528242    0.2017507  31.36  0.001490123    1.680    0.405
        16 -11.8238     35.9982     18.4856   1.0443431132e+02   6.6823135274e+01      0.51159    0.2993007 -25.02  0.003232224    1.471    0.320
        17 -12.1459     69.4654     17.8264   9.1728579927e+01   6.2220426007e+01    0.6539053    0.3611575  50.52  0.003518223    2.084    0.520
        18 -12.0368    243.9054     14.8954   5.9604819401e+01   2.3326241461e+01    0.3665942    0.3185976  42.97  0.002203337    1.628    0.386
        19 -11.9008    246.1466      7.7920   5.7979527154e+01   2.3664016059e+01    0.4340515    0.3292264 -21.84  0.001693743    1.867    0.464
        20 -11.6208    240.0111      7.7916   5.8482469386e+01   2.5019211844e+01    0.3509445    0.1877635 -69.51 0.0003174317    1.789    0.441
        21 -11.8009    242.0330      3.9827   5.7545212053e+01   2.4998186789e+01    0.6354322    0.2176834  79.60  0.002657344    2.923    0.658
        22 -12.2836    238.2462     15.5053   6.0233358641e+01   2.4517896542e+01    0.4631993    0.3746235  -9.68  0.002720229    1.891    0.471
        23 -11.3277    234.0130     16.1260   6.0754491259e+01   2.5402975456e+01    0.3222805    0.2416685  66.53 0.0004498865    1.356    0.262
        24 -10.9958    165.3787     17.0439   6.9248532300e+01   4.1799756624e+01    0.3162203    0.2231076  37.99 0.0005718662    1.573    0.364
        25 -11.3508    125.7360     11.2470   7.4474125093e+01   5.1737122530e+01    0.6751506    0.3568662  74.65  0.003048345    2.399    0.583
        26 -11.1465    134.9839     15.3610   7.3986824943e+01   4.9231769420e+01    0.4912218    0.2646446  54.08  0.002433093    1.566    0.362
        27 -10.7139    130.0410     15.0270   7.4851796367e+01   5.0401371803e+01    0.3536394    0.2411773  41.55  0.001357597    1.347    0.258
        28 -12.2163    104.8699     12.9044   7.9692753660e+01   5.6106590561e+01    0.4546796    0.3702969  -9.11  0.001874567    1.295    0.228
        29 -11.4551    211.4434     10.0140   6.1622541429e+01   3.1357185186e+01    0.3959971    0.3088847  30.09  0.001486668    1.836    0.455
        30 -11.5185     85.4856     14.8776   8.5592027325e+01   5.9731286230e+01    0.7606003    0.4099561  15.02  0.003645844    2.407    0.585
        31 -11.2282    192.2939      7.8871   6.3216553716e+01   3.6175833197e+01    0.4037353    0.2950402  -0.29  0.001597491    2.024    0.506
        32  -9.8721    193.9841      1.4258   6.1446976309e+01   3.6405386863e+01    0.1884362    0.1067471  73.98  0.000357502    1.492    0.330
        33 -10.5073    169.2473      9.8208   6.6672352547e+01   4.1586859750e+01    0.3386818    0.1836775  47.80  0.001663944    1.829    0.453
        34  -9.3349    158.0000     10.9725   6.8659384574e+01   4.4200774673e+01     0.188284   0.07665883 -25.16 0.0004539702    2.858    0.650
        35 -10.9042     71.5434      3.6785   8.5244616942e+01   6.3311671993e+01    0.5191095    0.3523496   4.05  0.003320453    1.405    0.288
        36 -10.8582     66.1841     10.4673   8.9796657943e+01   6.3556064294e+01    0.3464965    0.1938688  41.31  0.001822639    1.629    0.386
        37 -10.4964     62.7842      6.6293   8.9314621901e+01   6.4493025286e+01    0.3090356    0.1820923  -4.69  0.001315097    1.754    0.430
        38 -10.1388     77.2208      6.9671   8.4875935260e+01   6.2013208596e+01    0.2305169    0.2105387  48.29  0.001016851    1.366    0.268
        39 -10.4996     77.4835      3.0071   8.3185108248e+01   6.2322606117e+01    0.2739744    0.1573947  10.23  0.001228233    1.920    0.479
        40  -9.6761      3.7168     10.7336   1.1560337194e+02   7.0852526314e+01    0.2664948    0.1190137 -17.42  0.001493067    2.444    0.591
        41 -10.0308    151.1633      7.8376   6.8821628897e+01   4.6133812790e+01     0.321374    0.1644329  59.67 0.0009417674    1.613    0.380
        42 -10.0523      1.2635      7.3454   1.1540562004e+02   7.1494225779e+01    0.1526657   0.07000066 -42.25 0.0001623345    1.806    0.446
        43 -10.5436    199.5303      6.0089   6.1946793197e+01   3.4622656507e+01    0.3151559    0.1540331  74.39  0.001523772    1.788    0.441
        44 -10.0920    162.9216      5.3756   6.6339345656e+01   4.3536747637e+01    0.2768419     0.187494  -1.16  0.001496244    2.033    0.508
        45  -9.5796    162.6906      1.2902   6.5235148604e+01   4.3953807359e+01    0.1891249    0.1076354  73.46 0.0001992989    1.556    0.357
        46 -10.6138     42.7332      3.3209   9.5142443834e+01   6.7782362171e+01    0.4339968     0.222994   5.38    0.0023029    2.411    0.585
        47 -10.8973    218.6136      3.2569   5.9403279914e+01   3.0392494077e+01    0.2916934    0.2414849  71.68 0.0009332728    1.218    0.179
        48 -11.5229    223.4971      1.9772   5.8683878714e+01   2.9396675914e+01    0.7540923    0.2934083  88.14  0.003026568    3.034    0.670
        49 -10.2965    173.5855      4.3619   6.4612656015e+01   4.1052289980e+01     0.455063    0.1645107  69.34  0.001876615    2.382    0.580
        50 -10.2643    141.8322      3.7242   6.9107438137e+01   4.8698263181e+01    0.3189107     0.194369  60.90  0.001739882    1.366    0.268
        51 -12.1045    133.8168      2.6720   7.0155873823e+01   5.0643455531e+01    0.3535322     0.225998  54.14 0.0006914992    1.296    0.228
        52 -10.6581    205.3945      2.3115   6.0465309673e+01   3.3596254440e+01    0.3769678    0.1962003 -89.70  0.001224328    1.930    0.482
        53 -11.4775    113.3136      1.9031   7.3854822652e+01   5.5279064119e+01    0.5514991     0.219275  66.73  0.001907234    2.778    0.640
        54 -10.9602      2.8239      1.7989   1.1227342043e+02   7.2126880268e+01     0.344157    0.1508789  11.61  0.002063838    2.478    0.597
        55  -9.5069    157.9359      2.5303   6.6253698722e+01   4.4986172416e+01    0.2068314    0.1085127  66.18  0.001030893    1.592    0.372
        56  -9.1009     81.9815      1.1897   8.1169078375e+01   6.1653311305e+01    0.1560479   0.07973521  51.05 0.0004642775    1.737    0.424
        57 -11.0988    105.7965      1.7962   7.5449705366e+01   5.6886131478e+01    0.6016927    0.2075209  62.99  0.002392171    3.032    0.670
        58  -9.8159     18.6292    124.2453   1.3784477506e+02   4.7906275796e+01    0.2273001    0.1138669 -59.93 0.0007527568    1.553    0.356
        59 -11.5813    104.9933    121.0076   1.1335159428e+02   3.7482564073e+01    0.5237748     0.487406 -56.33  0.002095988    1.024    0.023
        60 -10.4471     45.6871    120.6212   1.2988004799e+02   4.6223531578e+01    0.2905687    0.2161319  88.98  0.001353454    1.492    0.330
        61  -9.5545    220.7256    120.6540   8.6825182329e+01   1.1946957018e+01    0.1476321    0.1176256  -2.66 0.0002716144    1.626    0.385
        62  -9.5334     72.8602    119.7406   1.2202432302e+02   4.3025654332e+01    0.2067459    0.1730053  -9.27 0.0007502548    1.479    0.324
        63 -10.8725     34.3391    119.5518   1.3285877145e+02   4.7619478338e+01    0.2496915    0.1855024 -47.19 0.0004777294    1.286    0.223
        64  -9.4524     81.2212    117.7932   1.1922408887e+02   4.2237895537e+01    0.1891491    0.1568431 -32.61 0.0003441638    1.291    0.226
        65  -9.8490    113.9950    115.9340   1.0966995643e+02   3.6933804426e+01     0.220893    0.2159216 -56.76 0.0003787778    1.018    0.017
        66 -10.6899     67.0879    112.0632   1.2201412034e+02   4.5598176654e+01    0.5088664    0.2830565 -63.13  0.002355951    1.791    0.442
        67 -12.6867     33.4239     93.9286   1.2828808738e+02   5.3438650443e+01     1.614428     1.030359 -28.52  0.009132163    1.758    0.431
        68 -10.8632     25.4573     86.7878   1.2931117258e+02   5.5649543221e+01    0.5867963    0.5593276  33.89   0.00417542    1.301    0.232
        69 -12.2653      7.3861     88.6998   1.3540799108e+02   5.6495129683e+01     0.528546    0.4797926  78.07  0.001480969    1.343    0.256
        70 -11.7652     37.5085     86.0277   1.2523360289e+02   5.4753897295e+01    0.4515263    0.2938787  19.35  0.001165494    1.829    0.453
        71 -10.9658     44.4903     85.3540   1.2279474167e+02   5.4195457685e+01    0.3374701    0.2726496 -33.49  0.001090936    1.144    0.126
        72 -11.9835      9.8987     97.7639   1.3620792145e+02   5.4402073676e+01     0.853343      0.41114  42.23  0.004602476    2.683    0.627
        73 -11.7700     18.9076    106.1480   1.3497246274e+02   5.1945664091e+01    0.2300539    0.1814479 -56.62 0.0002803407    1.064    0.060
        74 -11.7938     28.1179    113.0885   1.3350772636e+02   4.9652347839e+01    0.5931137    0.3460431   7.01  0.003125377    2.554    0.608
        75 -12.7679     26.2555    106.9205   1.3297176874e+02   5.1194888876e+01     1.273341    0.6427044 -23.41  0.005666868    3.336    0.700
        76 -11.9161     18.3513     90.7840   1.3237734772e+02   5.5335847406e+01      0.31547     0.228875 -62.29 0.0007141773    1.147    0.128
        77 -10.0860      7.5035    114.5210   1.3944274092e+02   5.0882990706e+01    0.2180872    0.1646324 -68.96 0.0009186486    1.025    0.025
        78 -11.5860      2.5639    112.1201   1.4044536813e+02   5.1719202653e+01     0.332012    0.2274392 -74.09 0.0009249859    1.171    0.146
        79 -10.4982      5.5377    108.5371   1.3913172352e+02   5.2325601010e+01     0.197138    0.1658565 -88.60 0.0008061518    1.227    0.185
        80 -11.6893      3.3759    105.0535   1.3922922641e+02   5.3215790565e+01    0.3536475     0.307613 -45.27  0.001204493    1.240    0.194
        81  -9.2300    126.7304    113.9823   1.0579215476e+02   3.4795914402e+01     0.191829    0.1328387 -46.40 0.0003865869    1.417    0.294
        82  -9.4835     88.1107    114.5352   1.1651397504e+02   4.1895566832e+01    0.2136446    0.1415238  42.61 0.0006230751    1.619    0.382
        83 -10.4043    108.1681    112.5917   1.1041769423e+02   3.8802771871e+01    0.3022249    0.2394959 -85.41  0.001455742    1.570    0.363
        84  -9.9282     49.0024    112.0599   1.2729812188e+02   4.7827160355e+01    0.2062225     0.178835 -65.00   0.00129421    1.058    0.055
        85 -10.3444    170.5239    110.2245   9.4226735592e+01   2.5705341936e+01    0.3535098    0.3215606  12.58  0.001593477    1.255    0.203
        86  -9.6734    175.1192    107.1560   9.2428997618e+01   2.5231630959e+01    0.2389848    0.2165017   5.51  0.000580831    1.280    0.219
        87 -10.9056     78.9297    108.0437   1.1762063887e+02   4.4814695761e+01    0.4339785    0.3679342  28.18  0.001413201    1.307    0.235
        88 -10.7685    102.5186    109.0000   1.1107720664e+02   4.0654834543e+01     0.353464    0.2885373  16.71   0.00180715    1.444    0.307
        89 -13.3046     18.7951     95.6608   1.3316025611e+02   5.4253175693e+01    0.3333557    0.3055331 -12.08 0.0005493896    1.295    0.228
        90  -9.6818    157.9358    105.5277   9.5844469306e+01   2.9639454927e+01    0.2284748    0.2135611 -49.33 0.0005765324    1.068    0.064
        91  -9.5546    143.3174    105.9677   9.9464421460e+01   3.2914959300e+01    0.2257597     0.202212 -49.84 0.0009701361    1.112    0.100
        92 -11.4719     86.3759    105.1644   1.1473466648e+02   4.4292916772e+01    0.4009103    0.3383061  15.51  0.001318926    1.351    0.260
        93 -10.1605     52.3957     96.5396   1.2293144765e+02   5.0918589826e+01    0.4385547    0.1286579 -53.05  0.001653008    2.748    0.636
        94 -10.9238     48.4272    102.8245   1.2555481959e+02   4.9976110753e+01    0.3497568    0.2290652 -27.56 0.0004841542    1.820    0.450
        95  -9.9436     57.4876    102.0152   1.2262192811e+02   4.9103321559e+01    0.2634598    0.1221827 -60.51 0.0008612898    2.083    0.520
        96 -10.2896     57.6259     97.6580   1.2156961258e+02   5.0050173934e+01    0.2757999    0.2432231 -71.41 0.0009535879    1.205    0.170
        97 -11.1660     67.6665     97.2992   1.1838561324e+02   4.8826017230e+01    0.6338227    0.3399935 -48.21  0.002729592    1.648    0.393
        98 -11.6838     81.9629     93.1187   1.1293185558e+02   4.7623941043e+01    0.5873381    0.4091184  58.05  0.001296746    1.877    0.467
        99 -11.2092     89.3999     89.8973   1.0980388337e+02   4.7088747415e+01    0.4811967    0.3084597 -37.14  0.001643154    1.537    0.350
       100  -9.1747     92.9177     85.5147   1.0750923579e+02   4.7386370345e+01    0.2719809    0.2061521  30.05 0.0006414148    1.399    0.285
       101 -11.4064     79.7823     82.7409   1.1073603731e+02   5.0125990368e+01    0.5711033    0.4949307 -75.42  0.002364137    1.428    0.300
       102 -11.3788     66.5725     81.7910   1.1466884393e+02   5.2261762817e+01    0.4367626    0.3531551  13.21  0.002572077    1.350    0.259
       103 -11.7048     73.5227     77.5040   1.1121147390e+02   5.2132026314e+01    0.6346911    0.4786424  -2.30  0.003473637    1.531    0.347
       104  -9.5446    210.5199     98.5237   8.3309380530e+01   1.8418452847e+01    0.1511621    0.1414547 -67.98  -1.3074e-05    1.013    0.013
       105 -10.2067     42.5457     94.7653   1.2560799144e+02   5.2378645036e+01    0.2465938    0.2302649 -47.06 0.0009941327    1.112    0.100
       106 -10.5660    125.2608     93.4652   1.0064854739e+02   3.9472006633e+01    0.5207462    0.2564181  39.84  0.001361587    2.167    0.538
       107  -9.9242    117.3011     93.0878   1.0268457574e+02   4.1208991008e+01    0.3495799    0.1926125  35.71  0.001335045    2.027    0.507
       108  -9.0794    152.5100     92.5097   9.3573192508e+01   3.3528024755e+01    0.1540741     0.150384  86.94  0.000201086    1.020    0.020
       109 -10.6511    102.4573     89.8442   1.0593926842e+02   4.4778243517e+01     0.518064    0.3837622  -1.85  0.001681434    1.789    0.441
       110 -10.5360     49.7481     90.3055   1.2229492492e+02   5.2571380655e+01    0.4035802    0.3646747 -10.50  0.002645073    1.188    0.158
       111 -10.2428     78.1831     97.0383   1.1510907465e+02   4.7365521319e+01    0.4915818    0.1810821 -53.57  0.001506654    2.645    0.622
       112  -8.8611    212.3266     87.2773   8.0224651687e+01   2.0015679655e+01    0.1434815    0.1175296  23.69 0.0002982155    1.591    0.371
       113 -10.8118    113.1893     84.4392   1.0133145110e+02   4.3783315054e+01    0.6043808    0.2909788 -34.08  0.002317125    2.343    0.573
       114 -10.9878    107.2085     79.1502   1.0144834288e+02   4.5998847766e+01    0.7471344    0.5223433  89.78  0.003053123    2.718    0.632
       115 -10.9062    143.4893     83.6427   9.3212188480e+01   3.7341482988e+01    0.3760267    0.2876554 -29.98  0.001273524    1.396    0.284
       116  -9.9782    165.6902     83.2518   8.8036695993e+01   3.2122234242e+01     0.279584    0.2394404 -72.04   0.00140777    1.261    0.207
       117  -9.2807    127.4966     83.4907   9.7190799436e+01   4.0967546729e+01    0.1494611    0.1440199   6.67 1.262551e-05    1.041    0.040
       118 -11.2233     58.1498     78.0561   1.1639193218e+02   5.4129530082e+01    0.3817234     0.316378 -66.48     0.001082    1.411    0.291
       119 -10.2045     53.7068     80.3761   1.1849250359e+02   5.4199969668e+01    0.2469949    0.1800138 -55.52  0.000827015    1.324    0.244
       120 -11.4721     52.9965     76.1431   1.1758529594e+02   5.5144584435e+01    0.5459582    0.3232234 -48.78  0.002919842    1.476    0.323
       121  -9.7215    121.5107     78.9585   9.7432245539e+01   4.3117247724e+01    0.2199011    0.1975898  40.75 0.0004992849    1.108    0.098
       122 -10.6586     93.7212     76.3142   1.0455352565e+02   4.9062982601e+01    0.4894634    0.3417433  25.56  0.001619625    1.581    0.367
       123 -12.3575     74.2759     50.4407   1.0235566223e+02   5.6924085290e+01     1.123377    0.8583314 -54.21  0.006437959    1.697    0.411
       124 -11.9623     85.4205     73.3481   1.0619881046e+02   5.1062703727e+01    0.6568615    0.6308425 -36.64  0.004055203    1.134    0.118
       125 -11.7638     78.7234     66.8851   1.0631910755e+02   5.3365185718e+01    0.6522535    0.5637036  54.02  0.003340689    1.434    0.303
       126 -12.0541     25.6102     56.0543   1.2167833793e+02   6.1782906582e+01     1.294806    0.5589353  22.64  0.006737398    2.654    0.623
       127 -10.2848     13.7992     54.4006   1.2567115899e+02   6.2975174238e+01    0.2102139    0.1555954 -41.74 0.0002321488    1.039    0.037
       128 -11.9810     13.8646     74.4920   1.3050237815e+02   5.9045537184e+01     0.507724     0.371968 -39.28  0.002975642    1.172    0.146
       129 -11.6527     40.3189     55.7984   1.1612957467e+02   6.0453234084e+01    0.5184606     0.397998  80.72  0.002913662    2.572    0.611
       130 -12.0836      2.1169     70.8305   1.3372269480e+02   6.0470129164e+01    0.6117921    0.1405078 -59.93  0.002646398    2.861    0.651
       131 -11.6416     51.3205     61.5501   1.1392760208e+02   5.8166893068e+01     0.442005     0.330965 -45.00  0.002215661    1.253    0.202
       132 -11.2684     13.4643     66.2843   1.2878099428e+02   6.0715352820e+01    0.2891633    0.2427495  48.80  0.001133955    1.634    0.388
       133 -12.2496      8.8716     62.1688   1.2945181871e+02   6.1806515301e+01    0.5497806    0.4375661 -14.14  0.004091201    1.327    0.247
       134  -9.4913      4.7358     78.0312   1.3427475961e+02   5.8869963221e+01    0.1666953    0.1154536 -57.59 0.0008438528    1.106    0.096
       135 -12.8682    246.9666     79.2909   7.3169227424e+01   1.3443008491e+01    0.7064021    0.3540474 -39.02  0.003185063    1.838    0.456
       136 -11.3098    186.8625     70.6297   8.0392627932e+01   2.9107962333e+01    0.6663815    0.5078517 -16.37  0.003212839    1.668    0.400
       137 -10.0735     66.2991     72.9447   1.1223137878e+02   5.4067028092e+01    0.3523603    0.1842034 -39.02  0.001681331    1.771    0.435
       138 -11.2097     32.3995     71.7934   1.2348095671e+02   5.8158869421e+01    0.4639949     0.258997  25.08  0.002066807    2.068    0.516
       139 -11.3295     41.1564     70.2601   1.2002641022e+02   5.7623435549e+01    0.4028808    0.2511417 -52.84  0.001788756    1.445    0.308
       140 -10.1459     38.5080     73.5287   1.2181665580e+02   5.7237778233e+01    0.2121552    0.1744484 -47.69 0.0007576833    1.104    0.094
       141 -11.3030    122.4470     68.3123   9.3936881036e+01   4.4849417272e+01    0.5885225    0.3421191  45.30  0.002637841    1.681    0.405
       142  -9.3577    208.7196     68.0108   7.6020025790e+01   2.4153344783e+01    0.1958897    0.1805396 -58.07 0.0003951213    1.083    0.077
       143  -9.7147    172.4944     67.9426   8.2372879297e+01   3.3124603024e+01    0.2484767    0.2069523 -83.02  0.001077306    1.301    0.231
       144 -11.2627    219.7907     66.3651   7.3942549707e+01   2.1751883832e+01    0.5662298    0.3077064  63.19  0.002293306    1.836    0.455
       145  -9.2037     69.6452     67.0987   1.0935576017e+02   5.4707864970e+01    0.1840044    0.1074717 -33.89 0.0003288133    1.644    0.392
       146 -11.0725     58.2305     61.7000   1.1155226296e+02   5.7278590341e+01    0.5403488    0.3153439 -55.52   0.00202216    2.018    0.504
       147 -11.4174    127.3337    242.2745   1.2939084270e+02   6.9871966789e+00    0.3383532    0.2446079 -77.09  0.002006294    1.608    0.378
       148 -10.8065     60.7013     36.7128   1.0211846480e+02   6.1095164164e+01    0.2923577    0.1913865 -26.91  0.001000085    1.393    0.282
       149 -11.3178     46.3825     58.3739   1.1471361828e+02   5.9324940360e+01    0.4282045    0.2872583 -35.55  0.001419856    1.269    0.212
       150 -10.1582     20.9259     65.0734   1.2582216516e+02   6.0431179555e+01    0.1767778    0.1385158 -38.77 0.0007904039    1.033    0.032
       151 -10.7949    204.3721     63.8703   7.5662935396e+01   2.5880600789e+01     0.256573    0.2175681  43.61 0.0001869613    1.340    0.254
       152 -10.1673     98.5460     62.4360   9.8751417078e+01   5.0710132002e+01    0.2909426    0.2315413  18.86 0.0009782183    1.294    0.227
       153 -11.3123     91.8598     62.2169   1.0069296945e+02   5.1977460905e+01    0.3984484    0.3823259  71.82  0.001337592    1.285    0.222
       154 -10.7692     91.5149     57.9481   9.9395685437e+01   5.2769179426e+01    0.3598723    0.2528351  40.12  0.001334896    1.431    0.301
       155  -9.2225    167.6291     63.0554   8.1959044657e+01   3.5128150881e+01    0.1911054    0.1841155 -71.29  0.001065044    1.056    0.053
       156 -10.3467    113.6329     61.3554   9.4104768755e+01   4.7903407969e+01    0.6465424    0.1954132 -42.36   0.00212738    3.469    0.712
       157 -10.9196    122.5573     58.5597   9.0836611209e+01   4.6462060732e+01    0.3891225    0.3377786  53.56  0.001461133    1.173    0.148
       158 -10.7125    117.5839     56.2150   9.1381868803e+01   4.7908984883e+01     0.463153    0.2273057  54.80  0.001215306    2.184    0.542
       159 -10.0798    159.5543     61.7684   8.3228080106e+01   3.7321291757e+01    0.3702808    0.2265259  35.62  0.001580118    1.966    0.491
       160  -9.0059    146.5276     60.5526   8.5679914644e+01   4.0661521777e+01     0.146043    0.1387301  50.51 0.0001155482    1.005    0.005
       161  -9.4478    228.3778     59.1736   7.1043318165e+01   2.0849960524e+01    0.1996119    0.1137098 -49.29 0.0002863753    1.647    0.393
       162 -10.7618    136.4417     56.1714   8.6656147183e+01   4.3718482791e+01    0.4846899    0.3499686  -1.06  0.001633259    1.822    0.451
       163 -11.1325    145.8735     46.2721   8.1478251784e+01   4.2966583534e+01    0.5148709    0.2920487 -27.40  0.001767039    1.984    0.496
       164 -10.0025    157.4746     56.5314   8.2128694845e+01   3.8651426632e+01    0.2831458     0.226228  -1.52 0.0008059792    1.567    0.362
       165 -10.6327    156.6663     53.3083   8.1345722486e+01   3.9337696468e+01    0.5876777    0.3462801 -57.04   0.00249153    2.183    0.542
       166  -9.6630      2.0032     56.0611   1.3051544187e+02   6.3360189612e+01    0.1680476    0.1239149 -41.55 0.0005142693    1.050    0.047
       167  -9.9542     67.1515     54.9242   1.0628187675e+02   5.7254870438e+01    0.1837982    0.1721508 -34.17 0.0006517914    1.241    0.194
       168 -11.2422    249.0228     53.4887   6.7240861049e+01   1.7017343723e+01    0.3735715    0.2845759  87.66   0.00209903    1.261    0.207
       169 -11.6358    240.0876     50.5357   6.7618996763e+01   1.9446718066e+01    0.3941717    0.3401405  71.53  0.001766048    1.222    0.182
       170 -11.6014    244.5089     50.5012   6.7102238246e+01   1.8457041960e+01    0.3224633    0.2581516 -75.15  0.001679959    1.105    0.095
       171 -10.8845     87.5555     56.7448   1.0021841805e+02   5.3673819566e+01    0.4304753    0.2152659 -35.78  0.001268246    1.959    0.489
       172 -10.9048    113.1069     50.1221   9.0572362916e+01   4.9797769275e+01    0.5749828    0.3148858  30.48  0.002466726    2.196    0.545
       173 -12.7172    117.4769     43.1638   8.7105305879e+01   4.9878415424e+01     1.019302     0.666083  71.77  0.004527734    2.159    0.537
       174 -12.9383    120.1866     38.9147   8.5002949371e+01   4.9867971908e+01    0.7778073    0.6372625 -85.69  0.002534023    1.641    0.391
       175 -10.2184     52.1584     47.7319   1.0914964936e+02   6.0503466588e+01    0.3055056     0.226644 -14.15  0.001503547    1.241    0.194
       176 -10.9258     33.8295     44.0800   1.1483553190e+02   6.3170488622e+01    0.5134667    0.3341014 -15.98  0.002099818    1.495    0.331
       177 -10.3803     31.0342     40.3994   1.1469670734e+02   6.4060063272e+01    0.4113584    0.1363524  32.81  0.001905278    3.327    0.699
       178 -11.9940     46.0382     48.9697   1.1182208472e+02   6.1030534003e+01    0.5298224    0.3310053 -32.03  0.001311848    1.390    0.281
       179 -11.8913     41.8228     45.4470   1.1222228650e+02   6.2104309599e+01    0.3530782    0.3216184  20.30  0.001147893    1.353    0.261
       180  -8.8214     55.2817     51.2901   1.0922272652e+02   5.9505088741e+01     0.124925   0.08455105 -13.97 0.0004209265    1.528    0.346
       181 -10.3353    173.7856     48.2310   7.6623114259e+01   3.5852645216e+01    0.3871642    0.2211754  67.10  0.001356447    1.738    0.425
       182  -9.6226      3.4306     48.8839   1.2818468745e+02   6.4624120851e+01    0.1667214    0.1366983  10.70  0.001292622    1.469    0.319
       183 -10.1499    202.3195     46.9836   7.1701740216e+01   2.8936182186e+01    0.3528967     0.265587 -17.63  0.001816396    1.727    0.421
       184  -9.4067     90.7676     48.2078   9.6318206627e+01   5.4471992878e+01    0.1995827    0.1475341 -78.36 0.0009351025    2.666    0.625
       185 -10.8126     27.5192     47.2945   1.1832890454e+02   6.3204501822e+01    0.3996154    0.2033088  -5.49  0.001953296    2.861    0.650
       186 -10.7875     21.0251     46.9116   1.2074677735e+02   6.3813894574e+01    0.2778437    0.1966378 -48.82 0.0008884475    1.303    0.232
       187  -9.8623     14.1493     46.1866   1.2323784599e+02   6.4451634865e+01    0.2296099    0.1068518 -39.52  0.001315157    1.676    0.403
       188  -8.8734    132.3036     45.3161   8.4197732804e+01   4.6277633932e+01    0.1448491     0.103641  23.24 0.0001920736    1.622    0.383
       189 -11.0827    231.7552     39.4721   6.6109116735e+01   2.2929664878e+01    0.5171283    0.2444463 -58.56  0.002239801    2.275    0.560
       190  -9.3176    139.2762     43.8283   8.2147939829e+01   4.4868314544e+01    0.2864241    0.1417377  48.21  0.001225967    1.862    0.463
       191 -11.4308     95.7497     41.7620   9.2571663084e+01   5.4497994520e+01    0.8051983    0.3664669  54.03  0.003376345    2.604    0.616
       192 -11.1416    156.1314     41.8484   7.8058134733e+01   4.1098832311e+01    0.3424421    0.2989016  42.31 0.0008848892    1.144    0.126
       193 -11.2875     81.6555     39.4571   9.6052767204e+01   5.7387554192e+01     0.485727    0.3314543  43.30  0.001771469    1.503    0.335
       194 -10.9212     77.6282     34.1346   9.5386157151e+01   5.8819885905e+01    0.3502944    0.2363447  34.82  0.001014878    1.400    0.286
       195 -11.4465     82.4509     31.6883   9.2937197039e+01   5.8314651103e+01    0.3642579     0.351323  38.71  0.002041398    1.314    0.239
       196  -9.8734     18.0024     42.0809   1.2045915972e+02   6.4893595588e+01     0.232191    0.1283217  -5.46  0.001346638    2.116    0.527
       197  -9.4069    218.5256     38.5335   6.7463663850e+01   2.6175710056e+01    0.1382267    0.1182458 -81.50 0.0001885726    1.017    0.017
       198 -10.1648    176.7679     37.0049   7.3002265239e+01   3.6643899944e+01    0.2987341    0.2289543 -28.62  0.001357276    1.476    0.322
       199  -9.7783    133.4090     37.3528   8.1389979705e+01   4.7097446632e+01    0.3496607    0.2142597 -65.23  0.001470166    2.729    0.634
       200 -10.9003     22.2924     36.4286   1.1687434817e+02   6.5504333546e+01    0.3772422    0.2164383  39.09  0.002236794    2.469    0.595
       201 -11.1606      4.1253     36.2516   1.2435257406e+02   6.6826272355e+01    0.3271427    0.2018474 -26.89  0.001062562    1.351    0.260
       202  -9.1112      6.8886     30.8401   1.2147703068e+02   6.7565167505e+01    0.3094238    0.1488051  11.93  0.001871901    2.326    0.570
       203  -9.7236    206.8413     36.8908   6.8560615947e+01   2.9220697254e+01    0.2013028    0.1844316  67.67  0.001215566    1.167    0.143
       204 -10.1300    153.2344     36.2035   7.6931457868e+01   4.2543868197e+01    0.2339662    0.2204892 -62.35 0.0003492027    1.142    0.125
       205 -10.0892      3.9520     44.1855   1.2671775137e+02   6.5446908335e+01    0.2824872    0.1429273 -13.22  0.001281757    2.276    0.561
       206 -10.2103    150.4932    237.4937   1.2426034942e+02   3.8183781712e+00    0.1319392    0.1111528  49.45 -2.363065e-05    1.004    0.004
       207 -11.6909    105.7708     32.8078   8.6599720421e+01   5.3715020337e+01     1.024872    0.5427104   7.16  0.003743987    3.829    0.739
       208 -11.6012    115.5159     24.5173   8.1236326202e+01   5.2645253546e+01    0.4711286     0.229711  48.51  0.001409932    1.783    0.439
       209 -11.3071    110.5040     23.4870   8.2093812284e+01   5.3832375489e+01    0.3154814    0.2439089  29.58 0.0009208028    1.201    0.168
       210 -11.2552     69.7356     32.6874   9.7458112207e+01   6.0308578010e+01    0.4276563    0.2762309  33.42 0.0008212611    1.478    0.323
       211 -12.0407    240.9037     30.8394   6.3230414937e+01   2.1997644931e+01    0.4900218    0.3308642 -16.79  0.002532482    2.297    0.565
       212 -10.6284    241.7181     23.0394   6.1494419492e+01   2.2816266529e+01     0.255478    0.1851743 -27.88  0.001086862    1.733    0.423
       213  -9.8348    190.3377     32.2014   6.9644869895e+01   3.3890182277e+01    0.2644857     0.186831 -62.96  0.001383798    1.483    0.326
       214  -9.8840    189.4989     27.5849   6.8565486593e+01   3.4669118568e+01     0.295026    0.2261058  13.84  0.001567895    1.870    0.465
       215  -9.6653    172.4453     33.1439   7.2638885414e+01   3.8209508148e+01    0.2755826    0.1745888  86.14  0.001186359    1.830    0.454
       216  -9.4983    160.8230     33.3083   7.4671610870e+01   4.1056139185e+01    0.2234365    0.1662852  83.06  0.001128613    1.430    0.301
       217  -9.2878     15.4234    233.7328   1.4878903916e+02   2.4449645572e+01    0.1434627   0.08107463 -71.85 0.0009411076    1.656    0.396
       218 -10.9488     56.4076     30.8096   1.0143830194e+02   6.2552082871e+01    0.3570086    0.2177525  30.31  0.001371155    1.599    0.375
       219 -11.8734     47.9586     30.4513   1.0445924547e+02   6.3726080228e+01    0.6486132    0.2660866  28.90  0.002848892    2.609    0.617
       220 -11.6490     26.3597     27.7827   1.1210590815e+02   6.6508563646e+01    0.4486285    0.3516805  24.50  0.002673814    1.509    0.337
       221  -9.0976     23.3140    231.6726   1.4734912739e+02   2.3989519565e+01    0.1207587   0.06073898  70.14 0.0007043437    1.670    0.401
       222  -9.2022    190.3711    229.8097   1.1525942583e+02  -1.9894345963e+00     0.165357     0.121344 -25.73 0.0004606602    1.595    0.373
       223  -9.3881      9.2128    227.3723   1.4942383311e+02   2.6331767188e+01    0.1402492   0.07653478  55.78 0.0002055797    1.530    0.346
       224  -9.7798      9.9647    217.6929   1.4869839720e+02   2.8175168772e+01    0.1554433    0.1102632  76.24  0.000500831    1.061    0.057
       225 -10.8583     14.9386     23.0696   1.1524653641e+02   6.8215452253e+01     0.345707    0.1738354 -37.24  0.002164547    1.556    0.357
       226 -10.3696    197.9174     28.8162   6.7735860348e+01   3.2444904337e+01    0.3843423    0.2151458  52.80  0.001536547    1.794    0.442
       227  -9.9088    199.5379     24.9905   6.6570558040e+01   3.2515213722e+01    0.2340669    0.1776782  73.72 0.0005368008    1.168    0.144
       228  -9.8567    175.8576     29.6243   7.1120729468e+01   3.7797851299e+01    0.2278934    0.1936111 -11.53  0.001306701    1.444    0.307
       229 -11.5840    125.4224     27.2183   7.9859563218e+01   5.0153349972e+01    0.4559796    0.3505446 -69.05  0.001892439    1.761    0.432
       230 -10.2580    121.9808     30.0000   8.1578798630e+01   5.0595860405e+01    0.3935673    0.1886432  59.31  0.001447287    2.081    0.520
       231  -9.7695    100.0841     30.1542   8.7193602619e+01   5.5194398324e+01    0.2128471    0.1589431  21.84  0.001221492    1.300    0.231
       232  -9.3226    159.9907     29.0266   7.3570221808e+01   4.1779696235e+01    0.2093565    0.1842709  60.56 0.0004753894    1.032    0.031
       233 -11.1300    164.2770     27.5117   7.2399754764e+01   4.0907739208e+01    0.3907014    0.2478115  82.68  0.001725893    1.766    0.434
       234  -9.9252    152.6562    207.1798   1.1913354562e+02   9.0336101835e+00     0.216306    0.1786449 -84.81  0.001184676    1.399    0.285
       235  -9.7170    156.7552     24.9974   7.2953464423e+01   4.3035689528e+01    0.2397533    0.1758631  52.22 0.0003942507    1.241    0.194
       236 -11.2014    250.5329     23.9750   6.0876099678e+01   2.0747281163e+01    0.4081954    0.1048545 -36.15  0.001541564    3.556    0.719
       237 -11.2862    182.6636     25.1323   6.8889687205e+01   3.6650096917e+01    0.4499467    0.2405349  54.70  0.001243005    1.730    0.422
       238  -9.9337      4.5375    204.8236   1.4880530182e+02   3.1318498577e+01    0.2089657   0.07997072 -72.52  0.001129009    2.065    0.516
       239 -10.8997    214.7722     23.5872   6.4403383373e+01   2.9000189610e+01    0.3833497    0.2984169 -38.78  0.001642548    1.401    0.286
       240  -9.8505    133.8112     24.5818   7.7185884953e+01   4.8537674050e+01    0.3783305    0.2453681 -70.41  0.001758504    2.406    0.584
       241 -10.9747    140.4154     20.4311   7.4548746542e+01   4.7446735981e+01    0.7454247    0.1765626  48.83  0.002454634    3.586    0.721
       242  -8.7579      1.2878    199.6728   1.4904360833e+02   3.2678732868e+01    0.1167901   0.06124869  73.37 0.0007011964    1.613    0.380
       243  -9.8153    233.5144    196.9944   1.0100374032e+02  -4.3408213860e+00    0.1961628    0.1252949 -34.82 0.0005298321    1.545    0.353
       244  -9.2929     16.7570    192.4068   1.4563405729e+02   3.2770945704e+01    0.1263198    0.1124307  38.69 0.0005271106    1.544    0.353
       245 -12.3678      5.1671    185.0964   1.4728666312e+02   3.5414852732e+01    0.7025841    0.3893527  81.82  0.004315329    1.527    0.345
       246 -10.2845    169.9490    191.1363   1.1258529405e+02   8.8390782498e+00    0.4068456    0.1873048  32.23   0.00145667    2.784    0.641
       247  -9.3347    167.3404    187.6574   1.1248301358e+02   1.0059892721e+01    0.1526182    0.1147757  80.67 0.0007048786    1.776    0.437
       248 -10.7878     38.6362     21.8314   1.0472605990e+02   6.6068269462e+01    0.2259963    0.1467083 -24.54 0.0004597709    1.305    0.234
       249  -9.8145     39.5303    173.5122   1.3909933522e+02   3.4582974365e+01     0.126958    0.1021664 -85.83 5.798811e-05    1.018    0.018
       250  -9.4338    223.2610     22.3980   6.3200827329e+01   2.7134563421e+01    0.1794541    0.1102981  85.06 0.0005465102    1.527    0.345
       251 -10.5997     66.2587     22.0239   9.4493252797e+01   6.2241913608e+01    0.2388238    0.1749514  26.34 0.0003945287    1.223    0.182
       252  -9.4871     34.6247    170.2230   1.3980609992e+02   3.5872598070e+01    0.1816735   0.09323412 -63.26 0.0009514363    1.669    0.401
       253 -11.6231    246.3408     20.7495   6.0591967206e+01   2.2073581798e+01    0.3091792    0.2027881 -60.51  0.001096204    1.324    0.245
       254 -11.9143      9.4984    166.3112   1.4483694218e+02   3.9147813464e+01     0.526149    0.2930253 -63.80  0.003169818    1.537    0.349
       255 -11.3998     13.6116    157.7460   1.4311410102e+02   4.0715723649e+01    0.4332789    0.1747504 -76.26  0.001367356    2.052    0.513
       256  -9.6765    198.0921    167.7133   1.0190561541e+02   7.7136214311e+00    0.2064299    0.1906826  23.13 0.0006371549    1.077    0.072
       257  -9.5422    149.1969    168.4194   1.1272870545e+02   1.7836127836e+01    0.2229626    0.1380285  54.93 0.0009493256    1.691    0.409
       258 -10.1166     18.6356    165.1003   1.4276145720e+02   3.8618750388e+01     0.193788    0.1839267  60.92  0.001326772    1.351    0.260
       259 -10.0782    205.1843    163.3299   9.9521034662e+01   7.0886477662e+00    0.2584187    0.2400738 -31.51 0.0006571595    1.065    0.061
       260  -9.8426    123.1324     19.9092   7.7920614949e+01   5.1468666281e+01    0.2079941    0.1428643 -58.47  0.001071549    2.025    0.506
       261  -9.6891    120.2078     16.4103   7.7377220122e+01   5.2475531036e+01    0.2297424    0.1835632 -11.39 0.0009961701    1.373    0.272
       262  -9.4062      1.7859     20.4312   1.2017725017e+02   6.9543217122e+01    0.1408801    0.0809185  -6.90 0.0009508758    1.704    0.413
       263 -10.0920    220.9266     19.0165   6.2684660371e+01   2.8090750390e+01    0.1946786    0.1643495 -86.12 0.0004215107    1.031    0.030
       264  -9.2715    188.6188    164.2105   1.0312226709e+02   1.0404051922e+01    0.2149932     0.141231 -32.29 0.0007383491    1.681    0.405
       265  -9.2391    170.8002     17.5910   6.8582351828e+01   4.0415692327e+01    0.1745533    0.1163915  79.48 0.0003034131    1.449    0.310
       266  -9.7202     80.2645    160.1610   1.2771368445e+02   3.2355544589e+01    0.2792266    0.1565803  49.95  0.001292301    1.846    0.458
       267  -9.8151      8.9129    155.8861   1.4396689882e+02   4.1518820842e+01     0.181363    0.1328229 -63.88 0.0008850682    1.270    0.213
       268 -10.5283    104.6203    153.5361   1.2047155665e+02   2.9915187354e+01    0.4063704    0.2885097 -64.52  0.001983673    1.383    0.277
       269 -10.2523    186.3644     15.1766   6.5782939880e+01   3.6858218638e+01    0.2524985    0.1901929  66.24 0.0006123167    1.174    0.149
       270  -9.5719    145.8840     16.4935   7.2317604357e+01   4.6560464832e+01    0.2685732    0.1106781  59.46  0.001151761    2.029    0.507
       271  -9.3218      6.0330     16.4820   1.1677017314e+02   6.9862046110e+01    0.1381188   0.08931191   6.82 0.0004333591    1.513    0.339
       272 -10.4366     31.2718    153.7687   1.3862079789e+02   4.0002413561e+01    0.3467607    0.2307552  69.07   0.00203306    1.558    0.358
       273  -9.6963    115.6974     17.0402   7.8603893206e+01   5.3400649075e+01    0.1810964    0.1631073  21.62 0.0008287439    1.091    0.083
       274 -10.7144     30.6090    149.0883   1.3818662408e+02   4.1149680737e+01    0.2781183    0.1999035  75.92 0.0007435126    1.391    0.281
       275 -12.0891     22.7643    149.3937   1.4009291877e+02   4.1814834768e+01    0.5490859    0.3051318 -35.70  0.002759055    2.736    0.634
       276 -11.8074     16.0162    148.1802   1.4153514581e+02   4.2676496382e+01    0.3636911    0.2568094  89.40  0.001893083    1.239    0.193
       277 -12.2772      5.2811    147.3394   1.4391956275e+02   4.3708349274e+01    0.6000847    0.3263623 -58.23  0.003065769    1.610    0.379
       278 -11.4737      2.5004    141.6759   1.4397344807e+02   4.5170233336e+01    0.3509088    0.2805735 -67.01  0.002322755    1.173    0.148
       279 -11.4490      3.9167    136.5631   1.4309129663e+02   4.6212309755e+01    0.2273938    0.1889665 -75.86 0.0005118846    1.112    0.101
       280 -10.8192     62.1437    149.8104   1.3051467269e+02   3.7382664820e+01    0.4357389    0.3208959 -83.98  0.002239814    1.312    0.238
       281  -9.7576     48.0730    151.5243   1.3427482993e+02   3.8717012010e+01    0.3263415    0.1848997  32.41  0.001463877    2.076    0.518
       282 -10.9750     46.7815    146.4727   1.3385301251e+02   4.0053666568e+01    0.5406139    0.2756782 -62.40  0.001675547    1.644    0.392
       283 -10.1195     56.3954    149.1945   1.3186012398e+02   3.8264598867e+01    0.2332453    0.1498693 -73.56 0.0008388262    1.420    0.296
       284  -9.2424     85.6591    149.6823   1.2453111069e+02   3.4014916274e+01    0.1418229      0.11062 -27.02 0.0007049046    1.711    0.416
       285 -10.6477     33.1934    144.3608   1.3693113246e+02   4.1991590105e+01    0.2618683    0.2108145 -88.29 0.0007416318    1.119    0.106
       286  -9.7307    249.5032    140.9992   8.6502473476e+01   2.2558560202e+00    0.2023975    0.1170135 -17.03 0.0008106361    2.583    0.613
       287  -9.7034    133.2236    140.9245   1.1064535267e+02   2.7352748290e+01    0.2905794    0.2155452 -32.50  0.001059918    1.575    0.365
       288 -11.3938     14.2692    133.1120   1.4015317162e+02   4.6235620953e+01    0.3147807    0.2029296 -67.94  0.001409443    1.204    0.170
       289 -11.3239     14.7547    139.9962   1.4088104233e+02   4.4636916863e+01    0.2374532    0.2170602   2.94  0.001743258    1.495    0.331
       290 -11.8556     29.8684    132.8762   1.3615223054e+02   4.4970119010e+01    0.6361774    0.3368577 -78.66  0.000500127    1.840    0.456
       291  -9.6994     26.2406    140.0132   1.3806693591e+02   4.3656221026e+01    0.2248123    0.1309337 -56.78 0.0006107616    1.493    0.330
       292 -12.0308     22.5754    135.6248   1.3839752177e+02   4.4987779938e+01     0.559662    0.3946239  56.66  0.003508087    1.582    0.368
       293 -10.6027     81.6612    135.2614   1.2281088864e+02   3.8071489148e+01    0.4622804    0.3213259 -17.54  0.002067754    2.300    0.565
       294 -10.3461     47.4733    134.7691   1.3184280757e+02   4.2727274999e+01    0.3491529    0.1513662 -59.74  0.001246322    1.902    0.474
       295 -10.4841     71.9783    133.6906   1.2510374765e+02   3.9873153036e+01    0.4382832    0.2923407   4.85  0.001982713    2.536    0.606
       296 -10.2621     92.8003    128.9860   1.1849383080e+02   3.7766617263e+01    0.3263034    0.2645576  76.84  0.001432537    1.400    0.286
       297 -10.8924     10.8120    127.1678   1.4026773813e+02   4.7833963236e+01     0.440028    0.1420192 -54.85  0.001551508    2.426    0.588
       298  -9.7241     78.6898    128.1019   1.2216029168e+02   4.0215436573e+01     0.204219    0.1614913 -56.20 0.0003817739    1.151    0.132
       299  -9.6498      1.8174    125.3336   1.4231743559e+02   4.8848998729e+01    0.2803886    0.1388897 -74.67  0.001580951    1.589    0.370
       300 -10.1186      4.2646    121.9605   1.4128203552e+02   4.9441841855e+01    0.2804446    0.1903752  74.79  0.001800967    1.608    0.378
       301 -11.0882     55.8866    123.3208   1.2753028760e+02   4.4427759789e+01    0.5748047    0.3246506  29.15  0.002765907    2.108    0.526
