#   1 NUMBER                 Running object number                                     
#   2 MAG_AUTO               Kron-like elliptical aperture magnitude                    [mag]
#   3 X_IMAGE                Object position along x                                    [pixel]
#   4 Y_IMAGE                Object position along y                                    [pixel]
#   5 X_WORLD                Barycenter position along world x axis                     [deg]
#   6 Y_WORLD                Barycenter position along world y axis                     [deg]
#   7 A_WORLD                Profile RMS along major axis (world units)                 [deg]
#   8 B_WORLD                Profile RMS along minor axis (world units)                 [deg]
#   9 THETA_WORLD            Position angle (CCW/world-x)                               [deg]
#  10 FWHM_WORLD             FWHM assuming a gaussian core                              [deg]
#  11 ELONGATION             A_IMAGE/B_IMAGE                                           
#  12 ELLIPTICITY            1 - B_IMAGE/A_IMAGE                                       
         1 -12.4218    241.6255     23.4675   2.8423331413e+01   2.4523612776e+01    0.9968686    0.8653653  11.66 0.0007071153    2.073    0.518
         2 -13.7211    220.5859     39.2213   3.3254544242e+01   2.6688263759e+01     2.971811     1.371562 -58.85  0.007318198    2.116    0.527
         3 -14.7486    214.3254     80.9455   4.2914281007e+01   2.1868479978e+01     4.402555     2.838493  82.57   0.02259625    1.887    0.470
         4 -15.6630    244.0603     84.8806   4.0028933168e+01   1.5560088154e+01     7.918527       4.2846 -38.16   0.02527845    1.676    0.403
         5 -13.0050    250.0617     33.8698   2.9710176310e+01   2.1697250028e+01    0.9537506    0.5086222 -36.22  0.003192657    1.926    0.481
         6 -12.4355    247.3682      5.5931   2.4857875010e+01   2.5471112239e+01     1.543784    0.5462199 -44.57  0.008678735    2.176    0.540
         7 -11.4688    122.2021     37.1123   4.7121375032e+01   4.9212159664e+01    0.4935663     0.355559 -28.03  0.002104963    1.565    0.361
         8 -10.3848    179.2095     24.0048   3.4251349182e+01   3.7456166309e+01    0.5687607    0.3595583  75.79  0.003248552    1.408    0.290
         9 -12.0106    136.8849     13.6571   3.7188402602e+01   4.8300185180e+01     1.053869    0.4728096  89.50  0.003831609    3.883    0.742
        10  -9.0659    189.8054     14.6737   3.0952646971e+01   3.6106436629e+01    0.2254907    0.1619869 -64.94 0.0008600624    1.254    0.203
        11 -11.0317    156.5753     10.7468   3.3647950895e+01   4.3996790172e+01    0.3806366    0.2886711  -9.03  0.001843897    1.809    0.447
        12 -13.9194    177.7967     82.8071   4.9065735721e+01   2.9384733633e+01     2.129577     1.652915  27.62  0.002584234    1.700    0.412
        13  -8.2506     68.6137     11.7692   5.1969156707e+01   6.3560600120e+01    0.1452249    0.1139422 -27.67 0.0003972564    1.503    0.335
        14 -10.0352    220.0176     10.7779   2.7583373406e+01   3.0161019834e+01    0.1905206    0.1450817 -88.33 0.0003948967    1.126    0.112
        15 -10.5110    127.3992      9.3256   3.7402014230e+01   5.0891682279e+01    0.3659584    0.2124485 -18.10  0.001519804    2.188    0.543
        16  -8.9169    208.6346      6.9441   2.7672449723e+01   3.2886424897e+01    0.1840019    0.1358174 -18.81 0.0009579192    1.986    0.496
        17 -10.5323    227.5322      6.3384   2.6209286195e+01   2.9140946534e+01    0.2254577    0.1785405  86.45   0.00102542    1.226    0.185
        18  -9.8108    180.9967      3.0859   2.9157672807e+01   3.9185658266e+01    0.3644292    0.1728819 -67.98  0.001818359    2.287    0.563
        19 -11.0593    143.5035     18.4987   3.7566060978e+01   4.6288852169e+01    0.4586454    0.1716867  67.58  0.001940051    2.354    0.575
        20 -10.1267    250.0137    248.7510   7.0069777851e+01  -1.2022247930e+01    0.2696398    0.1690023 -36.63  0.001746935    1.645    0.392
        21  -9.8790    210.8291    188.1605   6.6409207212e+01   2.6707480986e+00    0.2024964     0.186678 -44.52  0.001231561    1.311    0.237
        22  -8.3908     23.1294    185.2939   1.1277188183e+02   3.1913259693e+01    0.1716315    0.1540278  68.57 0.0003654728    1.098    0.089
        23  -8.4148    230.4705    182.4900   6.1665761543e+01   7.8910203904e-01    0.1348061    0.1090235 -23.36 -3.260681e-05    1.013    0.013
        24 -10.0585    235.0592    179.3283   6.0254609403e+01   6.9080567434e-01    0.2320535    0.2302141  -7.24 0.0003797486    1.367    0.269
        25  -8.6271    209.3071    180.2943   6.5148501136e+01   4.3873060856e+00    0.1412143    0.0986423 -10.56 0.0002365003    1.584    0.369
        26 -12.3971    158.6685     92.7534   5.5383058992e+01   3.1898737939e+01     1.386475    0.7192699 -48.87 0.0009863381    1.984    0.496
        27 -10.6683    217.9554    186.9215   6.4806977988e+01   1.8241198763e+00    0.4045561    0.3206986 -61.66  0.002240594    1.778    0.438
        28 -13.1511    197.6964     87.7149   4.6901094588e+01   2.4188853688e+01     2.465659    0.8183259  43.00  0.007310434    5.169    0.807
        29  -9.2116    179.0399    246.1688   8.3298223538e+01  -3.1094253606e+00    0.2605245    0.2337644 -79.66  0.001623877    1.809    0.447
        30  -8.6811    212.1453    165.9655   6.1700040249e+01   6.6658735758e+00    0.1989281    0.1782895 -56.23 0.0005271111    1.308    0.235
        31 -11.6562    193.6749    156.7571   6.3358935143e+01   1.1684631271e+01    0.9161694    0.5769109 -71.76 0.0007992593    3.232    0.691
        32 -10.2477    168.1846    157.5362   6.9025872545e+01   1.6275393565e+01    0.2896107    0.2422332 -44.82 0.0002542984    1.162    0.140
        33 -11.6741     18.1204    154.7298   1.1096670691e+02   4.0234383895e+01    0.6873103    0.4171278  79.93  0.003334399    1.791    0.442
        34 -10.2479    199.9682    240.3921   7.8052927047e+01  -4.9583181439e+00    0.2137658    0.1701653 -22.56 0.0001992985    1.199    0.166
        35 -12.1730     65.0887    139.5845   9.3978947217e+01   3.9184606269e+01     1.948487     1.423173  54.79  0.009121774    1.580    0.367
        36 -12.3038     34.8444    146.6992   1.0486340568e+02   4.0860927311e+01    0.6883147     0.572401   6.55  0.001167802    1.398    0.284
        37 -12.7468     42.5283    143.7163   1.0197973619e+02   4.0860215594e+01     1.409076      1.00354  37.97  0.002877074    1.512    0.339
        38 -12.1616     49.6268    142.1141   9.9438462686e+01   4.0486710855e+01    0.8371905    0.5173915 -75.11  0.002125022    1.708    0.414
        39  -8.3077    111.9439    152.3125   8.2348475086e+01   2.8257868886e+01    0.2183891    0.1998116  31.77 0.0003905483    1.110    0.099
        40 -10.3645    134.0645    145.4689   7.4709632061e+01   2.5721753530e+01     1.296939    0.3898042 -55.64   0.00311302    5.078    0.803
        41 -14.0681    246.0025     64.9451   3.5907808600e+01   1.8228882472e+01     1.922362    0.3265002  53.99  0.005852106    7.466    0.866
        42  -9.8216    145.1607    146.8621   7.2156690030e+01   2.3193424772e+01    0.3740789    0.2412577 -47.39  0.001603245    1.511    0.338
        43 -13.0169    250.0269     58.4905   3.4288223258e+01   1.8425281790e+01    0.5553849     0.258729 -46.88  0.000755789    1.699    0.411
        44  -9.5275    158.7184    143.3218   6.8010801761e+01   2.1284691610e+01    0.3467931    0.2571101  58.77  0.001580137    1.619    0.382
        45  -9.3113    213.6338    142.4360   5.6488921595e+01   1.0929142686e+01    0.3478079    0.2339592  89.21  0.001426498    3.139    0.681
        46 -10.9400    208.0004    137.3194   5.6389745956e+01   1.2931570633e+01    0.4663091    0.3094313 -51.49  0.001742731    1.481    0.325
        47  -9.6987    150.9891    137.5018   6.8503808318e+01   2.4163470593e+01    0.4363917    0.3017347 -77.13  0.001352412    2.279    0.561
        48 -10.7689    157.0870    137.0847   6.6930871501e+01   2.3007190603e+01    0.5994822     0.350816  51.46  0.002388018    1.933    0.483
        49  -9.1174    175.5199    177.5228   7.1625673040e+01   1.0612458628e+01    0.3093738    0.2327041  86.54  0.000822132    2.370    0.578
        50  -9.8105    166.1978    134.1701   6.4124917017e+01   2.1776274076e+01    0.2730736    0.1802416 -47.49 0.0007175736    1.462    0.316
        51 -12.5340      3.9649    158.3277   1.1536277799e+02   4.0341786753e+01    0.9731706    0.4574116 -74.73  0.004596244    1.764    0.433
        52 -11.2108    203.5320    131.9263   5.6012406382e+01   1.4813285789e+01    0.4428017    0.3284889  67.02   0.00161388    1.745    0.427
        53  -9.5128    136.0000    129.9131   7.0469068412e+01   2.8987330277e+01    0.6059268    0.1399299 -46.31   0.00154444    4.204    0.762
        54  -9.5621    135.0165    120.2921   6.8301286670e+01   3.1387591248e+01    0.8140256    0.2044915 -48.77  0.002094161    4.267    0.766
        55  -9.5603    134.7092    111.5736   6.6105441047e+01   3.3385332970e+01    0.4917023    0.2190691 -44.96  0.001762936    2.214    0.548
        56 -11.5303    134.9153    102.2283   6.3535308617e+01   3.5334972392e+01     1.320903    0.5951247 -52.29  0.002121556    2.604    0.616
        57 -10.8661    225.2849    129.4153   5.1767925186e+01   1.1304726881e+01    0.4216955    0.3190086 -62.30  0.002340404    1.459    0.315
        58 -10.9744    161.0581    127.9817   6.3810247500e+01   2.4181064009e+01    0.5221575    0.3555785 -46.72  0.001827983    1.417    0.294
        59 -10.1501    209.1218    127.5025   5.4040712592e+01   1.4607583784e+01    0.3831306     0.267353 -54.98  0.001635014    1.447    0.309
        60  -7.6042    118.3172    127.2734   7.4668370088e+01   3.3201047731e+01     0.159432     0.125353  -5.52 0.0002217896    1.565    0.361
        61  -9.6479    172.9871    126.0120   6.0683521692e+01   2.2105722607e+01     0.243396    0.1891669  -3.22  0.001055236    1.680    0.405
        62  -8.6969    250.7023    171.5244   5.6187782139e+01  -1.3964997129e-01    0.2229334   0.09373482 -40.63 0.0005255251    1.916    0.478
        63  -9.5283    214.9485    124.5135   5.2397193629e+01   1.4080022555e+01    0.1890024    0.1793963 -48.83 0.0007605503    1.092    0.084
        64  -8.9658    214.4642    121.0508   5.1722788756e+01   1.4814347413e+01    0.2784363    0.1540435 -42.33 0.0004369758    1.576    0.366
        65  -9.1324    216.9989    117.7100   5.0584049043e+01   1.4953705377e+01    0.2275823    0.2026864 -31.36 0.0004739855    1.137    0.121
        66  -8.1978     92.9234    125.5421   8.1900281443e+01   3.8416463652e+01    0.2247927    0.1565192  31.66 0.0009920042    1.488    0.328
        67 -10.2194    169.3801    122.1653   6.0532942575e+01   2.3664223421e+01    0.4436389    0.2239053  49.16  0.001749886    2.117    0.528
        68  -9.1380    166.6921    240.0174   8.4964218260e+01  -3.2125163835e-01    0.2210519    0.1665492  22.87 0.0004480846    1.169    0.144
        69 -10.3933    162.2119    119.8693   6.1554551148e+01   2.5669195500e+01    0.3510008    0.2235851  63.55  0.001448852    2.042    0.510
        70  -8.4754     61.9483    118.3699   9.0531277935e+01   4.5119181260e+01    0.1997399     0.183521   2.88 0.0003142534    1.128    0.113
        71 -11.8746    204.2542    111.6423   5.1334043816e+01   1.8539180471e+01    0.7935939    0.5529204 -10.95  0.003494115    2.212    0.548
        72 -11.2145    167.8192    114.1198   5.8892655891e+01   2.5657849039e+01    0.6507623    0.4471272 -30.73  0.002964435    1.577    0.366
        73  -9.9050    175.8325    112.2176   5.6748399690e+01   2.4319688493e+01    0.5505688    0.4382366 -11.02  0.001924925    1.582    0.368
        74  -8.6290    194.6050    171.2918   6.6245482912e+01   8.5743535547e+00    0.1392631    0.1168638  85.86 0.0007003763    1.785    0.440
        75  -8.8819    108.9968    109.7486   7.2838594838e+01   3.9162107530e+01    0.2181032    0.2037649  24.64 0.0003871669    1.073    0.068
        76 -11.9942    123.4187    102.3247   6.6629790678e+01   3.7811747303e+01     1.211334      1.02725 -72.50  0.005107736    1.388    0.280
        77 -11.0657    113.4117    104.6928   7.0139373431e+01   3.9401572622e+01    0.6583439    0.4811102 -50.19  0.003038454    1.402    0.287
        78  -9.9068    174.8429    104.4120   5.5025349516e+01   2.6066445070e+01    0.3403956    0.2267364 -50.72 0.0005863628    1.475    0.322
        79  -9.6516    149.4037    105.1020   6.0733787951e+01   3.1538893220e+01    0.3305627    0.2788444  13.94   0.00064555    1.403    0.287
        80  -8.5396     77.8677    104.8606   8.1602176306e+01   4.6029721344e+01    0.2240897    0.2106031 -88.37 0.0006044867    1.247    0.198
        81 -10.2897     80.8367    101.2483   7.9590045603e+01   4.6376065226e+01    0.2524306    0.2282698 -29.05 0.0002331801    1.050    0.047
        82  -8.9417    210.6208    109.7920   4.9867193559e+01   1.7622369327e+01     0.230512    0.1635611 -71.77 0.0005541102    1.725    0.420
        83  -8.9655    168.4043    235.2118   8.3823209604e+01   2.9388538520e-01    0.2268046     0.165772  22.10 0.0004075599    1.220    0.180
        84  -8.6991    169.1004    230.8716   8.2961035335e+01   9.8380204166e-01    0.1907027    0.1716892  29.89 0.0002785821    1.238    0.193
        85  -9.7529    196.8191     96.7580   4.9158914267e+01   2.2783544303e+01    0.3004116    0.1780776 -49.99   0.00140784    1.590    0.371
        86 -11.0317    143.2130     95.0114   5.9495132685e+01   3.4954122648e+01    0.6312045    0.4055219 -40.13  0.001150525    1.562    0.360
        87  -7.9178    143.2938    107.3576   6.2805366882e+01   3.2418877264e+01    0.1592364    0.1236172  -4.42 0.0005181811    1.694    0.410
        88  -8.8777    129.4122     82.1736   5.9274332206e+01   4.0536289168e+01    0.2962469    0.1973939  66.98  0.000997271    1.862    0.463
        89 -10.1198    151.0609     71.5279   5.1232106027e+01   3.7438507106e+01    0.2574342    0.2161509 -47.95  0.000156367    1.207    0.172
        90  -9.1965    237.1677    172.8666   5.8641523516e+01   1.5257204099e+00    0.1948203    0.1662712 -44.16 0.0006791803    1.271    0.213
        91 -10.1525    125.9829     63.9803   5.4680378297e+01   4.4497520933e+01    0.3385301    0.2070306 -37.33   0.00114001    1.720    0.419
        92 -12.7706    230.2229     76.3642   3.9910996105e+01   1.9459517997e+01    0.5827545     0.481568  50.69  0.001653763    1.515    0.340
        93 -10.0481    176.7929     49.1111   4.0747209649e+01   3.4873144116e+01    0.4469966    0.2150289 -51.64  0.001989622    2.179    0.541
        94  -9.4433    146.5090     55.0564   4.7506834964e+01   4.1090456538e+01    0.2873076    0.1901589  74.17  0.001076933    1.650    0.394
        95  -9.0690    187.6513     53.8564   4.0359543157e+01   3.1747647429e+01    0.2042867    0.1698178  64.13 0.0003785321    1.228    0.186
        96  -9.9980    192.5705     53.7408   3.9660005234e+01   3.0670326915e+01    0.2641372    0.2188637 -84.90 0.0006078898    1.105    0.095
        97  -8.2389    192.6600     46.7652   3.8011043229e+01   3.1621012915e+01    0.1769748    0.1055872 -47.77 0.0004334298    1.573    0.364
        98  -9.4063    116.0325     46.3897   5.1552692530e+01   4.9419667628e+01    0.2152427    0.1873531  -5.25 0.0003671033    1.282    0.220
        99 -10.4543    206.0001     44.2159   3.5838687550e+01   2.9067479646e+01    0.3342441    0.2621847 -62.79 0.0009039929    1.113    0.101
       100  -9.1178      3.6575     46.6725   9.6470087740e+01   6.7127698499e+01     0.136711   0.06721346 -29.99 0.0007051143    1.741    0.426
       101 -10.1080    195.6942     39.4817   3.5956300702e+01   3.1916175084e+01     0.351926    0.2032747 -31.06  0.001148032    1.983    0.496
       102 -10.5970    192.2562     38.5244   3.6141671200e+01   3.2795771349e+01    0.3376814    0.2948003 -43.49  0.001094794    1.269    0.212
       103 -10.0390    188.7549     35.4317   3.5838320417e+01   3.3962703868e+01    0.3453788    0.2275667  71.12  0.001260491    1.401    0.286
       104 -13.5420    240.2124     52.2228   3.3994073175e+01   2.1104297454e+01    0.8598173    0.5949899 -70.69  0.002395057    1.279    0.218
       105 -10.2049    136.3638    223.6222   8.9225617816e+01   7.3798371233e+00    0.2553069    0.2398099 -35.89 0.0004607509    1.153    0.132
       106  -9.6688    167.1896     33.5677   3.8175414669e+01   3.9098891537e+01    0.4073248    0.2531087 -18.16  0.002046752    2.264    0.558
       107 -10.7703    159.5336     32.2273   3.8931524205e+01   4.1040351006e+01    0.4549878    0.2526947 -21.34  0.002001816    2.431    0.589
       108 -10.9953    133.6964     31.7725   4.3127328789e+01   4.7164920317e+01    0.2799457    0.2443081 -27.57  0.001138835    1.311    0.237
       109 -11.2675    145.2016     29.3932   4.0398014066e+01   4.4731116046e+01    0.4233533    0.2789309  -4.47  0.002127605    2.304    0.566
       110  -8.4071    111.3194     31.2955   4.7666232246e+01   5.2407401623e+01    0.1382686   0.09168752  33.02 0.0003328321    1.612    0.380
       111  -9.0575     97.6618     26.3641   4.9300836957e+01   5.6017572057e+01    0.3160562    0.1621224 -19.08  0.001464292    2.445    0.591
       112  -9.9377    239.1131    217.8303   6.6701152959e+01  -6.2829682310e+00    0.2412677    0.1906281  34.18  0.001013243    1.652    0.395
       113  -8.6347    200.8947     36.8248   3.4767342035e+01   3.1123913200e+01    0.1719742    0.1551372  78.53 0.0005213585    1.208    0.172
       114  -8.3635     88.0112    217.2098   9.9984661709e+01   1.6138842254e+01     0.185413    0.1697236  41.63 0.0002093787    1.038    0.037
       115  -8.0431    171.6760     20.1795   3.4207450647e+01   3.9585008701e+01    0.1437054    0.1180768 -21.57  0.000291633    1.550    0.355
       116  -8.8311      3.3481     22.3000   8.7915867245e+01   7.1550512483e+01    0.1258603   0.06665649 -18.97 0.0007037492    1.686    0.407
       117  -8.3116     78.5611     19.0254   5.1859007665e+01   6.0852849416e+01    0.1727422    0.1228671 -20.40  0.001012611    1.560    0.359
       118  -9.1460    127.1658     17.7870   4.0043766886e+01   5.0175661068e+01    0.1697243    0.1347797  38.67 0.0004278192    1.319    0.242
       119  -8.3356    161.0079     17.2557   3.4785707554e+01   4.2339616755e+01     0.173711    0.1370133  75.12  0.000235829    1.087    0.080
       120  -8.7926     37.6457    213.7560   1.1182056790e+02   2.3431878667e+01    0.2379167    0.1559015  88.37  0.001276841    1.487    0.328
       121  -7.9042     25.3175    214.0504   1.1471450770e+02   2.4672004745e+01    0.2159677   0.05485503 -54.37 0.0005269605    4.469    0.776
       122  -8.4704    159.2680    210.2091   8.1624441820e+01   6.5122271164e+00    0.1715657    0.1614535  46.71 0.0003084204    1.255    0.203
       123  -9.1679    242.0764    207.2669   6.4283050755e+01  -4.9605668878e+00    0.1983352    0.1724845  33.12  0.001091696    1.567    0.362
       124  -7.6143    221.4716    205.4765   6.7676515464e+01  -1.9773558203e+00    0.1314429    0.1092811 -16.81 0.0001415452    1.059    0.056
       125  -9.3090    249.4181    201.7832   6.2036851309e+01  -4.9798613849e+00    0.2684469    0.2304628  60.88  0.001719096    2.086    0.521
       126  -9.8399    243.3407    200.3524   6.2801640652e+01  -3.9942540926e+00    0.3069233      0.25085  51.88  0.001916285    1.966    0.491
       127  -9.9141     20.4664    201.0562   1.1481413529e+02   2.8255786920e+01    0.2978984    0.2040336  78.56 0.0004072309    1.337    0.252
       128 -10.7377    192.3854    193.5601   7.1186318392e+01   4.5212493314e+00    0.9263383      0.50992 -64.22  0.003062777    4.504    0.778
