#   1 NUMBER                 Running object number                                     
#   2 MAG_AUTO               Kron-like elliptical aperture magnitude                    [mag]
#   3 X_IMAGE                Object position along x                                    [pixel]
#   4 Y_IMAGE                Object position along y                                    [pixel]
#   5 X_WORLD                Barycenter position along world x axis                     [deg]
#   6 Y_WORLD                Barycenter position along world y axis                     [deg]
#   7 A_WORLD                Profile RMS along major axis (world units)                 [deg]
#   8 B_WORLD                Profile RMS along minor axis (world units)                 [deg]
#   9 THETA_WORLD            Position angle (CCW/world-x)                               [deg]
#  10 FWHM_WORLD             FWHM assuming a gaussian core                              [deg]
#  11 ELONGATION             A_IMAGE/B_IMAGE                                           
#  12 ELLIPTICITY            1 - B_IMAGE/A_IMAGE                                       
         1 -12.3637     21.2520     17.0440   6.7273439086e+01   6.8234851841e+01    0.3144394    0.2284442  18.03  0.002247086    1.525    0.344
         2 -12.1388    112.6930     13.6379   3.4253170375e+01   5.4255883464e+01     0.514797    0.3026082  24.59  0.002456885    1.893    0.472
         3 -11.1194    114.4878      9.0546   3.2058745444e+01   5.4336651757e+01    0.2572496    0.2020001   7.00 0.0007073398    1.265    0.209
         4 -12.3943    145.1197      2.6396   2.3614243341e+01   4.7746760047e+01    0.6160553    0.3867084 -74.65   0.00245264    2.301    0.565
         5 -13.2293    183.2719     13.8556   2.1298830018e+01   3.7067952647e+01    0.7043312    0.4868347  67.91  0.003380198    1.338    0.253
         6 -14.2311    159.5847      6.7640   2.2614438440e+01   4.3782197399e+01      1.55981     1.031229 -86.75  0.007602762    1.848    0.459
         7 -14.6266    176.0022      4.7284   1.9594814215e+01   3.9825022036e+01     2.805768    0.9442813  68.91   0.01029509    2.767    0.639
         8 -10.9325     45.0588     12.0523   5.5086480609e+01   6.6411110821e+01    0.2103648    0.1787984  -2.03 0.0006428728    1.160    0.138
         9 -10.7979     34.8396     13.8272   6.0069201401e+01   6.7382394173e+01    0.2150953     0.143731 -35.69 0.0006037882    1.332    0.249
        10 -11.4355     32.4507     10.5151   5.9644084803e+01   6.8130338103e+01    0.2394191    0.1418692 -39.05 0.0008034982    1.551    0.355
        11 -12.7311    123.2514      7.3860   2.9478581158e+01   5.2519308698e+01    0.6032503    0.3832681  31.20 0.0009102429    1.564    0.361
        12 -12.2383     27.2632     11.3565   6.2270679719e+01   6.8552094107e+01     0.338137    0.2011099 -44.25   0.00111165    1.680    0.405
        13 -11.9145     23.2141      5.5109   6.1498561318e+01   6.9809210430e+01    0.2782638    0.1816502 -33.28 0.0003752416    1.278    0.217
        14 -10.9987    200.9588     11.3486   1.8317698406e+01   3.2840499184e+01    0.1982323    0.1626725  73.18 0.0004879904    1.125    0.111
        15 -11.9172     56.2922      9.3682   4.9540882249e+01   6.5213581840e+01    0.3581547    0.2581674  12.41  0.001139266    1.263    0.208
        16  -9.9173     69.5480      9.6481   4.4971144231e+01   6.3091011758e+01    0.2175056    0.1098853 -22.66 0.0008607412    1.907    0.476
        17 -10.1293    213.5106      8.9122   1.6257584610e+01   2.9959397114e+01    0.1916566    0.1651452  82.98 0.0003512037    1.064    0.060
        18 -11.2854     98.4304      8.2718   3.5723815109e+01   5.7847618788e+01    0.3476699    0.2132616 -46.02  0.001735608    2.212    0.548
        19 -12.1362     86.3490      7.2479   3.8648218107e+01   6.0348568750e+01    0.4396664    0.2263513  34.28  0.001557547    1.869    0.465
        20 -11.8547      3.3090      8.6157   7.2210742234e+01   7.0951200345e+01    0.2199161    0.1809461 -13.88 0.0007999791    1.239    0.193
        21  -9.4868     78.3100      8.2734   4.1519788899e+01   6.1728308356e+01    0.1289199   0.08289863  17.76 0.0002150302    1.551    0.355
        22  -9.4438    242.7028      5.6990   1.2698018422e+01   2.3303301899e+01    0.1198804   0.09508129  40.27 0.0002205725    1.578    0.366
        23 -12.0544    128.3924     14.2098   3.0898218432e+01   5.0641100575e+01    0.4704151     0.163068  49.67  0.001695479    2.457    0.593
        24 -12.2870    134.8612      4.1924   2.5990147830e+01   5.0091438678e+01    0.3073285      0.29006  39.82 0.0005834029    1.070    0.065
        25 -11.7854    131.3152      3.6861   2.6484252274e+01   5.0979975059e+01    0.2722301    0.2128983 -32.20 0.0007528921    1.417    0.294
        26 -11.9204     16.7938      4.6580   6.4094680583e+01   7.0531619785e+01    0.2870215    0.1680686 -16.81  0.001857655    1.559    0.359
        27 -11.8091    114.1372      1.9906   2.9399957749e+01   5.5081971624e+01     0.470909      0.19763  58.79  0.001480073    2.196    0.545
        28 -11.6513     38.5373      2.5425   5.3375684420e+01   6.8499632993e+01    0.2826503    0.2045805  27.76  0.001256823    1.451    0.311
        29 -11.0832     49.3777     14.3463   5.4391304966e+01   6.5525662933e+01    0.2653245     0.184795 -15.97 0.0006139383    1.231    0.188
        30 -10.7356      4.7094      1.9907   6.8781653557e+01   7.1889601433e+01    0.1528254    0.1027298 -30.95 0.0004500865    1.078    0.072
        31  -9.7479     15.4886    173.5488   9.7744618126e+01   3.6664121125e+01    0.1096968   0.08260752  86.37 0.0002748997    1.014    0.014
        32  -9.8912     64.9099    250.5249   9.4896927328e+01   1.7067617940e+01    0.1552597   0.08208822  45.89  0.001023766    1.577    0.366
        33 -11.5738     46.2313    242.2653   9.7258731652e+01   2.0693560812e+01    0.5012354    0.2250126  73.44  0.002948375    2.227    0.551
        34 -11.1918     49.2975    249.6089   9.7250828362e+01   1.9136485402e+01    0.3182158    0.1663711  66.07  0.001342064    1.528    0.345
        35 -10.9004     52.7616    246.7375   9.6532748393e+01   1.9182475731e+01    0.2294523    0.1552085  45.76  0.001117524    1.465    0.318
        36 -15.4096     28.3530    189.3087   9.6551727996e+01   3.2285917024e+01     1.798349     1.009321  68.48   0.01148462    1.566    0.361
        37 -10.3662     44.1913    167.7647   9.1490254382e+01   3.4966064746e+01     0.152474    0.1258163 -64.39 0.0007840436    1.318    0.241
        38 -13.5110     27.3594    162.4099   9.4436752581e+01   3.7842132449e+01    0.7046796    0.3413807  29.14  0.003894162    2.643    0.622
        39 -10.3762     71.5235    159.4819   8.4587118760e+01   3.3354763192e+01    0.1268246    0.1096304  88.94  9.56621e-05    1.011    0.011
        40 -10.6837     62.9652    155.5166   8.5960670054e+01   3.5337536145e+01    0.1730035    0.1202789  40.45 0.0004675678    1.550    0.355
        41 -10.5927     53.5118    155.4536   8.8065496762e+01   3.6514199397e+01    0.1225748     0.102595 -88.48 4.248026e-05    1.010    0.010
        42  -9.6611      7.9346    151.0000   9.7432084083e+01   4.1926654495e+01    0.1529812   0.06151517  29.04 0.0004486708    3.043    0.671
        43 -10.8351      5.1133    139.3978   9.7017772237e+01   4.4570305296e+01    0.2267742    0.1498463 -89.63  0.001567489    1.216    0.177
        44 -15.3738     31.6580    236.4764   9.9167934456e+01   2.3317125901e+01     1.845425     1.219927  56.33    0.0144811    1.242    0.195
        45 -10.7075     46.6260    131.1689   8.6390392745e+01   4.2624378368e+01    0.1877829    0.1525342  67.36 0.0003848227    1.257    0.205
        46  -9.9951     58.0000    130.0027   8.3391318945e+01   4.1577270107e+01    0.2164013   0.06413111 -62.33 0.0006338249    2.964    0.663
        47  -9.6301     25.3262    129.6455   9.1360559436e+01   4.5048374416e+01    0.1241607   0.07546588  75.39 0.0007046384    1.770    0.435
        48 -13.2687    249.1383    114.5283   3.7856963873e+01   6.9822277891e+00    0.8425918    0.2786284 -28.53  0.002808612    3.357    0.702
        49 -10.7811      5.9890    121.9380   9.5101335471e+01   4.8218150387e+01    0.1666304    0.1288342 -82.69 0.0003716063    1.045    0.043
        50  -9.2499     20.6926    117.6868   9.0987762479e+01   4.8047651862e+01    0.1165297   0.07383844 -47.97 0.0005556697    1.624    0.384
        51  -9.6071    152.6983    114.2398   5.6382055333e+01   2.8568953001e+01    0.1443078    0.1188902  83.00 0.0003116616    1.484    0.326
        52  -9.3481     91.6764    116.6365   7.2191058315e+01   3.9839783942e+01      0.14355    0.1062425 -23.85  0.000704041    1.787    0.440
        53 -10.3350     79.2107    111.5664   7.4435124220e+01   4.2874734157e+01    0.2366412    0.1705912 -53.45  0.000469175    1.264    0.209
        54 -10.2814      2.6195    111.6351   9.4790200852e+01   5.0641563287e+01     0.185568    0.1354577 -86.15 0.0005091831    1.161    0.138
        55 -10.0715     44.4508    103.5486   8.2442510227e+01   4.8992192691e+01     0.125584    0.1046572 -60.69 8.242787e-05    1.034    0.033
        56 -12.2737    246.6695    101.6744   3.5222508240e+01   9.4674476033e+00    0.2656936    0.1705893 -28.80  0.001150023    1.473    0.321
        57 -11.6253      3.7613     96.3931   9.2613618507e+01   5.3829704545e+01    0.2515874    0.2088006 -44.19 0.0008338097    1.323    0.244
        58 -12.8562    248.2829     92.9671   3.2913036200e+01   1.0450414688e+01    0.7152421    0.2700588 -48.40  0.002431481    3.376    0.704
        59 -12.3628    249.4150     85.0296   3.0856311835e+01   1.1399647849e+01    0.6750387    0.1292337 -31.86  0.001786694    5.103    0.804
        60  -9.8664     64.0214     96.5216   7.5426656810e+01   4.8280325525e+01    0.1826427    0.1318608  33.68  0.001027657    1.577    0.366
        61 -10.3366     51.2189     95.9955   7.9035934529e+01   4.9929178028e+01     0.175254   0.09042109 -58.93 0.0003158012    1.654    0.395
        62 -10.8445    132.3336     92.6451   5.5607706065e+01   3.7326854576e+01     0.252351     0.243963 -25.96 0.0005866541    1.017    0.017
        63  -9.4408     61.5198     90.4993   7.4797124517e+01   4.9909451638e+01    0.1310243     0.114904 -56.02 0.0008101654    1.031    0.030
        64  -9.8137    107.7331     89.3919   6.1183055425e+01   4.2918024279e+01    0.1915161    0.1382728  31.40 0.0008958837    1.528    0.345
        65  -9.6442     95.5099     86.9880   6.3946163520e+01   4.5609013346e+01    0.2051486    0.1318461 -47.61 0.0003455092    1.460    0.315
        66  -9.9601     29.6588     80.7120   8.2387460414e+01   5.5352351550e+01    0.1229715   0.07676349 -36.69  0.000411424    1.643    0.391
        67  -9.6792      5.9939     80.0553   8.9551493113e+01   5.7167353208e+01    0.1360289    0.1021802 -63.24 0.0003449717    1.010    0.010
        68 -11.2983     53.3534     77.8445   7.4272816615e+01   5.3598342835e+01    0.4312894    0.2693038  49.18   0.00221037    2.059    0.514
        69  -9.7392    216.2160     78.5868   3.4273082775e+01   1.9993617842e+01    0.1861678    0.1372818  45.20 0.0002479017    1.410    0.291
        70  -9.6946     77.8816     78.1436   6.6718945127e+01   5.0280864285e+01    0.1780317    0.1441222 -27.23 0.0002773268    1.240    0.193
        71 -10.5248      2.8685     75.8810   8.9818852378e+01   5.8217565110e+01    0.1748419    0.1155909 -52.89 0.0003818006    1.218    0.179
        72  -9.0449     76.6717     71.6339   6.5251277497e+01   5.1787744817e+01    0.1442074   0.09818006 -18.61 0.0007036463    1.809    0.447
        73 -10.0821     63.9339     69.9408   6.8801749790e+01   5.3925720875e+01    0.1880167    0.1650089 -36.59            0    1.014    0.014
        74 -11.0954     33.0385     69.7079   7.8881565671e+01   5.7376953869e+01    0.1684768    0.1396542 -44.26 0.0005325447    1.060    0.057
        75 -10.8626     40.9784     69.5396   7.6209908249e+01   5.6663168590e+01    0.1648464    0.1224674  25.25 0.0007611481    1.587    0.370
        76  -9.7008      7.8102     68.7824   8.6994902196e+01   5.9417039452e+01     0.146116    0.1140705 -78.85 0.0004508465    1.296    0.229
        77 -12.0278    249.8349     61.1963   2.5086143929e+01   1.4766450330e+01    0.4878148     0.126454 -35.13   0.00164727    3.211    0.689
        78 -11.4667     67.0581     65.1590   6.6412201520e+01   5.4462320883e+01     0.209485    0.1786809 -47.42  0.001285824    1.133    0.117
        79  -9.2140    204.3182     65.6748   3.2791178768e+01   2.4912069909e+01    0.1557881    0.1123813 -66.74 0.0006528463    1.675    0.403
        80  -9.2255     80.3167     65.7008   6.2345835197e+01   5.2400988736e+01    0.1275766    0.1083068 -85.40 0.0004806815    1.614    0.380
        81 -10.4819      4.3138     64.3747   8.7303746919e+01   6.0520675607e+01    0.1990204     0.128039 -47.37 0.0007391518    1.270    0.213
        82 -11.8586      3.6573     59.9865   8.6662842445e+01   6.1449610714e+01    0.2975163     0.246275  26.92  0.002290004    1.570    0.363
        83  -9.4531    126.0309     64.7026   4.8921199821e+01   4.3970626874e+01    0.1645813    0.1321093  47.22 0.0003685517    1.265    0.209
        84 -10.2156      8.8247     64.1905   8.5760658034e+01   6.0303016129e+01    0.1533825    0.1022088 -43.13 0.0002444543    1.300    0.231
        85 -10.5416     98.9557     61.6075   5.5392433308e+01   4.9984475937e+01    0.3426219    0.2159129 -60.05  0.001507914    2.268    0.559
        86 -10.1243     43.6536     63.0069   7.3610196643e+01   5.7724308677e+01    0.1827718    0.1339965 -48.97 0.0006495908    1.147    0.128
        87 -10.2684    236.3294     62.3363   2.7114851377e+01   1.7684447773e+01     0.144141    0.1081987  20.82 0.0007052023    1.729    0.422
        88  -9.5074     86.4193     60.8324   5.8919570885e+01   5.2338185855e+01    0.1909602    0.1196488 -31.43 0.0005060441    1.577    0.366
        89  -9.4958    205.3842     60.5451   3.1217616612e+01   2.5425142058e+01    0.1441433    0.1394605 -49.45 2.862737e-05    1.024    0.023
        90  -9.6024     56.7831     60.3477   6.8390259119e+01   5.6755015370e+01    0.1590363    0.1168246  12.65 0.0002969742    1.571    0.364
        91  -9.3269     35.9236     61.0000   7.5730542155e+01   5.8894691142e+01     0.174809   0.06968386  26.72 0.0004940906    2.989    0.665
        92  -9.5530     22.3785     58.2591   7.9766257296e+01   6.0595911593e+01    0.1578647   0.09568573 -64.72 0.0003499776    1.566    0.361
        93 -10.0449     78.0217     55.7484   5.9915914674e+01   5.4644738556e+01     0.180494    0.1646228   2.17    0.0003925    1.099    0.090
        94  -9.9917    192.1148     66.0084   3.4985674612e+01   2.7899733845e+01    0.2065945    0.2039858  88.52 0.0003014079    1.014    0.014
        95 -10.2613     63.4742     54.7258   6.4389916212e+01   5.6966723347e+01    0.2462242    0.1161876 -49.65  0.001039036    2.027    0.507
        96  -9.6588     40.3789     55.2595   7.2584871165e+01   5.9599876176e+01    0.1551274    0.1025247 -56.60 9.149392e-05    1.441    0.306
        97 -11.0823      7.0941     45.9783   8.2300003427e+01   6.4043807311e+01    0.2461459    0.1154026 -53.61 0.0007403175    1.542    0.351
        98 -10.3014    249.1637     44.7081   2.1224252349e+01   1.7163144355e+01    0.2210526    0.1645393 -77.44  0.001207162    1.439    0.305
        99 -10.4255     39.1929     43.7368   6.9506467729e+01   6.1913949433e+01    0.2235117     0.181024  22.57  0.001512478    1.419    0.295
       100  -9.9072    235.3127     43.3441   2.2509146818e+01   2.0550789283e+01    0.2103365    0.1583053  28.13   0.00108618    1.707    0.414
       101  -9.8211    118.6058     42.2811   4.3349619096e+01   4.9258412873e+01    0.1922756    0.1328127 -19.20 0.0007868438    1.521    0.342
       102  -9.5407     20.5929     44.2343   7.6709040369e+01   6.3480849008e+01    0.1735629   0.07991834 -46.53 0.0009505096    1.643    0.391
       103  -9.4738    151.7371     40.3091   3.4972343105e+01   4.1838004397e+01    0.1419028    0.1122773 -63.54 0.0003092166    1.531    0.347
       104 -10.4930     95.5790     39.5682   4.8783073441e+01   5.4353093034e+01    0.2632343    0.1787913 -16.70 0.0007406623    1.540    0.351
       105  -9.8577    159.2345     39.6209   3.3240736632e+01   4.0076654408e+01    0.2115163    0.1259244  48.80 0.0005778027    1.594    0.373
       106 -10.5372     40.6107     36.4419   6.6519435048e+01   6.3079870713e+01     0.226984    0.1824469  -0.57  0.001155053    1.251    0.200
       107  -9.6770     12.6782     37.3302   7.7810901860e+01   6.5346132850e+01    0.1002709   0.08434854 -88.13 0.0007049185    1.695    0.410
       108  -9.7057     81.9121     36.0030   5.1683224862e+01   5.7370913847e+01    0.1580915    0.1377801  -5.83 0.0004328997    1.004    0.004
       109  -9.6240     57.3043     36.3136   6.0229596775e+01   6.1082349783e+01    0.1290679    0.0857485 -12.61  0.000198716    1.618    0.382
       110 -10.4193     50.4074     32.6443   6.1413899361e+01   6.2588679017e+01    0.2913811    0.1900712  44.33  0.000872097    2.026    0.506
       111  -9.7278     83.0998     31.8632   4.9723001571e+01   5.7795565737e+01    0.1859975    0.1403749   7.61 0.0004708594    1.332    0.249
       112 -10.4255     17.3883     31.6876   7.4170654249e+01   6.6047152264e+01    0.1747559    0.1445318 -47.76 0.0005538299    1.232    0.188
       113 -10.6415      3.5241     31.8529   7.9943071083e+01   6.6919032459e+01    0.1546856    0.1243638 -29.78 0.0009169154    1.166    0.142
       114  -9.4451     92.4830     31.4403   4.6659458114e+01   5.6152186304e+01    0.1328229    0.1201482   0.94  0.000119942    1.055    0.052
       115  -9.3592    153.9800     32.2062   3.1875636107e+01   4.2364282738e+01    0.1915219    0.1108706  59.32  0.000385846    1.651    0.394
       116 -10.2250    160.6354     27.1146   2.8974380167e+01   4.1333263313e+01    0.1957828    0.1809472 -13.94 0.0006897657    1.142    0.124
       117 -10.3396     88.1078     25.0613   4.5492002075e+01   5.7860856148e+01    0.1912169     0.162001 -61.23  0.001019088    1.698    0.411
       118 -11.2317    134.5063     23.9037   3.3057226161e+01   4.8115650461e+01    0.4432767    0.1141479  52.89  0.001458895    3.195    0.687
       119 -10.2807     98.4979     23.0703   4.1655655133e+01   5.6122450857e+01     0.199659    0.1671109  25.28 0.0008059036    1.092    0.084
       120  -9.8319     72.8974     22.6882   4.9408728991e+01   6.0850440601e+01     0.171732    0.1460285  12.92 0.0004581264    1.099    0.090
       121 -10.0698     38.1673     22.8445   6.2417423261e+01   6.5627393096e+01    0.1628534    0.1139575 -15.02 0.0003672475    1.290    0.225
       122 -12.4966     12.5436     17.9772   7.1501138665e+01   6.8783264269e+01    0.3812933    0.1867665  -1.97  0.001578206    2.791    0.642
       123  -9.8858     84.7695     20.5700   4.4706759885e+01   5.9070961799e+01    0.1678639    0.1243126  54.66 0.0007395625    1.643    0.391
       124  -9.6268     64.9949     19.7384   5.0908342417e+01   6.2522648139e+01    0.2020358     0.133729 -61.92 0.0009017961    3.543    0.718
       125  -9.6364     35.3954     19.7601   6.2315829200e+01   6.6418173395e+01    0.1616154   0.08858529 -32.30 0.0003606591    1.518    0.341
       126 -11.6924    147.7402     18.3692   2.8477170908e+01   4.5549887539e+01    0.2590122    0.2272255   7.59 0.0007811921    1.190    0.160
       127  -9.1947     48.6889     19.7026   5.6948701034e+01   6.4845676263e+01    0.1232247   0.07974143  -6.88 0.0002941161    1.598    0.374
       128 -10.4217     54.0320    241.1959   9.5960793083e+01   1.9934846046e+01    0.3988781    0.1177784  61.78  0.001603479    4.436    0.775
       129 -12.7424     50.7368    233.5088   9.5955149406e+01   2.1626371670e+01    0.3748924    0.2466213  76.26  0.002406365    1.220    0.180
       130 -11.8727     67.7633    239.3583   9.3614804441e+01   1.8511329939e+01    0.3540453    0.1736978  57.81  0.002188421    1.644    0.392
       131 -11.9207     82.2494    238.2605   9.1127654396e+01   1.6758304542e+01    0.3429734     0.189727  50.99  0.001953917    1.421    0.296
       132 -11.3270     63.5755    234.6073   9.3935304906e+01   1.9846391180e+01    0.2004882    0.1726378  35.48 0.0009266314    1.648    0.393
       133 -12.4595     94.6556    228.4090   8.8083657416e+01   1.6651155005e+01    0.3726211    0.3324239   4.00  0.002653363    1.818    0.450
       134 -12.5930     61.3269    225.6502   9.3605710708e+01   2.1677780119e+01    0.5412493    0.1851614 -74.20  0.002573563    3.304    0.697
       135 -12.7627     26.2923    225.0315   9.9336677512e+01   2.5862097338e+01     0.900721    0.1943786 -61.22  0.003285939    5.052    0.802
       136  -9.9341     65.8261    226.8857   9.2941115806e+01   2.0884598811e+01    0.1522197    0.1303063  75.71 0.0004698487    1.216    0.177
       137  -9.9941     52.9860    218.4673   9.4458903364e+01   2.3995389089e+01    0.1573379    0.1128948  63.92 0.0003366943    1.102    0.093
       138 -14.4028      7.4566    242.1299   1.0306593566e+02   2.4877905123e+01    0.9134699     0.519796  81.22  0.007247386    1.304    0.233
       139 -11.7139     51.4879    221.4797   9.4948901009e+01   2.3636288707e+01    0.1840618    0.1434129 -89.67   0.00128481    1.202    0.168
       140 -12.0996     67.4806    213.0007   9.1443689249e+01   2.3157275177e+01    0.3029406    0.2088884 -39.15   0.00178828    2.631    0.620
       141 -10.9026     81.7682    218.6411   8.9411335629e+01   2.0194919544e+01    0.2196437    0.1230747  53.12  0.001314287    1.479    0.324
       142 -10.4344     93.0233     11.4729   3.8518282172e+01   5.8593967987e+01    0.1977394    0.1172368  47.03  0.000485259    1.591    0.372
       143 -12.3570     61.4497    210.1597   9.2271292612e+01   2.4463427020e+01    0.2803886     0.217037  76.46  0.002027478    1.034    0.033
       144 -13.1689     57.0605    212.0815   9.3223250121e+01   2.4660066633e+01    0.4854084    0.2677353  88.37  0.002910763    1.806    0.446
       145 -11.8872     51.5843    209.0620   9.3941724112e+01   2.5892849182e+01    0.4313765    0.2342686  84.01  0.002555685    1.814    0.449
       146 -11.5776     75.6928    227.4969   9.1302256762e+01   1.9471947130e+01    0.2075037    0.1830902   7.92  0.001482573    1.947    0.486
       147 -14.8755      5.9481    198.9384   1.0114116252e+02   3.2588567244e+01     2.763958    0.5349255 -75.09   0.01185488    4.074    0.755
       148 -14.3880     20.0365    215.3768   9.9770005120e+01   2.8225072630e+01     1.394222    0.6253379  51.59  0.009015993    1.808    0.447
       149 -11.1852     26.3479    169.6705   9.5306146024e+01   3.6435185003e+01    0.1660114   0.09285278  87.93 0.0007070218    1.597    0.374
       150 -12.1266     86.9232    185.5259   8.4746692679e+01   2.5741287112e+01    0.3175341    0.1823859 -68.43  0.001713176    1.755    0.430
       151 -11.9558     44.8153    184.0188   9.2985374926e+01   3.1554292822e+01    0.4741422    0.2198987  72.96  0.002315711    2.568    0.611
       152 -12.5894     67.7703    180.2333   8.8014744036e+01   2.9495815998e+01    0.3608352    0.1789197  52.72  0.001882755    1.904    0.475
       153 -12.3912     37.6834    176.5997   9.3687489810e+01   3.3851056563e+01    0.2931857    0.2128496  71.52    0.0012704    1.176    0.150
       154 -11.6044     52.3991    178.9176   9.0983299114e+01   3.1703311076e+01    0.2601707    0.1497469  67.48  0.001485544    1.706    0.414
       155 -14.4673      2.8429    234.1277   1.0338568016e+02   2.6640677707e+01     1.317484    0.3118459 -71.68  0.006985184    3.524    0.716
       156 -10.7137     57.5219    174.5204   8.9466975244e+01   3.1986500187e+01    0.1215862   0.09844019  82.54 0.0002619546    1.021    0.020
       157 -14.9786     22.0434    199.6670   9.8433468355e+01   3.0927491179e+01     2.379573    0.6227409  54.37   0.01086794    3.448    0.710
