#   1 NUMBER                 Running object number                                     
#   2 MAG_AUTO               Kron-like elliptical aperture magnitude                    [mag]
#   3 X_IMAGE                Object position along x                                    [pixel]
#   4 Y_IMAGE                Object position along y                                    [pixel]
#   5 X_WORLD                Barycenter position along world x axis                     [deg]
#   6 Y_WORLD                Barycenter position along world y axis                     [deg]
#   7 A_WORLD                Profile RMS along major axis (world units)                 [deg]
#   8 B_WORLD                Profile RMS along minor axis (world units)                 [deg]
#   9 THETA_WORLD            Position angle (CCW/world-x)                               [deg]
#  10 FWHM_WORLD             FWHM assuming a gaussian core                              [deg]
#  11 ELONGATION             A_IMAGE/B_IMAGE                                           
#  12 ELLIPTICITY            1 - B_IMAGE/A_IMAGE                                       
         1 -12.5907     59.2921    137.4923   1.1707167693e+02   4.0078245979e+01      1.90379    0.2217067 -64.00  0.005199055    6.503    0.846
         2 -13.8092     69.9232    143.2060   1.1535625734e+02   3.7481835946e+01     2.279388    0.9088799 -59.48  0.009815083    2.318    0.569
         3 -12.8222    187.3053     34.4713   5.9982237255e+01   3.3919441137e+01    0.8426856    0.7392097 -13.27  0.004116562    1.161    0.139
         4 -12.4084    195.1008     24.9526   5.5826592170e+01   3.3023851077e+01    0.6790041    0.5582969  -2.40  0.001400477    1.318    0.241
         5  -9.0167     46.9017    233.8593   1.2776986519e+02   2.3489696210e+01    0.1310088    0.1052879  69.16 0.0006775883    1.244    0.196
         6 -13.6388    216.3331    235.6932   1.0057044796e+02  -6.3441170093e-01     1.909395    0.8484209  56.31   0.00763431    5.142    0.806
         7 -13.6079    211.2894    224.7251   9.9834002158e+01   1.2464516297e+00     1.114063    0.4863169  51.40  0.005575596    2.646    0.622
         8 -13.1752    248.6551    246.6667   9.7220594064e+01  -6.1948607735e+00     1.186214     0.793873  46.82  0.008774816    1.779    0.438
         9 -13.2754    247.9318    228.8568   9.4773522978e+01  -4.6070823474e+00    0.7273532    0.4838122 -14.41    0.0053505    1.584    0.369
        10 -13.9754    236.1981    229.1942   9.6593662390e+01  -2.9443254542e+00    0.9976943    0.6829454  15.80  0.004753633    1.260    0.207
        11 -13.9700    244.4894    216.1448   9.3345057427e+01  -2.9456271677e+00     0.985437    0.6764959  25.68  0.004816912    1.106    0.096
        12 -12.9101     82.1209    249.0254   1.2324135974e+02   1.7042475684e+01     0.615317     0.291941  53.06  0.002938199    1.514    0.340
        13 -13.1772     79.1214    232.4891   1.2254600378e+02   1.9834570834e+01    0.7993735    0.3985036  88.81  0.004274739    2.523    0.604
        14 -14.5060     65.2723    226.5647   1.2438288770e+02   2.2483332817e+01    0.9431701    0.4424883 -68.13  0.004488949    2.314    0.568
        15 -14.1910     67.4549    204.8477   1.2238698042e+02   2.5810452378e+01     1.378323    0.7643782  73.15  0.008536467    1.729    0.422
        16 -15.1022     99.2248    227.4094   1.1881723071e+02   1.7934367664e+01      2.37113     1.136905  51.25   0.01456394    1.609    0.378
        17 -13.6917     99.7365    207.7965   1.1687573234e+02   2.0958229860e+01    0.9464234    0.5158536  51.70  0.003776127    1.486    0.327
        18 -19.4478     14.2621    141.7280   1.2783488311e+02   4.3784219058e+01     16.80197     1.476438 -76.01   0.03809639   11.532    0.913
        19 -15.1988     40.0748    163.4796   1.2413588266e+02   3.6828885467e+01     1.728347    0.9861568  79.94   0.01009972    1.586    0.369
        20  -9.7689     52.2605    219.6111   1.2606550859e+02   2.5152581531e+01    0.2348185   0.08871131  61.62 0.0008695255    2.397    0.583
        21  -9.5140     56.8900    212.0479   1.2477877600e+02   2.5869961376e+01    0.1594445    0.1090741  66.69 0.0004950726    1.098    0.089
        22 -10.5814    193.1478    193.6322   9.8133597949e+01   7.9217130910e+00     0.207967    0.1706736 -72.00  0.001303095    1.852    0.460
        23  -9.3026     81.3470    169.7231   1.1624263795e+02   3.0466763219e+01     0.223393    0.1355237  42.76 0.0008113587    1.589    0.371
        24  -9.3746     79.5629    178.5535   1.1761262676e+02   2.9005467598e+01      0.16924    0.1333435 -67.10 0.0006109677    1.372    0.271
        25 -10.3219     82.9894    173.7751   1.1638296127e+02   2.9446894130e+01    0.3932601    0.2278258 -41.61  0.001787208    2.864    0.651
        26 -10.8716     90.5172    163.7444   1.1357068777e+02   3.0327539751e+01    0.2282815    0.1994098  65.98 0.0006595785    1.088    0.081
        27 -12.5879     83.3310    137.4699   1.1137408984e+02   3.6835153412e+01     3.119535    0.4036858 -61.08  0.006619454    9.975    0.900
        28 -14.0039    183.2316    233.8322   1.0557272151e+02   4.5704833859e+00    0.8010969    0.6849833 -12.57  0.003578924    1.449    0.310
        29  -8.8870     91.2158    245.6289   1.2158899051e+02   1.6355183484e+01   0.09794039   0.05873118  70.35 0.0004871101    1.581    0.368
        30 -10.4539    134.4148    148.1208   1.0163036937e+02   2.6076194912e+01    0.3365603    0.1292784 -54.56  0.001273023    2.989    0.665
        31 -12.5504     95.6925    140.8967   1.0903425624e+02   3.4220503620e+01    0.5985625     0.309747 -62.44  0.000453646    1.930    0.482
        32 -11.5847    107.9169    140.7430   1.0619070785e+02   3.2255751518e+01    0.3900849    0.2464566 -31.01   0.00176316    2.598    0.615
        33 -11.4680    115.1637    130.8079   1.0265939206e+02   3.3063779876e+01    0.3661661    0.1732668 -49.32  0.001569966    2.136    0.532
        34 -11.2692    106.1092    130.8605   1.0480976640e+02   3.4633759198e+01    0.3122849    0.2511821  81.20  0.001761358    1.287    0.223
        35 -10.8498    102.7140    127.2347   1.0493392802e+02   3.5981996048e+01    0.2606453    0.2399648 -66.96  0.000854285    1.099    0.090
        36 -11.4902     95.1530    157.8419   1.1176271762e+02   3.0809979630e+01    0.2938935    0.2707389  -7.35  0.001745748    1.532    0.347
        37 -12.4721     79.3675    158.8410   1.1531712939e+02   3.2921711608e+01    0.4605458      0.39993  87.85  0.001115676    1.082    0.076
        38 -11.9018     96.5943    154.2036   1.1091702213e+02   3.1323736238e+01    0.3559436    0.2906185 -61.94  0.002105711    1.277    0.217
        39 -11.4511    176.7195     44.6373   6.5022635164e+01   3.5327467642e+01    0.3369647    0.3240297  42.78  0.001087588    1.052    0.050
        40  -8.2609     49.6367    228.4845   1.2703397911e+02   2.4022728621e+01    0.1949798    0.1516985  20.21  0.001453257    2.313    0.568
