#   1 NUMBER                 Running object number                                     
#   2 MAG_AUTO               Kron-like elliptical aperture magnitude                    [mag]
#   3 X_IMAGE                Object position along x                                    [pixel]
#   4 Y_IMAGE                Object position along y                                    [pixel]
#   5 X_WORLD                Barycenter position along world x axis                     [deg]
#   6 Y_WORLD                Barycenter position along world y axis                     [deg]
#   7 A_WORLD                Profile RMS along major axis (world units)                 [deg]
#   8 B_WORLD                Profile RMS along minor axis (world units)                 [deg]
#   9 THETA_WORLD            Position angle (CCW/world-x)                               [deg]
#  10 FWHM_WORLD             FWHM assuming a gaussian core                              [deg]
#  11 ELONGATION             A_IMAGE/B_IMAGE                                           
#  12 ELLIPTICITY            1 - B_IMAGE/A_IMAGE                                       
         1 -14.4157    148.6030     61.1445   8.7856401560e+01   4.0007880111e+01     1.360254     1.087986  -8.01  0.003789783    1.430    0.301
         2 -14.8609    159.8974     46.1524   8.0672160898e+01   3.9499236721e+01     1.361136     1.086426 -24.48  0.003844709    1.312    0.238
         3 -14.8139    172.1702     14.9746   6.8718424010e+01   4.0182923590e+01     1.276475     1.107079   1.35  0.004173863    1.321    0.243
         4 -13.2613    198.7976      7.7327   6.3375316829e+01   3.4111575041e+01    0.4031624    0.3581105 -85.42  0.002244869    1.014    0.014
         5 -11.0522     53.3307      7.6790   9.4498942501e+01   6.7298267316e+01    0.1075756   0.09625614 -51.82 0.0004636027    1.695    0.410
         6 -13.7030    188.8014     13.7191   6.6183485450e+01   3.6040968125e+01    0.9617776    0.5158079 -69.24  0.004062306    2.358    0.576
         7 -11.3408     21.6182    233.4440   1.4804811297e+02   2.4888968056e+01    0.1105472    0.0845808  73.55 0.0003605768    1.148    0.129
         8 -20.2797     81.0188    178.0249   1.3188549060e+02   2.8433280539e+01      15.6819      6.93874 -65.89    0.0715178    2.269    0.559
         9 -12.4978    187.8872    174.9702   1.0839468001e+02   9.8838727219e+00    0.4511434    0.2257311 -50.69  0.001884976    2.517    0.603
        10 -12.1411    166.9891    174.7202   1.1259820899e+02   1.4008165994e+01    0.2501989    0.2014954 -81.86 0.0008504118    1.643    0.391
        11 -11.5416     13.1783    240.0148   1.4970850764e+02   2.4612881392e+01    0.1420072    0.1126095 -89.48   0.00121155    1.374    0.272
        12 -10.8679      5.0264    232.5341   1.5065812775e+02   2.6705055548e+01    0.1166369   0.08315971  49.63 0.0005105244    1.422    0.297
        13 -11.9875    230.5384    167.4081   9.8858656537e+01   2.9617659062e+00    0.4319136    0.1969468 -48.92  0.001656164    3.322    0.699
        14 -11.5455    218.3852    220.5614   1.1091487818e+02  -2.3787577626e+00    0.3333642    0.1635392 -42.29   0.00170275    2.549    0.608
        15 -11.4465    236.9776    158.3090   9.5837918684e+01   3.1427828855e+00    0.1886252    0.1642354  16.94 0.0004155912    1.086    0.079
        16 -10.5265     24.2912    216.4109   1.4664903051e+02   2.7704906904e+01    0.1021946    0.0754054  83.64 0.0002206321    1.121    0.108
        17 -11.2036    152.2737    237.7139   1.2538400288e+02   6.1008498312e+00    0.2878523     0.166085  29.98 0.0008626492    1.846    0.458
        18 -11.4230    114.4855    250.6821   1.3358255152e+02   1.0022492271e+01    0.1470481   0.08342136  43.55 -0.000105242    1.402    0.287
        19 -13.9008    161.3300    153.1880   1.0948503052e+02   1.9256019692e+01    0.5627451    0.5048296  58.06  0.001928259    1.128    0.113
        20 -13.1217     11.4818    206.0341   1.4829597636e+02   3.0952108008e+01    0.3785305    0.2423401  31.68   0.00209435    1.997    0.499
        21 -10.3946     19.4581    203.5643   1.4672376093e+02   3.0654305055e+01    0.1595365   0.07885194 -66.30 0.0007339573    1.994    0.499
        22 -10.5242    176.9694    154.9998   1.0652839535e+02   1.5671729286e+01    0.2134817    0.2068601  56.63 0.0004587191    1.085    0.079
        23 -11.3493     17.6376    154.1880   1.4339256035e+02   4.1104550291e+01    0.2375181    0.1558312 -61.58 0.0003057945    1.488    0.328
        24 -11.4255     18.6148    149.1520   1.4270321268e+02   4.2130618234e+01    0.3286945    0.2201559  68.01  0.002116959    1.390    0.281
        25 -12.6431    174.0347    148.5160   1.0573999290e+02   1.7513540595e+01    0.4379886    0.3409636 -56.33  0.001205115    1.448    0.309
        26 -10.1995     31.5613    205.2325   1.4461842250e+02   2.9071493745e+01    0.1291177    0.0897642 -76.04 0.0003231537    1.379    0.275
        27 -12.3065     27.4455    145.6378   1.4027407585e+02   4.2117168123e+01    0.3383931    0.3240151  82.42 0.0008797772    1.276    0.217
        28 -10.8067     25.9864    139.0215   1.3989217927e+02   4.3746180584e+01    0.2054761    0.1460406 -73.86 0.0005708422    1.155    0.134
        29 -11.5225    172.0561    138.4827   1.0390195813e+02   1.9874507334e+01    0.2278758    0.2058298 -39.78  0.000588385    1.126    0.112
        30 -10.9799    132.9925    203.4806   1.2443611446e+02   1.4966845792e+01    0.5447432    0.1943142 -55.29  0.002183067    3.295    0.697
        31 -10.3009      2.4594    135.5023   1.4523165292e+02   4.6409113347e+01    0.1572414    0.1111524  -6.91  0.001016732    2.274    0.560
        32 -13.0850    160.8651    128.0860   1.0390979922e+02   2.4383201479e+01    0.4857494    0.4285679 -73.42  0.001654216    1.266    0.210
        33 -12.3190    138.7045    200.3327   1.2281518284e+02   1.4548330043e+01    0.5088396    0.2830187  60.36  0.001101486    2.148    0.535
        34 -12.1313    141.4792    198.5024   1.2197200487e+02   1.4392569900e+01    0.3172591    0.2507526  86.17 0.0006328597    1.518    0.341
        35 -11.1300    167.6334    112.8770   9.8598383395e+01   2.5888751345e+01    0.3886457    0.2801954 -84.66  0.001212798    2.094    0.522
        36 -10.0714     28.9461    201.4422   1.4483757569e+02   3.0095925618e+01    0.1155433    0.1051254  32.34  0.000444843    1.597    0.374
        37 -11.1095     19.7497    196.8700   1.4624271224e+02   3.1943027592e+01    0.1476791    0.1150092 -83.07 0.0004732718    1.246    0.197
        38 -10.7699    205.3676    110.2448   9.0327736162e+01   1.7646040463e+01    0.3141962    0.2070348  45.50  0.001119997    1.559    0.359
        39 -12.1822     25.5597    106.5061   1.3568349309e+02   5.1221275617e+01    0.3601048    0.2438051   4.63  0.002112869    2.116    0.527
        40 -12.1031     26.7127    194.6422   1.4477508125e+02   3.1685688655e+01    0.2048149    0.1534159  77.01 0.0005524785    1.012    0.012
        41 -12.8264     47.8588     92.8071   1.2631635424e+02   5.2198658366e+01    0.4862269    0.3133151  17.56  0.002022346    2.015    0.504
        42 -10.8853     37.0040     95.9942   1.3039573151e+02   5.2598565983e+01    0.3096133    0.1996218 -79.78  0.001066733    1.621    0.383
        43 -11.2390     40.0593     94.4624   1.2913412800e+02   5.2646815974e+01    0.3175075    0.2254264  36.26  0.001143961    1.639    0.390
        44 -12.7317    145.5602    189.3251   1.1966733530e+02   1.5348386762e+01    0.4682276    0.3887795 -41.23  0.002746436    1.372    0.271
        45 -11.8582      6.2250     89.0569   1.3885445207e+02   5.6539643192e+01    0.4944001    0.2322853 -10.00  0.002313151    3.853    0.740
        46 -10.6544    143.0701     81.4355   9.5470814049e+01   3.7730211474e+01    0.2425319    0.2047646 -37.63 0.0005470506    1.174    0.148
        47 -10.8855    103.1408     81.9493   1.0626502895e+02   4.6201248188e+01    0.2284598    0.2081987  39.63 0.0004223419    1.150    0.131
        48 -11.8317     28.1533    235.4941   1.4709241231e+02   2.3832928911e+01    0.1827176    0.1147916 -84.61  0.001343616    1.435    0.303
        49 -10.3992    155.9375    247.5142   1.2594931126e+02   4.1092841896e+00    0.1518778    0.1352088  43.78  0.001127061    1.142    0.124
        50 -11.7285    127.6436    247.3268   1.3093205406e+02   8.5469068056e+00    0.2194631    0.1544504  58.12 0.0003487603    1.253    0.202
        51 -13.3165    163.7105     37.5385   7.7196174350e+01   3.9712360918e+01    0.4581027    0.4434237  36.75 0.0008562579    1.053    0.050
        52 -11.1489     13.4855     59.9457   1.3085603544e+02   6.2430673351e+01    0.1758434    0.1593817  62.01 0.0004345587    1.412    0.292
        53 -10.6877    146.4829     34.8666   7.9573557292e+01   4.4433840512e+01    0.2631103    0.1978327  80.56 0.0005450999    1.526    0.344
        54 -11.6740    162.8907    245.6391   1.2448500394e+02   3.2680599813e+00    0.2685353    0.1595744  44.47  0.001626658    1.338    0.253
        55 -10.1813    242.4393    184.5286   1.0023373860e+02  -1.5899920517e+00     0.127954    0.1075745   5.06 8.354597e-05    1.011    0.011
        56 -10.7717    116.9178    244.9329   1.3257607919e+02   1.0545408033e+01    0.1525897    0.1245648  45.64            0    1.162    0.139
