#   1 NUMBER                 Running object number                                     
#   2 MAG_AUTO               Kron-like elliptical aperture magnitude                    [mag]
#   3 X_IMAGE                Object position along x                                    [pixel]
#   4 Y_IMAGE                Object position along y                                    [pixel]
#   5 X_WORLD                Barycenter position along world x axis                     [deg]
#   6 Y_WORLD                Barycenter position along world y axis                     [deg]
#   7 A_WORLD                Profile RMS along major axis (world units)                 [deg]
#   8 B_WORLD                Profile RMS along minor axis (world units)                 [deg]
#   9 THETA_WORLD            Position angle (CCW/world-x)                               [deg]
#  10 FWHM_WORLD             FWHM assuming a gaussian core                              [deg]
#  11 ELONGATION             A_IMAGE/B_IMAGE                                           
#  12 ELLIPTICITY            1 - B_IMAGE/A_IMAGE                                       
         1 -14.0780    224.6965     34.8359   3.4801827421e+01   2.6195575206e+01     1.812398     1.111227  41.03   0.00930002    2.732    0.634
         2 -12.7911    249.1679     13.2950   2.8646954992e+01   2.3941556727e+01    0.9277347    0.2991871 -34.00  0.004310722    3.165    0.684
         3 -10.4381    189.9162     14.9026   3.3714912309e+01   3.6113601330e+01     0.206328    0.1726035 -50.89  0.001134358    1.234    0.190
         4 -11.1362      2.1376      4.2082   8.2761280148e+01   7.4343194405e+01    0.4593478    0.1639279 -38.82  0.002423065    2.424    0.587
         5  -9.2469     97.8782      6.3201   4.4915645505e+01   5.8189611091e+01    0.1902455    0.1666829 -43.83 0.0006024907    1.371    0.271
         6 -10.7401     16.4578      2.1767   7.2975422641e+01   7.3119557955e+01    0.2031675    0.1402749  -5.57  0.001414476    1.174    0.148
         7 -13.8313     12.9920    205.9857   1.1872154603e+02   2.8269134364e+01    0.9176133    0.5810956   9.48  0.004998455    2.419    0.587
         8 -14.4054    104.3490    227.8995   1.0022826478e+02   1.1807234220e+01     6.879003     1.233412  41.12   0.02021957    4.432    0.774
         9 -15.3872      4.3946    177.3849   1.1862684639e+02   3.5817238676e+01     8.752381     1.228626 -74.42   0.02538888    5.226    0.809
        10 -10.2068    120.1709    221.0405   9.5672083520e+01   1.0806743018e+01    0.2511054    0.1898637  36.88 0.0007755634    1.211    0.174
        11 -13.1218      6.4784    227.2608   1.2138052882e+02   2.4136550072e+01     1.634189    0.6623945  72.51  0.007816527    2.438    0.590
        12  -9.8569    192.1509    193.3100   7.4850777136e+01   4.5384059372e+00    0.3541322    0.1915632 -59.77  0.001350007    3.179    0.685
        13  -9.0741     51.9604    187.0193   1.0770384957e+02   2.8645234897e+01    0.2340369    0.1469873  67.89  0.000936841    1.706    0.414
        14 -11.7969     48.2334    178.2492   1.0759962422e+02   3.1299239998e+01    0.4399257    0.3148337 -27.92  0.001508439    1.921    0.480
        15 -11.6925     55.2491    172.3079   1.0495106734e+02   3.1954136484e+01    0.3393991    0.2700264 -36.06 0.0008261598    1.490    0.329
        16 -10.4783     99.9360    170.8827   9.2565720582e+01   2.5732806254e+01    0.4384505    0.1678409  46.81  0.001454197    2.905    0.656
        17  -8.8613    110.5445    167.5157   8.9092967689e+01   2.4750704727e+01    0.1526749    0.1472154  85.74 8.865873e-05    1.043    0.041
        18 -12.5606     75.4529    155.9213   9.6694717197e+01   3.3426304042e+01    0.7896786    0.6719553  80.14  0.001662809    1.234    0.189
        19 -13.5621     66.6955    142.7331   9.6877701230e+01   3.8115888186e+01     2.647307     1.376479  76.85  0.004557937    5.021    0.801
        20 -13.1449     53.0136    158.7370   1.0362255556e+02   3.5738200201e+01    0.5726658    0.3818654 -38.75  0.001856115    1.744    0.427
        21 -11.8554     33.4725    157.0436   1.0894847201e+02   3.8365606052e+01    0.4246252    0.2837606 -84.34  0.001800953    1.422    0.297
        22  -8.8227    134.3142    143.4946   7.7689590602e+01   2.6113483658e+01    0.4373271    0.1297397 -43.83  0.001235032    3.481    0.713
        23 -14.4947     47.4077    247.9838   1.1454524756e+02   1.5383875899e+01      4.99406     1.352648  26.78    0.0148211    6.570    0.848
        24 -10.1520     91.9800    142.9831   8.9340565318e+01   3.4138190773e+01    0.3288113    0.3065886 -50.22 0.0008765631    1.044    0.042
        25  -9.8386     95.1522    139.8286   8.7729528968e+01   3.4396469541e+01    0.3564074    0.2436985 -19.60  0.001467986    2.074    0.518
        26 -12.0072     79.3258    140.8699   9.2677061898e+01   3.6733127364e+01    0.3363399    0.2792144 -48.08 0.0004643152    1.166    0.142
        27 -10.4468     22.4912    222.4825   1.1782078533e+02   2.3597961047e+01    0.3762008    0.2123409 -28.21  0.001553563    4.478    0.777
        28  -9.8275    171.3230    222.3111   8.4483433810e+01   2.4415057595e+00    0.1396397   0.09774587  -3.59 0.0005910915    1.653    0.395
        29 -12.5724     53.0728    116.2466   9.5958833000e+01   4.6731151014e+01     1.594105    0.4197537 -65.08 0.0004998639    5.554    0.820
        30 -10.6583    105.7566    131.0979   8.2632187551e+01   3.4667088062e+01     0.400929    0.3461825   8.66 0.0009564523    1.312    0.238
        31 -10.8236     66.1631    126.7407   9.3853906223e+01   4.2321810267e+01    0.4020214     0.251775 -77.18  0.001703282    1.979    0.495
        32 -11.0605     67.1297    162.6503   1.0021757411e+02   3.2875258736e+01    0.2806582     0.269472 -44.90 0.0003901294    1.128    0.114
        33 -10.3208     92.3327    127.4363   8.5769133756e+01   3.8000488229e+01     0.336945    0.2639667 -18.81  0.000781011    1.528    0.345
        34  -9.7609    113.7261    125.1412   7.8889036313e+01   3.4585739489e+01    0.3046664    0.2134743   4.58   0.00122401    2.146    0.534
        35  -8.4269     36.6770    222.7518   1.1481923459e+02   2.1998764177e+01    0.1077436    0.0970043 -31.64 0.0002307136    1.534    0.348
        36  -9.5343    103.9664    119.7107   8.0370980220e+01   3.7772763459e+01    0.2464128    0.2138951 -47.46  0.000435679    1.114    0.102
        37  -9.6544    204.9382    110.6929   5.4530843385e+01   1.8309916016e+01    0.3442483     0.206919  37.35  0.001538515    2.144    0.533
        38 -10.1412    163.5422     84.2720   5.5605533869e+01   3.2348901215e+01    0.2599976    0.1818167  33.09  0.001092646    1.794    0.443
        39 -10.1091     30.7611    221.3415   1.1598288770e+02   2.2971493544e+01    0.3675351     0.203822  61.34  0.001979357    1.643    0.391
        40  -9.7340     61.7151     71.6831   8.0935708425e+01   5.5862632643e+01    0.2380149    0.1931029  -8.99 0.0005074544    1.226    0.184
        41 -10.5047     13.3130     60.6262   9.8166700389e+01   6.3559594460e+01     0.329171    0.1742972 -52.07  0.001295735    1.550    0.355
        42  -9.4373     44.9560    221.3330   1.1289305896e+02   2.1353881094e+01    0.1800631    0.1469311  58.81 0.0005659517    1.081    0.075
        43  -8.1856     91.6463     57.3320   6.5492962841e+01   5.3201970261e+01      0.14012    0.1146705 -87.29 0.0007045573    1.784    0.439
        44 -12.3355    206.0737     50.4031   4.0238868518e+01   2.8079628187e+01    0.9185979     0.482669 -65.15  0.004201212    2.195    0.544
        45 -14.4328     30.8869    187.6113   1.1304862299e+02   3.0892541259e+01     3.728664     1.459771  70.50   0.01219037    4.298    0.767
        46 -13.0936      7.2012    246.6239   1.2223313466e+02   2.0046695837e+01     1.355298     0.810851  54.51  0.008830385    1.317    0.241
        47  -8.5856     95.2537     46.6508   6.0596668908e+01   5.4145574768e+01    0.1302321    0.1083257 -67.45 0.0002182082    1.594    0.372
        48 -11.3569     12.4494     43.7675   9.3453157197e+01   6.7000212738e+01     0.434773    0.2380215  39.92  0.001760532    2.594    0.614
        49 -11.0286      2.8500     38.1735   9.6577779843e+01   6.8715786500e+01    0.2834451    0.2679324  67.91   0.00209582    1.588    0.370
        50 -11.0144    120.2176     28.4148   4.7874357562e+01   5.0968726303e+01    0.5415046    0.3162867 -73.17  0.001895247    3.076    0.675
        51 -13.9902     24.4369    197.4100   1.1548141495e+02   2.9174999057e+01     1.181075    0.9305983  70.11  0.003031867    1.109    0.099
        52  -8.8718     26.9493    240.4631   1.1810524473e+02   1.9268397085e+01    0.1728842    0.1028113  38.05 0.0005219749    1.575    0.365
        53 -10.3059     42.1399    213.6303   1.1283586370e+02   2.3435522237e+01    0.4316716    0.2819232 -11.40  0.001633533    3.008    0.668
        54  -8.9017     26.3557    232.8731   1.1772719523e+02   2.0930562400e+01    0.1947891    0.1179046  73.36  0.001135302    1.469    0.319
