#   1 NUMBER                 Running object number                                     
#   2 MAG_AUTO               Kron-like elliptical aperture magnitude                    [mag]
#   3 X_IMAGE                Object position along x                                    [pixel]
#   4 Y_IMAGE                Object position along y                                    [pixel]
#   5 X_WORLD                Barycenter position along world x axis                     [deg]
#   6 Y_WORLD                Barycenter position along world y axis                     [deg]
#   7 A_WORLD                Profile RMS along major axis (world units)                 [deg]
#   8 B_WORLD                Profile RMS along minor axis (world units)                 [deg]
#   9 THETA_WORLD            Position angle (CCW/world-x)                               [deg]
#  10 FWHM_WORLD             FWHM assuming a gaussian core                              [deg]
#  11 ELONGATION             A_IMAGE/B_IMAGE                                           
#  12 ELLIPTICITY            1 - B_IMAGE/A_IMAGE                                       
         1 -12.9678    183.9380     35.8960   6.3899986210e+01   3.4880796452e+01     1.101813    0.9198734  30.02  0.004696972    1.631    0.387
         2 -10.1297    189.8001     15.1035   5.8407370912e+01   3.5977755760e+01    0.3120237    0.1490857 -58.69  0.001526888    2.279    0.561
         3 -12.0647    205.9368      4.3264   5.4507729321e+01   3.3556306039e+01    0.8169404    0.4164272  74.43  0.004258276    1.632    0.387
         4 -10.0314     58.2761      3.0049   7.9863868251e+01   6.4710561809e+01    0.1623763    0.1286208  17.10  0.001188887    1.080    0.074
         5  -9.2533    140.1705    218.0153   1.1436967772e+02   7.9351544838e+00    0.2384956    0.1680735  88.12  0.001094814    2.051    0.512
         6 -11.1066    135.0463    244.0735   1.1949015750e+02   3.5357708899e+00    0.4418408    0.3220911  20.90   0.00238781    1.586    0.370
         7 -11.1559    140.0310    249.5725   1.1923260654e+02   1.6721075226e+00    0.6540393    0.4487088 -55.98  0.003630535    1.664    0.399
         8 -10.9058    140.4960    245.4945   1.1855254915e+02   2.3601696641e+00    0.4492854    0.2501486 -57.40  0.002186633    2.094    0.522
         9 -19.5594     29.7389    149.1122   1.3070267726e+02   4.1269508318e+01       21.189     3.334207 -67.07   0.05311168    6.165    0.838
        10 -12.0019    106.0327    204.5279   1.1998402439e+02   1.6929236262e+01    0.7713249    0.4867139 -73.56  0.003527992    1.805    0.446
        11  -9.7260     95.4896    200.6078   1.2185244508e+02   1.9619877014e+01    0.3817186    0.2226851 -86.03  0.001329001    2.410    0.585
        12 -10.3441     86.5127    202.4398   1.2424072520e+02   2.0632723021e+01    0.6583565    0.3252435  60.47  0.002551917    2.601    0.616
        13  -8.6769    135.3255    198.9733   1.1219389070e+02   1.2994009512e+01    0.2433337     0.124746 -74.68  0.000704769    4.440    0.775
        14  -9.7741    193.0457    194.8024   9.8623880697e+01   3.1576298883e+00    0.7246394     0.349708 -64.23  0.001896028    6.376    0.843
        15  -9.0217    141.1568    197.8804   1.1064380646e+02   1.2160159239e+01    0.2266387    0.1975137  80.82 0.0004817882    1.259    0.206
        16  -8.5635    120.8211    197.4196   1.1532454540e+02   1.5996552697e+01    0.1967776    0.1423857  26.53 0.0003838972    1.596    0.373
        17 -10.5002    112.5852    195.9937   1.1703841848e+02   1.7798280980e+01    0.4640149    0.3010474 -19.44   0.00178948    2.931    0.659
        18  -8.6838    153.0608    193.8715   1.0715975071e+02   1.0818316187e+01     0.262703    0.1704335  66.05  0.001086292    2.167    0.539
        19  -8.8170     98.9320    191.4709   1.1957046545e+02   2.1238348983e+01    0.2134329    0.1416793  40.87 0.0003522354    1.508    0.337
        20 -10.4879    100.9856    199.0539   1.2030628841e+02   1.9073500161e+01    0.3678025    0.2795328  19.01  0.001429988    1.694    0.410
        21  -8.2341    151.3141    183.6678   1.0557875290e+02   1.3442838746e+01    0.1557898    0.1203774  83.04 0.0007045554    1.682    0.405
        22  -8.7993    115.3150    183.3187   1.1413995378e+02   2.0338865530e+01    0.1503068    0.1206555 -18.21 0.0006166608    1.652    0.395
        23  -9.0813     99.4664    180.6781   1.1759865445e+02   2.3781358362e+01    0.2581457    0.2263832  60.71 0.0006401334    1.126    0.112
        24  -8.3702    168.4428    176.9537   1.0031241992e+02   1.1588536930e+01    0.2256825    0.1464332 -49.11 0.0005744679    1.527    0.345
        25  -9.6749     71.4989    174.1470   1.2358077139e+02   2.9868220166e+01    0.3276753    0.1908009  47.74  0.001147145    1.779    0.438
        26  -8.3737    166.1470    173.2267   1.0005169116e+02   1.2870592525e+01    0.2074524    0.1801731 -89.25 0.0004699595    1.335    0.251
        27  -8.9401    115.0000    172.9474   1.1226321441e+02   2.2914192878e+01    0.2545997   0.08542999 -54.21 0.0007992788    2.921    0.658
        28 -10.4043    104.3103    172.5134   1.1488896725e+02   2.4951330371e+01    0.4614027    0.2902734  13.87  0.001772898    2.693    0.629
        29  -9.7037    194.1773    167.3801   9.2782218670e+01   8.5800642976e+00    0.3061614    0.2971424  55.60 0.0009515354    1.105    0.095
        30  -9.1227    119.3079    172.6521   1.1112420086e+02   2.2186007912e+01    0.1611123    0.1189633  81.85 0.0007043688    1.705    0.413
        31  -8.8713    204.3281    164.7656   9.0193527150e+01   7.1557529797e+00    0.3613138    0.1647352 -53.97  0.001317755    2.596    0.615
        32 -10.2504     94.7628    160.6578   1.1510396036e+02   2.9555932624e+01    0.3517753    0.2531225 -50.97 0.0005893999    1.348    0.258
        33  -8.9823    189.9914    160.9919   9.2275104850e+01   1.0754753798e+01    0.2325258    0.2187091 -53.61 0.0005992289    1.051    0.048
        34 -11.0972     99.6625    153.5302   1.1236926609e+02   3.0477839102e+01    0.6607398    0.4295437 -34.77  0.001891054    1.874    0.466
        35  -9.3891    189.2096    155.1825   9.1171157750e+01   1.2147827600e+01    0.3430533    0.2423301 -53.70  0.001609322    1.421    0.296
        36  -9.9638    134.0757    147.2356   1.0201418943e+02   2.5413652653e+01    0.7654852    0.2026053 -51.83  0.002039584    4.004    0.750
        37 -10.8230     98.8430    139.0385   1.0948536545e+02   3.4185751300e+01    0.3035284    0.2853993 -27.92 0.0004134124    1.128    0.114
        38 -10.8150    109.5268    139.5988   1.0668468262e+02   3.2086310522e+01    0.4822782    0.3004434 -39.71  0.001645377    1.719    0.418
        39 -10.2563     78.2555    134.2241   1.1426370861e+02   3.8807988929e+01    0.3488102    0.1784491 -61.54  0.001405628    1.996    0.499
        40 -10.0167    105.8620    130.8933   1.0566949918e+02   3.4859333476e+01    0.4351392    0.3354142 -74.03  0.001351538    1.497    0.332
        41  -9.5768    104.4971    125.8615   1.0484666412e+02   3.6301422681e+01    0.2895951    0.2419585 -12.56  0.000598865    1.426    0.299
        42 -10.1139    116.4600    129.8833   1.0253715639e+02   3.3055972775e+01    0.3411609    0.2885198  -9.83 0.0009405605    1.428    0.300
        43  -8.8906    161.3390    128.6831   9.1105240761e+01   2.3834829668e+01    0.1622894    0.1229137 -87.06 0.0007048638    1.705    0.413
        44  -8.8008    111.1712    118.9621   1.0128877762e+02   3.6616016136e+01    0.2585601    0.2197078  40.96 0.0005342961    1.212    0.175
        45  -8.7721    168.3401    113.4826   8.5858279709e+01   2.5501144531e+01    0.3098575    0.2186795 -69.70 0.0009945086    1.715    0.417
        46  -8.7888      8.0620    218.0278   1.4290050976e+02   2.7040277900e+01    0.1521561    0.1210802 -76.89  0.001047988    1.251    0.201
        47  -9.4958    134.7352    106.8978   9.1955046041e+01   3.4370186900e+01     0.515685    0.1248813 -48.09  0.001333228    4.514    0.778
        48  -8.5754    205.9675    110.0455   7.7798369710e+01   1.7829173783e+01    0.2187618    0.1832654   3.58 0.0006382604    1.679    0.405
        49 -10.0508    164.2670    217.4405   1.0897727070e+02   3.7699878258e+00    0.2773065     0.133162  34.82  0.001140006    2.087    0.521
        50 -10.6787    171.0094     70.4332   7.4476707958e+01   3.2889464665e+01    0.4161517    0.2822525 -85.30 0.0008914038    1.849    0.459
        51 -11.7549    169.7101     50.6368   6.9662463068e+01   3.6209940837e+01    0.4863315    0.4115703 -33.44  0.001237372    1.351    0.260
        52  -8.8492    168.9377    235.7278   1.1108457555e+02  -5.6484396613e-01    0.2078265    0.1756922 -21.75 0.0003439249    1.270    0.213
        53 -11.6608    188.3638     29.5638   6.1844594544e+01   3.4652717514e+01    0.4914776    0.4211951  72.24  0.001478379    1.149    0.129
        54  -9.6218    154.3135    220.6580   1.1169535831e+02   4.8803068052e+00    0.2258076    0.1389343 -55.38   0.00105726    1.802    0.445
        55  -9.9178    130.0870    212.5373   1.1573106481e+02   1.0909684370e+01     0.266059    0.1998332 -81.85   0.00074479    1.603    0.376
        56  -9.0794    158.4740    236.5013   1.1340558088e+02   1.0505537346e+00    0.1350551    0.1230283  30.20 -0.0004643613    1.009    0.009
        57 -10.8904    176.5582    219.4809   1.0670915164e+02   1.2105614027e+00    0.5990213    0.1855183  33.95  0.001899701    3.752    0.733
