#   1 NUMBER                 Running object number                                     
#   2 MAG_AUTO               Kron-like elliptical aperture magnitude                    [mag]
#   3 X_IMAGE                Object position along x                                    [pixel]
#   4 Y_IMAGE                Object position along y                                    [pixel]
#   5 X_WORLD                Barycenter position along world x axis                     [deg]
#   6 Y_WORLD                Barycenter position along world y axis                     [deg]
#   7 A_WORLD                Profile RMS along major axis (world units)                 [deg]
#   8 B_WORLD                Profile RMS along minor axis (world units)                 [deg]
#   9 THETA_WORLD            Position angle (CCW/world-x)                               [deg]
#  10 FWHM_WORLD             FWHM assuming a gaussian core                              [deg]
#  11 ELONGATION             A_IMAGE/B_IMAGE                                           
#  12 ELLIPTICITY            1 - B_IMAGE/A_IMAGE                                       
         1 -15.7027      7.0623     69.9081   9.4027012967e+01   3.9299649283e+01  0.004264871  0.002598093 -87.54  0.004458896    1.619    0.382
         2 -13.9144    118.3050     28.2911   9.4126042446e+01   3.9270495534e+01  0.003233588  0.001024199 -45.98   0.00453372    2.917    0.657
         3 -15.2012    119.7647     54.7754   9.4126527679e+01   3.9288737499e+01  0.003708394  0.002060608 -44.02  0.005918541    1.717    0.418
         4 -15.1595    122.4520     36.8564   9.4129428251e+01   3.9276377968e+01  0.003877636  0.001381781 -24.88  0.004583519    2.718    0.632
         5 -15.4711     42.3915      8.2884   9.4059961339e+01   3.9257048865e+01  0.005809252  0.003634177 -40.11   0.01124467    1.535    0.348
         6 -14.1852     25.0070     31.3386   9.4043978158e+01   3.9273002520e+01  0.002738505  0.001680775  52.29  0.004634421    1.704    0.413
         7 -15.2243      8.3748     29.3802   9.4029425696e+01   3.9271719724e+01  0.003318828  0.002298226  25.63  0.006705257    1.502    0.334
         8 -13.4835    186.7263     13.5663   9.4186590156e+01   3.9260014085e+01   0.00175283  0.001563397  87.23  0.002242915    1.122    0.108
         9 -14.0079    189.4078     26.3748   9.4188568074e+01   3.9268826104e+01   0.00442832  0.001340773  55.10  0.005731761    3.636    0.725
        10 -12.5618    194.9983     23.8328   9.4193554405e+01   3.9267045703e+01  0.001995164 0.0008144924  88.86  0.002899045    2.438    0.590
        11 -15.6472     13.7090     20.5026   9.4034387605e+01   3.9265581712e+01  0.004646003  0.001970808 -40.52   0.00745525    2.237    0.553
        12 -14.9919    166.2757     30.1317   9.4168133692e+01   3.9271531990e+01  0.003524853   0.00197481   2.25  0.004605642    1.815    0.449
        13 -14.8397    145.6812     30.8294   9.4150018660e+01   3.9272114098e+01  0.002733594  0.001648451  -2.13  0.004012829    1.677    0.404
        14 -12.8583    222.8186      6.4735   9.4218502176e+01   3.9254937326e+01  0.002443107 0.0006689968 -84.47  0.003127526    3.540    0.718
        15 -12.9004    214.7467      9.5116   9.4211323091e+01   3.9257073848e+01  0.001256473 0.0008825457 -15.30  0.001499448    1.414    0.293
        16 -13.7085    215.2060     21.0516   9.4211388887e+01   3.9265023238e+01  0.001741426 0.0009884218 -69.97  0.002162994    1.688    0.407
        17 -13.2951    218.9345     15.1462   9.4214837011e+01   3.9260934173e+01  0.001440504   0.00128966 -12.02  0.002488724    1.120    0.107
        18 -15.8981     99.7172     12.7771   9.4110181059e+01   3.9259891480e+01  0.003916544  0.002237014  -6.36  0.003330406    1.760    0.432
        19 -11.7785    202.0908     11.4999   9.4200147673e+01   3.9258510607e+01 0.0006518808 0.0005397976 -68.34 0.0003407477    1.164    0.141
        20 -12.5345    120.6062      3.7047   9.4128803739e+01   3.9253543615e+01  0.001546606 0.0005242115  33.04  0.002147985    3.150    0.683
        21 -11.8161    153.6105      8.1187   9.4157662060e+01   3.9256426622e+01 0.0006602973 0.0004933581 -17.25 0.0004802785    1.326    0.246
        22 -13.8462      8.3263      3.2869   9.4030193300e+01   3.9253741156e+01  0.003631834  0.001813737  35.04  0.006014734    2.105    0.525
        23 -11.9615     26.5744      3.9605   9.4046201112e+01   3.9254132035e+01  0.000700194 0.0005255219 -11.28 0.0006893194    1.332    0.249
        24 -12.0595    126.0091      8.8232   9.4133395741e+01   3.9257045062e+01 0.0007046736 0.0005214679  81.44  0.001357325    1.359    0.264
        25 -11.6286    232.9181      1.7532   9.4227510672e+01   3.9251630127e+01 0.0007741119 0.0004956408  -2.76 0.0009085456    1.579    0.366
        26 -12.4970     80.7996      1.8151   9.4093896336e+01   3.9252423212e+01  0.001551159 0.0004766443  -7.89  0.002092067    3.253    0.693
        27 -10.8228     62.4817      1.5080   9.4077816117e+01   3.9252291676e+01 0.0003473985 0.0003369816 -57.74 0.0008103185    1.014    0.014
        28 -11.3699     59.4873      1.5252   9.4075185488e+01   3.9252316433e+01 0.0006788865 0.0005082799  -5.55  0.001114382    1.346    0.257
        29 -12.1232    201.2930    191.4986   9.4194149518e+01   3.9382544924e+01 0.0008392564 0.0006964747 -14.46  0.001853219    1.201    0.167
        30 -13.1494     57.3038    246.8487   9.4065738412e+01   3.9421360463e+01  0.002151137   0.00112148 -32.88  0.003802267    1.851    0.460
        31 -13.8632     27.5101    246.8151   9.4039506721e+01   3.9421459970e+01  0.001908946  0.001394958 -22.55  0.003695701    1.346    0.257
        32 -12.0530      2.8805    249.8959   9.4017724544e+01   3.9423679692e+01 0.0009922932 0.0007183698   6.76  0.002045673    1.413    0.292
        33 -14.3934      8.9894    245.6056   9.4023237333e+01   3.9420699937e+01  0.002510862  0.001726488  32.96  0.003281274    1.519    0.341
        34 -12.1392     48.9494    181.2321   9.4060404648e+01   3.9376184079e+01  0.001356007 0.0007051716 -62.91  0.002392702    1.824    0.452
        35 -11.6322    121.9749    181.1718   9.4124662112e+01   3.9375819739e+01  0.001101396  0.000364997  46.41  0.001492459    3.278    0.695
        36 -12.5050     84.9139    180.2283   9.4092080776e+01   3.9375337855e+01  0.001084212 0.0006456887  45.44  0.002014861    1.761    0.432
        37 -11.1633    194.4930    177.5069   9.4188578928e+01   3.9372938934e+01 0.0003530925 0.0003314717 -50.57 -5.862869e-05    1.021    0.021
        38 -13.5691    123.9566    166.6989   9.4126842034e+01   3.9365838060e+01  0.001647721 0.0009759453  72.78  0.003066406    1.728    0.421
        39 -12.1545     25.4122    155.7794   9.4040482930e+01   3.9358743135e+01  0.001500688 0.0006837418 -38.41  0.002483627    2.094    0.523
        40 -12.4723     77.6296    157.2981   9.4086371646e+01   3.9359570199e+01  0.001137662 0.0007376148  -6.47  0.001108123    1.551    0.355
        41 -13.0898     74.0281    153.4531   9.4083320866e+01   3.9356936617e+01  0.001774544  0.001091643 -19.98  0.003310348    1.602    0.376
        42 -12.6673    110.8595    155.0352   9.4115672349e+01   3.9357862037e+01  0.001604626 0.0005732369  50.28  0.002274327    3.022    0.669
        43 -11.2180     27.5103    158.9960   9.4042229037e+01   3.9360950987e+01 0.0007455489 0.0006372354  65.22  0.001432748    1.204    0.169
        44 -11.3044     55.6291    156.1146   9.4067054095e+01   3.9358849383e+01 0.0009026328 0.0003530543 -28.77  0.001374339    2.466    0.594
        45 -11.9450     85.6021    153.2686   9.4093507767e+01   3.9356758715e+01  0.001187076 0.0005707113 -61.47  0.002015045    1.966    0.491
        46 -12.0838    103.5704    149.8965   9.4109416017e+01   3.9354354577e+01 0.0009784476 0.0006317845 -49.36  0.001914343    1.478    0.323
        47 -10.6369     60.2545    149.4381   9.4071327940e+01   3.9354229463e+01 0.0004713762 0.0003245771  18.10 0.0004754299    1.503    0.334
        48 -11.9698      6.0135    147.5145   9.4023675518e+01   3.9353125398e+01  0.001155421 0.0007220613  36.21  0.002204988    1.675    0.403
        49 -10.6889     38.4124    145.7777   9.4052227845e+01   3.9351798804e+01  0.000500683 0.0003025727 -67.94 0.0005096545    1.584    0.369
        50 -10.8809     44.7416    145.2482   9.4057811300e+01   3.9351407800e+01 0.0004958639 0.0003655805 -46.38 0.0004291798    1.299    0.230
        51 -11.6599    148.7980    140.7127   9.4149474314e+01   3.9347814066e+01 0.0007427268 0.0004718591  74.68  0.001422906    1.604    0.376
        52 -12.2285     42.5123    140.0177   9.4056011742e+01   3.9347813080e+01  0.000770684 0.0005260638 -44.30 0.0006621294    1.404    0.288
        53 -12.4303     45.3150    135.2001   9.4058625256e+01   3.9344482058e+01  0.001370217 0.0008694931 -46.45  0.002664839    1.506    0.336
        54 -10.8061     15.0154    139.2044   9.4031851952e+01   3.9347364224e+01 0.0004750013 0.0004310551 -14.76 0.0003826781    1.102    0.093
        55 -11.8116    245.9961    135.4963   9.4235115769e+01   3.9343717022e+01 0.0005421797 0.0002211079  32.02 0.0008106611    2.592    0.614
        56 -11.9446     62.1215    134.1314   9.4073439504e+01   3.9343674705e+01  0.001131401 0.0005622214  13.85  0.001042717    2.075    0.518
        57 -12.2169    132.9061    129.0802   9.4135846080e+01   3.9339874962e+01  0.001977937 0.0006524462 -81.73  0.002780594    2.923    0.658
        58 -13.0765     85.0337    115.5848   9.4094155508e+01   3.9330795773e+01  0.002570165 0.0009675003 -16.86    0.0038571    2.618    0.618
        59 -14.5649     90.6918    109.0418   9.4099329746e+01   3.9326262191e+01  0.004106294  0.001910006 -21.94   0.00685408    2.107    0.525
        60 -14.2872    104.4804    122.7849   9.4111037654e+01   3.9335669470e+01   0.00428381  0.002246396  -2.89  0.007557366    1.926    0.481
        61 -15.0026    106.2091    108.5450   9.4112988797e+01   3.9325849721e+01  0.004008634  0.002261007 -74.75  0.007359637    1.708    0.415
        62 -14.7968     18.0743    110.9584   9.4035418913e+01   3.9327890038e+01  0.002977724  0.002227319 -25.42  0.003543661    1.310    0.236
        63 -15.8422     24.8382     95.0860   9.4041857860e+01   3.9316926512e+01  0.007582597  0.003260913 -30.46   0.01221394    2.243    0.554
        64 -10.9231     57.7827    128.0175   9.4069811126e+01   3.9339480596e+01 0.0005820033 0.0004399845 -49.20 0.0005510118    1.266    0.210
        65 -11.2871    185.1569    124.1807   9.4181942783e+01   3.9336241878e+01 0.0004877663 0.0003895529  42.93 0.0002864466    1.307    0.235
        66 -11.1727    180.7433    121.3647   9.4178144884e+01   3.9334323902e+01 0.0006599532 0.0004286617 -19.95  0.001104306    1.518    0.341
        67 -11.2859     60.7180    124.8533   9.4072489610e+01   3.9337287857e+01 0.0007929726 0.0003874037 -26.75  0.001343739    1.992    0.498
        68 -12.6209      4.1306    119.8768   9.4022880468e+01   3.9334089970e+01  0.001603315 0.0005671188   0.81  0.002037761    2.869    0.651
        69 -12.4201     45.6129    110.2318   9.4059656068e+01   3.9327276996e+01  0.001451919 0.0008380249 -53.05  0.002697562    1.647    0.393
        70 -11.8817    121.0754    111.6819   9.4125965824e+01   3.9327942438e+01  0.000920565 0.0004442256  31.35   0.00136611    2.176    0.540
        71 -12.2247     61.5399    108.1582   9.4073724101e+01   3.9325780900e+01  0.001537934 0.0008452337  85.64  0.002763311    1.820    0.451
        72 -12.8969     62.3065     99.4260   9.4074665615e+01   3.9319760915e+01  0.001936659 0.0008586271  47.83  0.003091395    2.394    0.582
        73 -13.4609     50.1021     98.9661   9.4063949721e+01   3.9319495838e+01  0.002430375  0.001080203 -25.98  0.003017718    2.188    0.543
        74 -12.9349     43.1609     91.3869   9.4058080382e+01   3.9314302567e+01  0.001990826 0.0006265111  83.62   0.00268098    3.246    0.692
        75 -11.4115    175.3204    110.6689   9.4173693333e+01   3.9326981263e+01 0.0003841335 0.0002375388  46.76 0.0007048816    1.694    0.410
        76 -12.4851    135.9047    103.3482   9.4139255266e+01   3.9322130089e+01  0.001210865 0.0007401824  -2.57   0.00159257    1.653    0.395
        77 -12.4661    122.8850    102.4748   9.4127834306e+01   3.9321589860e+01 0.0008573114 0.0006878536  16.01   0.00185791    1.288    0.224
        78 -12.4436    136.9968     96.1977   9.4140429893e+01   3.9317197898e+01  0.001026764 0.0007555489  79.98  0.002132564    1.370    0.270
        79 -14.3079     30.2481    118.9123   9.4045877493e+01   3.9333321379e+01  0.007404067  0.001652191 -70.15  0.008867863    4.001    0.750
        80 -13.4500     99.9641     94.4753   9.4107924142e+01   3.9316183614e+01  0.001175837  0.000874459  21.76    0.0024571    1.395    0.283
        81 -11.7648     89.7809     87.4823   9.4099184106e+01   3.9311410998e+01  0.001017472 0.0005540579  22.70  0.001810451    1.910    0.476
        82 -11.4879    125.2340     86.5547   9.4130378515e+01   3.9310609187e+01 0.0008143049 0.0005231706   0.92  0.001577429    1.581    0.367
        83 -13.2838    188.5810     84.4754   9.4186126907e+01   3.9308865132e+01  0.001570904 0.0007451873 -18.22  0.001200102    2.078    0.519
        84 -12.5342    132.7919     86.0108   9.4137038846e+01   3.9310198685e+01 0.0006416611 0.0005177297  -5.79  0.001281332    1.250    0.200
        85 -14.2867      2.4972     96.8861   9.4022160306e+01   3.9318255363e+01  0.003101275  0.001518684  86.56  0.004135646    2.042    0.510
        86 -13.2815    238.2111     80.3088   9.4229875645e+01   3.9305731551e+01  0.001334004 0.0007418434  10.27  0.002410516    1.847    0.459
        87 -13.2835    162.6009     72.1503   9.4163655596e+01   3.9300503388e+01   0.00167872 0.0008891884 -35.93   0.00298956    1.815    0.449
        88 -14.0871    161.0640     80.4830   9.4162056712e+01   3.9306252654e+01  0.002352078  0.001009874 -43.32   0.00178391    2.203    0.546
        89 -14.4597    170.8610     76.8373   9.4170776723e+01   3.9303691786e+01  0.002589532  0.001949532  -2.72  0.004962872    1.344    0.256
        90 -15.1531     39.3187     67.8917   9.4055426694e+01   3.9298129806e+01   0.01165427  0.001840902 -10.58   0.01143078    6.189    0.838
        91 -13.8888     51.2626     68.6256   9.4065902018e+01   3.9298585504e+01  0.002518643  0.001589185  53.47  0.004839777    1.655    0.396
        92 -13.2047     75.6084     73.9006   9.4087139429e+01   3.9302115463e+01  0.002637073  0.001025632  -1.18  0.003894952    2.602    0.616
        93 -14.4464     87.2873     64.8390   9.4097680392e+01   3.9295820057e+01  0.004035207  0.001527137 -54.69  0.003966398    2.460    0.593
        94 -12.0796     52.2623     79.9735   9.4066432239e+01   3.9306400339e+01  0.000546955 0.0005045329  86.83 0.0002895646    1.089    0.081
        95 -13.3571     56.7430     78.6279   9.4070412205e+01   3.9305454145e+01  0.001412192 0.0008356581 -66.67  0.001054324    1.615    0.381
        96 -13.6867     60.8419     75.4080   9.4074113845e+01   3.9303218020e+01  0.001841376  0.001078937 -69.83  0.001157276    1.635    0.389
        97 -12.4180    170.8265    241.0066   9.4165866004e+01   3.9416813468e+01 0.0006614255 0.0003097517 -52.95  0.001097358    2.014    0.503
        98 -12.2309      5.9021     51.0412   9.4026579854e+01   3.9286654231e+01 0.0008962867 0.0006978619 -59.74  0.001127777    1.229    0.186
        99 -12.9517    210.7285     77.7899   9.4205791883e+01   3.9304143293e+01  0.001412512 0.0007052015  39.63  0.002400656    2.111    0.526
       100 -13.0487    134.9166     79.8048   9.4139092735e+01   3.9305912356e+01  0.001768091 0.0008881427   5.51  0.002341149    2.033    0.508
       101 -11.9168    113.9000     80.4182   9.4120600165e+01   3.9306433800e+01 0.0009124031 0.0007890469  71.19  0.001749676    1.182    0.154
       102 -11.8655     90.7674     79.9197   9.4100281021e+01   3.9306195701e+01  0.001013082 0.0006675097 -34.79  0.001481169    1.467    0.318
       103 -11.3604     69.4981     80.3930   9.4081570201e+01   3.9306615546e+01 0.0006245738 0.0005821996 -71.45 0.0008587795    1.045    0.043
       104 -12.4435     41.8506     77.3739   9.4057360108e+01   3.9304652720e+01 0.0009105438 0.0007294652 -79.70 0.0008366138    1.219    0.180
       105 -12.0914    219.4308     74.9047   9.4213525614e+01   3.9302109030e+01 0.0006425285 0.0004907032 -20.49 0.0004735146    1.292    0.226
       106 -13.5516    133.0862     67.4113   9.4137855682e+01   3.9297381348e+01  0.002733095  0.001298228 -44.42  0.004630055    1.998    0.499
       107 -13.3660    199.2986     70.0518   9.4195972769e+01   3.9298871093e+01  0.001693779 0.0008840714 -15.79  0.002203518    1.898    0.473
       108 -10.6727    152.3376     71.3089   9.4154659678e+01   3.9299974096e+01 0.0003956049 0.0002245201 -44.06 0.0003405987    1.682    0.405
       109 -14.3079     94.7500    236.2500   9.4099031523e+01   3.9413895006e+01  0.003068785  0.001299881  50.80  0.003744735    2.513    0.602
       110 -14.3518    101.1219     49.9334   9.4110290798e+01   3.9285487196e+01  0.002453754  0.001536808  24.42  0.004709513    1.661    0.398
       111 -11.1184     13.6129    206.2082   9.4028534645e+01   3.9393536488e+01 0.0006548411 0.0003653767 -61.83   0.00118341    1.703    0.413
       112 -12.5397    109.6480     54.1804   9.4117655039e+01   3.9288374520e+01  0.001097387 0.0006459715 -78.60  0.001639627    1.648    0.393
       113 -13.9204    112.3656     40.1947   9.4120465178e+01   3.9278725225e+01  0.002202567  0.000887449 -44.22  0.003305827    2.338    0.572
       114 -13.6177      8.8551    211.3783   9.4024186064e+01   3.9397117411e+01  0.002785509  0.001386167   7.13  0.004775609    2.056    0.514
       115 -11.1632     76.0430     95.6972   9.4086856546e+01   3.9317132098e+01 0.0004773109 0.0004335015 -18.13 0.0001829535    1.096    0.088
       116 -11.4754    100.0488     65.0299   9.4108890613e+01   3.9295894178e+01 0.0005404129 0.0005321264 -73.72 0.0009395065    1.033    0.032
       117 -13.4981     78.8268     61.0746   9.4090359111e+01   3.9293263782e+01  0.001537618  0.001145046 -47.64  0.003235621    1.286    0.222
       118 -13.8594    177.8462     57.3827   9.4177492779e+01   3.9290251352e+01  0.001973557  0.001367094  54.14  0.002475282    1.503    0.335
       119 -11.9587     38.9649     60.6098   9.4055340118e+01   3.9293113849e+01  0.000907464 0.0005479106  40.89  0.001695901    1.736    0.424
       120 -12.4078     24.6048     60.2087   9.4042731906e+01   3.9292896221e+01 0.0007702785 0.0006248869 -86.00 0.0008701193    1.216    0.178
       121 -11.8506    247.7720     54.5513   9.4239026976e+01   3.9287930383e+01  0.001260193 0.0005191009  69.07  0.001931921    2.539    0.606
       122 -11.8527    250.0489     49.0687   9.4241186745e+01   3.9284139865e+01 0.0008117987  0.000502106 -63.42 0.0007345408    1.543    0.352
       123 -11.2400     56.8222     55.8396   9.4071180547e+01   3.9289752056e+01  0.000779876 0.0002193253  -9.85 0.0009930413    3.538    0.717
       124 -13.5210     67.0185     49.1158   9.4080346729e+01   3.9285075319e+01  0.001642497  0.001365441  81.02  0.003638855    1.212    0.175
       125 -11.4815     86.1685     49.7626   9.4097155397e+01   3.9285436925e+01 0.0005353309 0.0004711567  46.81 0.0007127355    1.184    0.155
       126 -13.8199    157.3182     44.9909   9.4159821297e+01   3.9281815177e+01  0.003272689 0.0008876704 -19.31  0.004195603    3.581    0.721
       127 -11.1908    169.1687     43.3628   9.4170282854e+01   3.9280634499e+01 0.0007647591 0.0004040015  -4.97 0.0008100953    1.906    0.475
       128 -13.6725      8.7590     42.8044   9.4029346340e+01   3.9280967714e+01  0.003121922  0.001625433  37.48  0.005440321    2.019    0.505
       129 -12.5279     24.5035    217.3129   9.4037775245e+01   3.9401144537e+01  0.001405149  0.001130411  49.60  0.002738472    1.295    0.228
       130 -14.0282     25.7289    227.6637   9.4038532773e+01   3.9408271512e+01  0.002417606 0.0009700817 -63.19  0.003779668    2.335    0.572
       131 -13.1919     33.7185     32.6776   9.4051590881e+01   3.9273889535e+01  0.001542917 0.0007770347  25.32  0.002645107    2.071    0.517
       132 -13.7954     20.5728    224.5863   9.4034089386e+01   3.9406171739e+01  0.001597028  0.001166815 -32.85  0.001900151    1.327    0.247
       133 -12.9500     53.1171    214.5374   9.4063047063e+01   3.9399114743e+01  0.001069847 0.0006969759  48.85  0.002082732    1.605    0.377
       134 -12.4760    198.6579     37.1847   9.4196376819e+01   3.9276226927e+01   0.00124929 0.0007198453  20.99  0.001730493    1.802    0.445
       135 -13.6047     67.9568    222.7861   9.4075856000e+01   3.9404735371e+01  0.002230456  0.001501572 -39.58  0.004470883    1.429    0.300
       136 -14.2888     62.9671    214.7864   9.4071709359e+01   3.9399244690e+01   0.00215042   0.00195515  49.73  0.004521059    1.145    0.127
       137 -13.9740    217.8145     41.9082   9.4213070456e+01   3.9279380913e+01  0.002753168  0.001191858  -8.52  0.004417767    2.311    0.567
       138 -12.9626    205.3916     40.3598   9.4202200164e+01   3.9278379629e+01  0.001358791  0.000745424  33.06  0.001757275    1.911    0.477
       139 -13.1727     94.4972    218.7502   9.4099341464e+01   3.9401838193e+01 0.0008932622 0.0007481625 -35.62   0.00159552    1.156    0.135
       140 -12.6236    105.3505     35.2124   9.4114451648e+01   3.9275324538e+01   0.00142382 0.0005849783 -72.42  0.002237005    2.312    0.568
       141 -12.9244     75.8721     37.4872   9.4088481438e+01   3.9277024260e+01  0.000958666 0.0007006736  -7.44 0.0008775649    1.375    0.273
       142 -12.3120     70.4686     36.5346   9.4083762632e+01   3.9276391508e+01 0.0007488487 0.0006129702 -28.62 0.0006074736    1.193    0.162
       143 -11.5633     45.4480     36.5083   9.4061778964e+01   3.9276480306e+01 0.0007731029 0.0003696544 -46.46 0.0006964364    1.981    0.495
       144 -12.7095     47.2602     32.2994   9.4063500540e+01   3.9273572639e+01  0.001522021 0.0004770782 -41.27  0.002112252    2.968    0.663
       145 -12.0772    241.6890     36.1731   9.4234215176e+01   3.9275299922e+01  0.001346161 0.0004961768   2.82  0.001978882    2.763    0.638
       146 -13.2492     99.0012    216.8289   9.4103364374e+01   3.9400494138e+01   0.00123057 0.0007508542  69.26  0.002320388    1.686    0.407
       147 -13.6030    139.4773     21.7594   9.4144839377e+01   3.9265894467e+01  0.001882012  0.001248423  17.03  0.002086726    1.559    0.358
       148 -13.0093    152.2714     31.3832   9.4155792313e+01   3.9272463617e+01  0.001360771 0.0006007854 -72.11  0.001604738    2.158    0.537
       149 -11.3020     85.3128    215.8689   9.4091344965e+01   3.9399893661e+01 0.0006364578  0.000479344  17.66   0.00132887    1.374    0.272
       150 -11.3604     51.7710     36.4554   9.4067336340e+01   3.9276417229e+01  0.000874265 0.0003326307  -6.15  0.001301227    2.639    0.621
       151 -11.6466    211.2188     33.1938   9.4207530282e+01   3.9273411088e+01  0.000503472 0.0003914745  49.42 0.0005181878    1.340    0.254
       152 -11.0812    157.5022    213.5155   9.4154956654e+01   3.9397936387e+01 0.0003459838 0.0003384705 -61.98 -2.06954e-06    1.023    0.023
       153 -11.8784    222.6482     21.5466   9.4217912415e+01   3.9265324609e+01  0.001035665 0.0007396422  23.51   0.00092561    1.455    0.313
       154 -13.1641    216.1304     28.6682   9.4211978097e+01   3.9270266648e+01  0.001080054 0.0007570342  68.37  0.001779191    1.464    0.317
       155 -12.0663    147.0963    238.6901   9.4145042958e+01   3.9415333356e+01 0.0006319496 0.0004624644  74.47 0.0009263007    1.390    0.281
       156 -12.0583     45.6787    208.9668   9.4056671570e+01   3.9395307521e+01 0.0009525171 0.0003858726  78.83  0.001448494    2.531    0.605
       157 -11.9700     72.2025    207.0260   9.4080075863e+01   3.9393857869e+01 0.0009612454 0.0006896019  74.56  0.001968102    1.418    0.295
       158 -10.6298     89.3082     30.3075   9.4100505182e+01   3.9272017567e+01 0.0003864595 0.0002287106 -45.33 0.0002420166    1.613    0.380
       159 -13.1659     56.0611     27.6514   9.4071375693e+01   3.9270332780e+01  0.001348299 0.0008497548   3.88  0.001672326    1.617    0.382
       160 -11.9493     97.3114     26.6195   9.4107648454e+01   3.9269440321e+01 0.0009093136 0.0006706177  76.23  0.001887718    1.376    0.273
       161 -11.3457     80.2023    208.4041   9.4087074693e+01   3.9394772619e+01 0.0005198486 0.0003081893  19.21 0.0009521642    1.748    0.428
       162 -10.4295    149.4976    206.5441   9.4148119906e+01   3.9393171659e+01   0.00035336 0.0003298991 -48.42 0.0001009614    1.028    0.027
       163 -12.9508     57.4110    203.7643   9.4067157689e+01   3.9391673715e+01  0.001581119 0.0007012999  72.26  0.002528168    2.336    0.572
       164 -13.0801     39.3733    195.4157   9.4051540498e+01   3.9385996579e+01  0.001355667  0.001134905  56.20  0.002707403    1.239    0.193
       165 -11.4242     70.8083     16.9808   9.4084657828e+01   3.9262916818e+01 0.0005664979 0.0004985395  -5.90  0.000420498    1.148    0.129
       166 -13.5217     29.9300    169.6164   9.4044028925e+01   3.9368258851e+01  0.002266421 0.0009279529 -43.05  0.001371153    2.306    0.566
       167 -12.8325     16.6945    196.1822   9.4031558553e+01   3.9386616210e+01  0.002706158 0.0007603667 -77.44  0.003548761    3.350    0.701
       168 -13.4035     22.5330    181.1963   9.4037161739e+01   3.9376267455e+01  0.001490218  0.001378681 -65.27  0.002103077    1.043    0.041
       169 -14.8818      7.5050    183.9595   9.4023852344e+01   3.9378230684e+01    0.0036239  0.003275148  82.90  0.008384723    1.115    0.103
       170 -15.0160     15.4073    175.4231   9.4031071198e+01   3.9372317975e+01   0.00703535  0.003171233  58.64   0.01107383    2.343    0.573
       171 -11.5259    163.7892    195.3866   9.4161030796e+01   3.9385413807e+01 0.0008382882 0.0002149474  56.00 0.0009636558    4.429    0.774
