#   1 NUMBER                 Running object number                                     
#   2 MAG_AUTO               Kron-like elliptical aperture magnitude                    [mag]
#   3 X_IMAGE                Object position along x                                    [pixel]
#   4 Y_IMAGE                Object position along y                                    [pixel]
#   5 X_WORLD                Barycenter position along world x axis                     [deg]
#   6 Y_WORLD                Barycenter position along world y axis                     [deg]
#   7 A_WORLD                Profile RMS along major axis (world units)                 [deg]
#   8 B_WORLD                Profile RMS along minor axis (world units)                 [deg]
#   9 THETA_WORLD            Position angle (CCW/world-x)                               [deg]
#  10 FWHM_WORLD             FWHM assuming a gaussian core                              [deg]
#  11 ELONGATION             A_IMAGE/B_IMAGE                                           
#  12 ELLIPTICITY            1 - B_IMAGE/A_IMAGE                                       
         1 -14.0350    185.2925     22.8016   7.2783384356e+01   3.5765409804e+01     2.027972     1.253861  -7.12  0.006032855    1.846    0.458
         2 -14.2262    192.5941     16.7064   6.9794003424e+01   3.4499918451e+01     1.722892     1.510109   3.22  0.005419252    1.185    0.156
         3 -13.9832    198.4632      8.9786   6.6592096728e+01   3.3728158873e+01     1.805043    0.7498347  50.02  0.001327228    2.416    0.586
         4 -11.2947     32.8847      3.4134   1.0547171364e+02   7.0959257171e+01     0.429209    0.1046735 -44.53  0.001627547    3.405    0.706
         5 -11.3887    135.0863    249.5884   1.2856933056e+02   1.2081515265e+01    0.4491437     0.170984  47.88   0.00275276    1.866    0.464
         6 -11.5553    247.8889    248.0352   1.1217146478e+02  -3.4874777745e+00    0.2837227    0.2034591   3.56  0.002458779    1.405    0.288
         7 -12.0572    248.1354    241.2673   1.1126495364e+02  -3.0368492129e+00    0.3545858    0.2096574  50.30   0.00250236    1.981    0.495
         8 -12.0278    135.9085    241.2205   1.2769495231e+02   1.2936457833e+01    0.5358127    0.1858485  54.94  0.002650362    3.098    0.677
         9 -12.8561    135.2198    227.3351   1.2646705447e+02   1.4729761967e+01     0.493655     0.369924  64.47  0.003875276    1.278    0.218
        10 -11.9073    152.5454    243.1702   1.2536618644e+02   1.0373852608e+01     0.494077    0.2649426 -66.87  0.003038192    3.471    0.712
        11 -11.9041    146.1488    240.3247   1.2605439625e+02   1.1601162261e+01    0.2804493     0.181765  46.60 0.0004461874    1.110    0.099
        12 -12.6525    134.7604    235.6364   1.2734833259e+02   1.3766162356e+01    0.4744413     0.237589  56.99  0.003024722    1.847    0.458
        13 -11.8169    130.2483    235.8346   1.2806396861e+02   1.4375755849e+01    0.5494905    0.2362379 -71.35   0.00248094    5.911    0.831
        14 -16.8578     97.2124    240.8566   1.3354100408e+02   1.8172141806e+01     23.92341     10.87843  82.87    0.1147362    4.908    0.796
        15 -10.3599    177.5526    218.1746   1.1871217622e+02   9.4740343054e+00    0.2058161    0.1715742  80.83  0.001036634    1.643    0.391
        16 -10.0526    246.7901    218.3734   1.0828937659e+02  -1.0794025346e+00    0.1592623   0.07011951  35.60 0.0006845474    1.722    0.419
        17  -9.0726    156.1980    218.3627   1.2214386346e+02   1.2737416880e+01    0.1486079   0.07857818  50.19 0.0002295534    1.531    0.347
        18 -10.0203    134.2022    217.9394   1.2566333874e+02   1.6094239236e+01    0.1953041    0.1156438  58.72 0.0007642878    1.559    0.358
        19 -12.2596    101.7470    213.1985   1.3054658824e+02   2.1388665433e+01    0.4867317    0.2938416  69.89  0.003282854    1.670    0.401
        20 -10.2038    233.0862    216.2516   1.0996295620e+02   1.1258731445e+00    0.1616445    0.1395294  25.31 0.0005019643    1.257    0.204
        21 -10.2071    182.9205    213.8096   1.1730288988e+02   9.1327763481e+00     0.199489    0.1192627  46.06 0.0008749328    1.326    0.246
        22  -9.9055    151.7356    212.6152   1.2219623123e+02   1.4145043001e+01    0.2242349    0.1781295 -20.57 0.0008825099    1.847    0.459
        23 -10.4089    141.4014    212.8026   1.2391969058e+02   1.5699786335e+01    0.2606227    0.1536401  55.80  0.001067877    1.502    0.334
        24 -11.0411    155.6138    232.1125   1.2376516042e+02   1.1182765959e+01    0.1992874    0.1418829  41.62 0.0008168358    1.116    0.104
        25  -9.3621    186.2323    210.3794   1.1632102450e+02   8.9996142322e+00    0.1487505   0.08474433  49.33 0.0001013144    1.510    0.338
        26 -14.1450     27.5560    234.6814   1.4358267742e+02   2.6995887534e+01    0.6876707    0.3946408 -81.03     0.003673    1.751    0.429
        27 -16.3222      9.4974    247.2140   1.4655966159e+02   2.6965031676e+01     2.377854    0.7226145 -86.65   0.01076281    3.198    0.687
        28 -14.1808     36.9410    179.4502   1.3913835656e+02   3.4869435328e+01     1.426862    0.9502337  51.15  0.003159131    1.328    0.247
        29  -9.9320    167.6002    207.8170   1.1899825339e+02   1.2268146261e+01     0.279765    0.1790635  80.03  0.001479401    3.136    0.681
        30 -10.5025    134.7133    208.1364   1.2450662739e+02   1.7346047843e+01    0.2411628    0.1705081 -28.89  0.001568546    2.353    0.575
        31 -11.4495     93.3352    205.1149   1.3122531483e+02   2.3747980695e+01    0.4828259    0.2413303  55.85  0.002994341    1.659    0.397
        32 -10.1597     89.0964    204.6445   1.3190734836e+02   2.4389769316e+01    0.2024928    0.1222166  65.76 0.0007200841    1.477    0.323
        33 -11.1363    246.7712    205.8170   1.0640882748e+02  -1.6095978264e-02    0.5259883    0.1448335  34.78  0.002215337    3.531    0.717
        34  -9.8375    175.0168    205.3151   1.1745345715e+02   1.1390455985e+01    0.2347976    0.1794435  18.58 0.0003906219    1.485    0.327
        35 -10.4652    171.4411    205.2235   1.1802800232e+02   1.1976405160e+01    0.2240676    0.1723202 -88.90  0.001498675    1.967    0.492
        36  -9.0371    183.3721    206.1451   1.1620622059e+02   9.9466362215e+00    0.1297294    0.1066652 -56.62 0.0009407973    1.669    0.401
        37 -10.7213    126.1801    205.5417   1.2565984610e+02   1.8996093941e+01     0.207676    0.1605592  56.39  0.000612307    1.040    0.039
        38 -15.2397     17.5645    239.1926   1.4518624419e+02   2.7325826727e+01    0.7701722    0.5479514  44.40  0.004161589    1.564    0.361
        39  -9.9934    173.1426    239.4537   1.2188221669e+02   7.8150978873e+00    0.1790152    0.1477421 -68.02 0.0009857164    1.790    0.441
        40  -9.8694     41.3796    205.7976   1.4002787375e+02   2.9951601264e+01    0.1696482     0.104058  66.75 0.0005390608    1.209    0.173
        41 -11.7560     44.8399    202.3754   1.3924693813e+02   3.0129499188e+01    0.5370452    0.3007289  57.73  0.003936103    1.336    0.251
        42  -9.4428    163.2549    205.0209   1.1935420818e+02   1.3312719183e+01    0.1510625    0.1258261  41.57 0.0004454553    1.075    0.069
        43  -9.5337    148.3828    205.2937   1.2187369121e+02   1.5628946917e+01     0.199466    0.1123981  38.53 0.0007248184    1.580    0.367
        44 -10.1548    106.9952    205.3028   1.2890807927e+02   2.1827064883e+01     0.154532      0.10897  53.40 0.0004511366    1.106    0.096
        45 -10.7663    103.0935    203.1859   1.2936758266e+02   2.2697902322e+01    0.2035904    0.1919712 -63.89  0.001070824    1.447    0.309
        46  -9.9185    166.8990    203.0913   1.1849630868e+02   1.2974677457e+01    0.1712318    0.1374773  46.19 0.0005389799    1.038    0.037
        47 -10.0979    169.9018    200.0990   1.1759415613e+02   1.2869651061e+01    0.1858336    0.1313304  43.65 0.0003350322    1.128    0.114
        48 -10.3505    133.1344    202.5110   1.2412914916e+02   1.8377334254e+01    0.1758805    0.1502175  89.10  0.000301971    1.310    0.237
        49 -11.1021     70.8700    201.8849   1.3479639749e+02   2.7171648023e+01    0.3602718    0.1616481  55.85 0.0002976652    1.816    0.449
        50  -8.8247    224.7272    202.3124   1.0914469742e+02   3.7213188552e+00   0.09412254   0.08421019  59.11 0.0002842002    1.554    0.357
        51 -10.9394    197.7775    200.6333   1.1310593671e+02   8.2456967216e+00    0.4113952    0.1967011  49.97  0.001834833    1.914    0.477
        52  -9.2463    108.5754    201.8317   1.2828477531e+02   2.2125654726e+01    0.1435653   0.09407616 -87.36 0.0009388893    1.810    0.447
        53 -10.3868    122.6718    200.8685   1.2574224332e+02   2.0201630603e+01    0.2198707     0.130269  50.38 0.0007271306    1.347    0.257
        54  -9.8623    250.6603    199.4911   1.0485263842e+02  -5.2469074385e-02    0.1636273   0.09417772 -19.76   0.00105856    1.862    0.463
        55 -11.0650    141.6387    198.1787   1.2214535439e+02   1.7672118295e+01    0.2783867    0.2077649  22.33 0.0009873434    1.737    0.424
        56  -9.3243    158.8142    199.3808   1.1936229782e+02   1.4762560812e+01     0.160587   0.08854373  38.53 0.0003698786    1.597    0.374
        57  -9.4434    100.5986    198.6199   1.2934607101e+02   2.3753755345e+01    0.1369392    0.1292276  14.43  0.000654699    1.563    0.360
        58 -10.7298     58.3725    199.1516   1.3673350875e+02   2.9122854556e+01    0.2335529    0.1188147  83.06  0.001259039    2.046    0.511
        59 -12.4157    144.6658    248.9866   1.2709588708e+02   1.0833725975e+01     0.676469    0.2833281  41.53  0.004261459    1.786    0.440
        60 -10.4322     52.9511    197.9553   1.3757971671e+02   2.9946819039e+01    0.1620396    0.1311826  66.63   0.00134585    1.179    0.152
        61  -9.6857     95.7157    196.6812   1.3001048625e+02   2.4740934507e+01     0.166747    0.1275442 -58.39 0.0006109386    1.630    0.387
        62 -11.1213    142.7323    228.4854   1.2539734136e+02   1.3497705440e+01    0.2392852    0.1664021  89.18  0.001194084    2.058    0.514
        63  -9.7338     79.6091    182.0505   1.3148036410e+02   2.9351436033e+01      0.18496    0.1197033  58.91 0.0005070948    1.271    0.213
        64 -12.0428     75.0784    194.4977   1.3345146398e+02   2.7843020145e+01    0.3052484    0.2709576 -59.17  0.002023588    1.582    0.368
        65 -11.9724     79.4683    187.4765   1.3202946580e+02   2.8445065256e+01    0.2391796     0.220823 -58.16 0.0007787828    1.528    0.345
        66  -9.6675    113.8010    195.9706   1.2674663202e+02   2.2261436507e+01    0.2140011    0.1080062  53.41  0.001237065    1.680    0.405
        67 -14.0200     45.4639    246.6588   1.4151885541e+02   2.3479255885e+01    0.6560554    0.5107134  33.17  0.004575907    1.924    0.480
        68 -10.7778     39.9165    194.6479   1.3960133905e+02   3.1936247313e+01    0.3379776     0.167597  47.10   0.00230937    1.638    0.389
        69  -9.0384    217.9551    194.9614   1.0905192546e+02   5.5629864975e+00    0.1336631    0.1045924  29.37 0.0003048802    1.007    0.007
        70 -10.9985    159.7461    194.0061   1.1848136137e+02   1.5335095413e+01    0.3169174    0.1771494  54.53 0.0009550461    1.693    0.409
        71  -9.7137    135.5165    195.0449   1.2282050245e+02   1.9087644838e+01    0.1387694    0.1128039 -60.31 0.0003530191    1.476    0.323
        72  -9.3836    172.4943    194.5342   1.1638501534e+02   1.3158600848e+01    0.1166626   0.09426787  45.93 3.866428e-05    1.054    0.051
        73  -9.5185    102.3885    192.1585   1.2836140919e+02   2.4522210848e+01    0.2996153    0.1237687  59.83  0.001411236    2.818    0.645
        74 -10.8158    191.5313    191.2187   1.1271751879e+02   1.0386100217e+01    0.2259635    0.1999813  21.75 0.0006151578    1.137    0.121
        75 -11.0376    250.1846    187.7090   1.0299032718e+02   1.0850298261e+00     0.302761     0.145131 -15.40  0.001651532    2.416    0.586
        76  -9.6417    174.8661    190.8963   1.1545955766e+02   1.3234982007e+01     0.172566    0.1350708  31.07 0.0004117774    1.203    0.169
        77 -10.6382     43.8271    187.6669   1.3846116098e+02   3.2699214816e+01    0.3463784    0.1965797  47.60  0.002437017    1.499    0.333
        78  -9.8699    191.9724    197.9081   1.1364416425e+02   9.5133988336e+00    0.1715398    0.1389296  37.60 0.0004883409    1.029    0.028
        79 -12.2727    142.1878    221.1183   1.2470845017e+02   1.4499611218e+01    0.3679467    0.2864565  82.24  0.002815268    1.543    0.352
        80 -10.1158     67.4841    186.2239   1.3409533602e+02   3.0189099987e+01    0.1919763    0.1183775  52.31 0.0005248536    1.327    0.246
        81 -13.3276     43.2054    237.1818   1.4140139081e+02   2.5028982238e+01    0.3567882    0.2085654  64.97 0.0005161208    1.211    0.174
        82 -10.0761     88.9341    184.2331   1.2997491461e+02   2.7719226713e+01    0.3618797    0.1703772  62.13  0.001454457    2.240    0.554
        83 -10.5706     46.8800    180.1103   1.3736655411e+02   3.3680100336e+01    0.3018771    0.2354555  33.75  0.001771256    1.686    0.407
        84 -10.1149    144.0040    179.9861   1.1930908277e+02   1.9965404118e+01    0.1474698    0.1212902  51.13 0.0005966654    1.019    0.019
        85 -10.1713    135.0188    180.2664   1.2098857606e+02   2.1404240642e+01    0.2267373     0.138848  57.33   0.00106615    1.533    0.348
        86 -10.1338    129.1104    179.1305   1.2192278448e+02   2.2541352777e+01    0.1943184      0.18612  -3.36 0.0003648559    1.363    0.266
        87 -10.5444    248.6874    177.6600   1.0148146245e+02   2.2814017691e+00    0.1997432    0.1293298 -44.61  0.001169357    2.397    0.583
        88 -10.7110    182.1237    176.8747   1.1205615835e+02   1.3840560256e+01    0.2942375    0.2186086  29.34  0.001360664    1.296    0.228
        89  -9.8821     90.1987    160.4114   1.2701339177e+02   3.1750486059e+01    0.2173214    0.1249591  73.17  0.000421958    2.039    0.510
        90 -10.3012     88.9673    156.9518   1.2682516657e+02   3.2569461483e+01    0.1811032    0.1622044 -85.02 0.0002977583    1.173    0.147
        91 -11.9492     87.3592    175.8974   1.2938444404e+02   2.9369805549e+01     0.349384    0.2564674  33.97 0.0007673666    1.642    0.391
        92 -12.5284     93.3415    167.0984   1.2721243929e+02   3.0081385557e+01    0.5284733    0.4438963 -35.83  0.002175196    1.755    0.430
        93 -11.4738     96.7677    159.2148   1.2552932588e+02   3.1008228483e+01    0.2706505    0.2204101 -57.86  0.000861019    1.402    0.287
        94  -9.5719     95.7033    175.2819   1.2772505020e+02   2.8297778686e+01    0.1859921    0.1661778  47.55 0.0009739546    1.288    0.224
        95 -11.5640     74.9595    173.4794   1.3150024155e+02   3.1467695005e+01    0.3532906    0.2213739 -57.72   0.00124552    1.842    0.457
        96 -10.2793    190.9281    227.9854   1.1785692348e+02   6.3700407252e+00    0.1574418    0.1170739  39.24 0.0003099687    1.021    0.020
        97 -11.9306    248.3628    171.8583   1.0049601326e+02   2.9077720139e+00    0.4746506    0.2466144  37.21  0.002635899    1.628    0.386
        98 -11.8269     36.5076    170.1540   1.3856414045e+02   3.6587420938e+01    0.4086725    0.1983489  64.06  0.001507977    1.790    0.441
        99 -11.9291     30.5196    170.7832   1.3973883608e+02   3.7083337777e+01    0.3112804    0.2249486  62.95  0.002220665    1.138    0.121
       100  -9.9293    100.3252    170.0887   1.2621369913e+02   2.8527717146e+01    0.2328444    0.1315979  46.77 0.0004282846    1.549    0.354
       101  -9.4587    122.6579    168.9428   1.2174228113e+02   2.5254974771e+01    0.1557856    0.1385721  82.16 0.0002647554    1.121    0.108
       102 -11.0285    107.4712    168.3078   1.2459686585e+02   2.7760898456e+01    0.2764883    0.1918425  34.23  0.000216485    1.652    0.395
       103  -9.6664     85.2477    168.0410   1.2891509735e+02   3.1058634290e+01    0.1580779    0.1438768  64.52 0.0002899097    1.224    0.183
       104  -9.2270    240.2815    227.6969   1.1053811974e+02  -8.9968066032e-01   0.08674555   0.07345802  46.25 -0.000275831    1.552    0.356
       105  -9.9600    175.6821    166.1192   1.1140392145e+02   1.6487690517e+01    0.2156924    0.1494585  52.77 0.0006788939    1.363    0.266
       106 -12.4483     37.8513    163.1240   1.3777243581e+02   3.7747533706e+01     0.377764    0.2488726  67.40  0.001761726    1.221    0.181
       107 -10.5451     79.9442    164.2044   1.2952700433e+02   3.2485861268e+01    0.2948288    0.1380175  60.62   0.00149785    2.239    0.553
       108 -12.0311    244.9285    162.1263   9.9216677658e+01   4.4896751001e+00     0.342667    0.2492763  10.54  0.002081661    1.250    0.200
       109 -10.1621    249.4741    160.4926   9.8228350486e+01   3.8780785977e+00    0.2327477    0.1489159  32.40  0.001232484    1.344    0.256
       110 -12.1888    246.1474    156.4331   9.7949072145e+01   4.8826911154e+00    0.5867853    0.3706817  64.34  0.003025683    2.611    0.617
       111 -11.2516     47.7657    169.9979   1.3640379452e+02   3.5400480751e+01    0.3281148    0.2152971  88.77  0.001538775    1.312    0.238
       112  -9.7733    202.7948    161.2904   1.0581144534e+02   1.2163496424e+01    0.2843645    0.1722888  30.28  0.001524332    1.650    0.394
       113  -9.4085     59.5664    159.6962   1.3313853953e+02   3.5945437626e+01    0.1464972   0.09221414 -88.33 0.0006526517    1.472    0.321
       114  -9.3783    171.3254    159.1013   1.1097803806e+02   1.8316646135e+01    0.1598593    0.1571595  53.29 0.0003836375    1.127    0.113
       115  -9.2477    119.8043    158.8586   1.2084291020e+02   2.7457883402e+01    0.1640351    0.1292992  78.08 0.0004263119    1.288    0.224
       116 -10.2968     82.5235    159.1013   1.2840943659e+02   3.3077927289e+01    0.1922774    0.1510619  48.94 0.0002888682    1.259    0.206
       117 -12.1390     47.1644    158.0904   1.3549303665e+02   3.7691767778e+01     0.289055    0.1899056 -65.09  0.001966437    1.577    0.366
       118  -9.5651    115.9144    157.4786   1.2141695999e+02   2.8338126992e+01     0.170525    0.1529722  87.06 0.0003564646    1.103    0.093
       119 -10.6825    164.1665    226.0852   1.2176724984e+02   1.0609982454e+01    0.1592062    0.1482198  82.16 0.0002818156    1.362    0.266
       120 -12.7172     36.8551    157.4632   1.3751645822e+02   3.8920015036e+01    0.5080063    0.2645527  28.96  0.002976016    2.574    0.611
       121 -12.4279     33.2871    153.7518   1.3793601054e+02   3.9994883876e+01    0.3258006    0.2433796 -74.48 0.0002314872    1.325    0.245
       122 -10.7936     73.0473    156.6553   1.3006039807e+02   3.4819224229e+01     0.403009    0.1954159  40.37  0.002198879    2.022    0.505
       123  -9.8485    134.6296    155.7062   1.1740606329e+02   2.5494995995e+01    0.1986505    0.1886892  20.76 0.0006510764    1.240    0.194
       124 -12.9740     23.8105    154.8452   1.3993276636e+02   4.0706205528e+01    0.4900896    0.2844999  43.03  0.002697499    1.685    0.406
       125  -8.7990    228.4389    155.4642   1.0049703811e+02   8.1611236591e+00    0.1236777    0.1062797  21.00 0.0001631913    1.042    0.040
       126  -9.3128    124.8338    153.9058   1.1907353723e+02   2.7491825681e+01    0.1749265    0.1322283  69.51 0.0003965756    1.339    0.253
       127 -10.1850     62.3260    153.0513   1.3187697901e+02   3.6877786882e+01    0.3104648    0.1578782 -81.81   0.00168924    2.053    0.513
       128 -10.3140    113.7485    152.1551   1.2105691217e+02   2.9650232172e+01    0.2884982    0.2027311 -82.93  0.001107007    1.637    0.389
       129 -11.3865    249.4604    149.7661   9.6150601575e+01   5.0144462386e+00     0.365347    0.2592288 -42.14  0.002173319    1.856    0.461
       130  -9.4958    149.1690    152.3122   1.1397892159e+02   2.3472820776e+01    0.1650662    0.1604353   1.83 0.0004777225    1.172    0.147
       131 -11.0771    104.1727    150.6589   1.2281321376e+02   3.1458428660e+01    0.2854044    0.2519274 -34.85  0.001378705    1.514    0.340
       132 -10.0668    106.9954    145.9601   1.2151042146e+02   3.1890381853e+01    0.2710249    0.2266232 -27.11  0.001673656    1.703    0.413
       133 -12.6702     58.6029    134.4455   1.3051905094e+02   4.1025315718e+01    0.5961795    0.3442958 -77.15  0.002089506    1.608    0.378
       134 -13.4912     67.7556    143.9868   1.2967088700e+02   3.7964429167e+01    0.7511445    0.5033949  86.23  0.004036721    1.429    0.300
       135 -12.6659     72.4775    139.0602   1.2800219424e+02   3.8325066644e+01    0.6678722    0.3978564  57.49  0.003269105    1.601    0.375
       136 -12.1089     55.8096    149.1978   1.3283049967e+02   3.8415154453e+01    0.3213317    0.2791027 -23.70  0.001762374    1.870    0.465
       137 -10.9019     59.4812    145.4968   1.3163983573e+02   3.8701980391e+01    0.2475861   0.09625486  42.07  0.001237746    2.394    0.582
       138 -10.9628     23.4340    149.2269   1.3959928222e+02   4.1821564427e+01    0.1799558    0.1391475  83.20  0.001038148    1.066    0.062
       139 -11.7120    133.4872    142.8252   1.1545180483e+02   2.7952398716e+01    0.7758738    0.2800647 -53.53   0.00305635    3.192    0.687
       140  -8.9841     85.9879    147.9312   1.2625883553e+02   3.4709328190e+01    0.1412572    0.1192975  73.27 -0.001320134    1.019    0.019
       141 -10.0008    163.9803    221.3339   1.2124654180e+02   1.1192989727e+01     0.159853    0.1376221  23.74 0.0008371501    1.302    0.232
       142 -15.6041     27.1445    247.8358   1.4415091003e+02   2.5201041545e+01    0.9007512    0.4670533  38.65  0.007109989    1.962    0.490
       143 -11.4410     33.3281    136.0935   1.3637531392e+02   4.3472873158e+01    0.1864882     0.157776 -55.80 0.0006420926    1.512    0.339
       144  -9.2158    220.1470    223.2201   1.1284639579e+02   2.4368609547e+00    0.1288714    0.1040842  43.13 0.0002626067    1.307    0.235
       145 -11.1852     21.4710    144.0303   1.3961523234e+02   4.3014973085e+01    0.1624779    0.1567383  -0.03 0.0009941814    1.615    0.381
       146  -9.1610    119.8155    151.2047   1.1966554017e+02   2.8819712947e+01    0.1501009    0.1432913  30.96 0.0002852403    1.254    0.202
       147 -11.6253    248.9941    141.0337   9.4457743058e+01   6.0519177375e+00    0.7942477    0.1838406  43.09   0.00281512    3.838    0.739
       148 -12.6268    248.5028    134.3720   9.3144400775e+01   6.8879236132e+00    0.6984765    0.3652831 -24.58  0.003575434    1.855    0.461
       149 -12.3612     37.4398    125.2643   1.3432186032e+02   4.5276703528e+01    0.4233903    0.2472876  69.27  0.001600441    1.661    0.398
       150 -13.4568     44.9296    129.8536   1.3309633083e+02   4.3539887999e+01    0.7685503    0.3933045  87.07  0.002995002    2.117    0.528
       151 -12.6248     47.3886    138.1840   1.3347015194e+02   4.1571889275e+01     0.395751    0.2874902 -14.70  0.002279914    2.893    0.654
       152 -11.5733     51.5162    137.5670   1.3248396269e+02   4.1229463073e+01    0.2963393    0.1654757  77.88  0.001660476    1.876    0.467
       153 -10.2215    119.4648    138.2741   1.1759211487e+02   3.1257803458e+01    0.2372046    0.2303262  34.01  0.001315927    1.207    0.171
       154 -11.0892    113.4182    136.1613   1.1852766558e+02   3.2689921640e+01     0.521485    0.2716338  43.65  0.002562839    1.855    0.461
       155 -10.1386     93.1378    150.6252   1.2511648206e+02   3.3150185465e+01    0.2366456    0.1974597  44.74   0.00120739    1.283    0.221
       156  -9.7298    141.9541    147.4270   1.1454746981e+02   2.5613626074e+01    0.2540618    0.1972745  11.86 0.0009352163    1.819    0.450
       157  -9.3925     97.9309    134.3110   1.2162496357e+02   3.5573988279e+01    0.1666602     0.148024  64.06 0.0003013593    1.089    0.082
       158  -8.9678    129.9657    132.0051   1.1420420670e+02   3.0561036655e+01    0.1538227    0.1426712  70.57 0.0009576814    1.007    0.007
       159 -10.8828    150.0038    222.2777   1.2358101035e+02   1.3189485641e+01    0.1575334    0.1441598  55.00 0.0001800534    1.220    0.180
       160 -10.9833     27.6979    142.2914   1.3815605431e+02   4.2780068157e+01    0.1755455    0.1204036  78.00 0.0001893156    1.167    0.143
       161  -9.5261    107.0539    130.1597   1.1888204378e+02   3.4916657252e+01    0.2271106    0.1371613  68.30  0.001096543    2.049    0.512
       162 -12.3159     66.2598    127.2991   1.2780255999e+02   4.1532159586e+01    0.5336344    0.3353533  77.50  0.003018587    1.702    0.413
       163 -11.7696     32.6415    127.0241   1.3563071590e+02   4.5390769042e+01      0.34644    0.1673413  78.07  0.001813374    2.261    0.558
       164 -10.5400    160.0312    126.6606   1.0687610747e+02   2.5714803372e+01    0.2487927    0.1958557 -73.59  0.001198117    1.597    0.374
       165 -10.4084    209.8517    125.6675   9.7399238234e+01   1.5589390563e+01    0.2294827    0.2026166 -17.06 0.0004662107    1.144    0.126
       166  -9.8550     86.6616    126.0638   1.2284113362e+02   3.8950979261e+01    0.3111581    0.1834359  19.60  0.001143228    3.534    0.717
       167 -10.4887     25.9776    139.7593   1.3831252179e+02   4.3445102729e+01     0.152182    0.1173235  73.10 0.0004983541    1.093    0.085
       168 -11.1843    249.5150    117.5128   8.9330114268e+01   8.6334148276e+00     0.296313    0.2053392   1.13 0.0007730793    1.444    0.308
       169 -12.0686    248.4671    112.6060   8.8372275464e+01   9.4151234037e+00    0.5831173    0.3786893  -8.45  0.003095493    1.547    0.354
       170 -10.3771     50.6462    122.6729   1.3087428493e+02   4.4392594680e+01    0.2414876    0.1351675  72.90  0.001294992    1.970    0.492
       171  -9.1414    238.5118    121.9713   9.1957337988e+01   1.0263022052e+01    0.1822392    0.1043504   3.38 0.0004916634    2.318    0.569
       172  -9.9204    118.5133    128.4922   1.1602967265e+02   3.3279768745e+01    0.1291426    0.1217656  72.41 0.0002069106    1.056    0.053
       173  -9.4780    143.5006    121.5025   1.0919773135e+02   2.9922912416e+01    0.1368299    0.1272492  73.89 0.0008098561    1.065    0.061
       174 -10.7642    130.9223    119.0511   1.1140671122e+02   3.2811880435e+01    0.1988726    0.1881849  79.88  0.000308904    1.012    0.012
       175  -9.5069     85.6085    117.7772   1.2167946986e+02   4.0810058965e+01    0.2920507    0.1244831  59.06  0.001110418    3.402    0.706
       176 -12.1121     32.6072    115.6408   1.3439241036e+02   4.7768158023e+01    0.5558336     0.161899 -69.41   0.00245706    2.799    0.643
       177 -11.1166     22.1482    117.7601   1.3717049451e+02   4.8280214582e+01    0.1776116    0.1549538 -39.71  0.001317867    1.605    0.377
       178  -9.2141     80.5590    117.4774   1.2284990419e+02   4.1615688721e+01    0.1249477    0.1116653 -82.47 -7.886726e-05    1.060    0.057
       179  -9.7534     70.9082    116.5910   1.2506020342e+02   4.3150323683e+01    0.2461651    0.1362637 -35.10  0.001041356    3.506    0.715
       180  -9.1318     77.2988    116.6105   1.2349665071e+02   4.2263090545e+01    0.1352151   0.08781798  81.67 0.0001507631    1.790    0.441
       181 -10.5519    168.5910    113.4206   1.0221519676e+02   2.6185388493e+01    0.3554328    0.2659536  83.43  0.001369555    1.844    0.458
       182  -9.4645     82.1644    114.1936   1.2188258386e+02   4.2066508340e+01    0.1728719    0.1330006  77.77 0.0002412098    1.307    0.235
       183 -12.0418     60.5753    112.0543   1.2690827892e+02   4.5450562496e+01    0.4864309    0.3008185  73.07  0.002666274    1.815    0.449
       184  -9.4037    149.6769    111.5662   1.0567957465e+02   3.0479884685e+01    0.1829538    0.1317198  59.14 0.0006550377    1.442    0.307
       185  -9.7478    102.7670    110.7208   1.1618723505e+02   3.9526710128e+01    0.1791422    0.1691975  87.33 0.0004806003    1.056    0.053
       186 -11.5734     69.3869    110.2416   1.2438160664e+02   4.4696483332e+01    0.4040936    0.2575522  55.39 0.0007980371    1.612    0.380
       187  -9.5862     79.9717    108.9373   1.2147239959e+02   4.3490970745e+01    0.1968297    0.1385567  82.21 0.0003963349    1.581    0.367
       188 -10.0296    114.3179    107.3675   1.1270581171e+02   3.8177677504e+01    0.1896569    0.1231276  54.56 0.0009457727    1.579    0.367
       189 -10.9637    134.5547    104.6527   1.0738424073e+02   3.4837734021e+01    0.4096589    0.1361016 -43.21   0.00142593    3.088    0.676
       190  -9.5877    112.2130    104.1762   1.1250359100e+02   3.9198985457e+01    0.1919528       0.1567 -89.30  0.001067471    1.329    0.248
       191  -9.6793     76.4897     98.9783   1.2045455553e+02   4.6109235422e+01    0.1787686    0.1633684  76.72 0.0003039268    1.103    0.093
       192  -9.9772     63.6226     98.1116   1.2372737158e+02   4.8053792961e+01     0.203614    0.1575221  62.23 0.0005377177    1.332    0.249
       193 -13.4892     53.5415    227.9569   1.3936639347e+02   2.5223336085e+01    0.4804708    0.4527021  30.54  0.003511649    1.804    0.446
       194 -11.3122    248.6530     99.4919   8.5291954246e+01   1.0937764541e+01    0.4608336    0.3272554   1.56  0.002501637    1.426    0.299
       195  -9.0946    101.8966     87.8232   1.1123413841e+02   4.4375249687e+01    0.1800576    0.1514712 -84.22 0.0002582598    1.263    0.208
       196  -8.6395     68.3014     76.7154   1.1786831251e+02   5.2042465439e+01    0.1267842   0.09522031  85.62 0.0002208306    1.554    0.357
       197 -15.3370     61.0652    215.4457   1.3741383050e+02   2.6229234591e+01     3.070614     1.247243  47.76   0.01952768    1.823    0.451
       198  -9.7189    238.6781    249.7013   1.1363881606e+02  -2.3709433659e+00     0.100985   0.05342823  24.70 0.0005876819    1.624    0.384
       199  -9.7856    205.0075    249.0500   1.1828396637e+02   2.3320659610e+00    0.1198571   0.08441334  35.93 0.0003304421    1.019    0.018
       200 -10.6840    110.9789    222.3930   1.2987214289e+02   1.8811809989e+01    0.1557815    0.1021329  49.54  0.001143443    1.159    0.137
