#   1 NUMBER                 Running object number                                     
#   2 MAG_AUTO               Kron-like elliptical aperture magnitude                    [mag]
#   3 X_IMAGE                Object position along x                                    [pixel]
#   4 Y_IMAGE                Object position along y                                    [pixel]
#   5 X_WORLD                Barycenter position along world x axis                     [deg]
#   6 Y_WORLD                Barycenter position along world y axis                     [deg]
#   7 A_WORLD                Profile RMS along major axis (world units)                 [deg]
#   8 B_WORLD                Profile RMS along minor axis (world units)                 [deg]
#   9 THETA_WORLD            Position angle (CCW/world-x)                               [deg]
#  10 FWHM_WORLD             FWHM assuming a gaussian core                              [deg]
#  11 ELONGATION             A_IMAGE/B_IMAGE                                           
#  12 ELLIPTICITY            1 - B_IMAGE/A_IMAGE                                       
         1 -12.6340    198.6770     37.1540   4.7838678905e+01   3.0835243936e+01     1.375672     1.061788  27.22  0.007140923    1.675    0.403
         2 -12.5592    209.5578     25.6734   4.3449570219e+01   2.9592949229e+01    0.9305303    0.7645932  19.40   0.00275765    1.622    0.383
         3 -10.3319     32.9993     13.9439   8.2791572383e+01   6.9546122821e+01    0.3768707   0.09783911 -40.41  0.001480326    3.549    0.718
         4 -10.5136    233.9651      2.4117   3.5596262214e+01   2.6451474545e+01     0.681228    0.2624551  77.15    0.0030621    2.478    0.596
         5  -7.9509     50.7735    234.8356   1.2139512009e+02   1.9891271655e+01    0.1578171   0.09832073  64.53  0.000421993    1.283    0.220
         6  -8.7860     81.6963    250.2305   1.1705525291e+02   1.3087650478e+01    0.2051748    0.1175622  53.01 0.0007543635    1.363    0.266
         7 -12.2149     85.4850    229.7319   1.1448265781e+02   1.6217822341e+01     1.289337     0.929207  63.64  0.003500754    1.178    0.151
         8 -11.9422     15.7365    192.9057   1.2506784202e+02   3.2180303981e+01    0.9069403    0.2409596 -62.23  0.002196971    3.439    0.709
         9 -11.7087     44.6557    203.9940   1.2014654902e+02   2.6744591188e+01    0.7817345    0.5890073 -53.84  0.001521165    1.704    0.413
        10 -12.6540     55.0435    192.9209   1.1697104519e+02   2.7843929662e+01     2.075165     1.219624 -77.78   0.01031359    1.582    0.368
        11  -9.1724     74.2168    219.0285   1.1562920250e+02   1.9864232551e+01    0.3579383    0.1146452  52.32  0.001446666    2.991    0.666
        12  -8.9860     34.3019    227.9739   1.2388329205e+02   2.3134271533e+01    0.1908415    0.1412027  48.13  0.000575259    1.342    0.255
        13 -12.7259     29.5144    248.4203   1.2590421594e+02   1.9913503582e+01    0.8052305    0.6421199  27.52  0.006113491    1.901    0.474
        14  -8.1419     53.9666    231.2883   1.2055189716e+02   2.0161058076e+01    0.1633532     0.118703  61.48  0.000654124    1.077    0.072
        15  -8.3092    113.4424    207.5002   1.0623475355e+02   1.6214871898e+01    0.1320396    0.1152788  59.64 0.0008078458    1.007    0.007
        16  -8.7155     65.3765    204.0554   1.1592639467e+02   2.4118899712e+01    0.2225121    0.1526661  74.69 0.0006968956    1.329    0.248
        17 -15.4029      7.7021    243.7809   1.2921192654e+02   2.3026508219e+01     18.95326      1.27629 -77.91  0.004842575   14.153    0.929
        18  -8.7744    192.0194    192.8294   8.7374526237e+01   4.9960995918e+00     0.297511    0.1554332 -59.28  0.001075688    3.868    0.741
        19  -9.0236     74.9779    189.4895   1.1225021680e+02   2.5926627014e+01    0.2715605    0.1691636  65.79 0.0009056935    1.612    0.380
        20  -8.8828     72.3239    186.6873   1.1250051903e+02   2.6920080713e+01    0.2654981    0.1814323  72.32 0.0008200377    1.430    0.300
        21  -9.2502     38.8879    186.5774   1.1980966624e+02   3.1158347075e+01    0.2408961    0.1507763 -87.54   0.00141203    1.395    0.283
        22  -8.3238     99.7551    180.7810   1.0544192959e+02   2.4075297761e+01    0.1937607    0.1461983  67.52 0.0004278196    1.323    0.244
        23 -14.0584     61.9857    246.8208   1.2027684996e+02   1.6304592376e+01     7.242953     2.271661  30.03   0.01897074   10.493    0.905
        24 -10.3992     69.4060    177.0586   1.1196399002e+02   2.9494443784e+01     0.362815    0.2749858 -37.79  0.002012621    1.805    0.446
        25 -10.3379     73.9127    171.8122   1.1021006597e+02   3.0068504521e+01    0.3633758    0.2693236 -39.25 0.0009741775    1.771    0.435
        26 -11.2205    163.1238    225.2221   9.8613630350e+01   4.6627461712e+00    0.5104681    0.2683919  33.10  0.001932544    1.784    0.439
        27 -11.0012     82.7573    162.6989   1.0672655057e+02   3.0895631280e+01    0.6437178     0.386117  61.61 0.0007523524    1.862    0.463
        28 -12.0716     70.8726    157.7326   1.0892643763e+02   3.3804533462e+01    0.6027341    0.5436025 -37.53  0.001833136    1.357    0.263
        29 -11.9858     68.5446    144.2130   1.0739426522e+02   3.7379830473e+01    0.8812699    0.5899639  82.55  0.003195746    1.724    0.420
        30  -9.0316     32.4871    164.9893   1.1915554283e+02   3.6729801096e+01    0.1911658    0.1041196 -74.60  0.000694332    1.553    0.356
        31  -7.6893     37.3666    162.2855   1.1772614663e+02   3.6847718560e+01    0.1203474   0.09111553 -42.64 0.0007020068    1.696    0.411
        32 -10.6461     88.9755    155.5746   1.0400082759e+02   3.1614586852e+01    0.5730757    0.3936532 -28.69  0.001916577    2.175    0.540
        33  -9.0139    134.2903    146.7430   9.0849368055e+01   2.5483791575e+01    0.4765072    0.1376411 -51.07  0.001391523    3.631    0.725
        34 -11.3603     47.7001    222.8371   1.2106930530e+02   2.2559795449e+01    0.5264195    0.2950785 -81.92  0.001237345    1.681    0.405
        35  -9.1740     84.1053    143.6830   1.0316119226e+02   3.5227294394e+01    0.3049964    0.2233344  69.46 0.0009051668    1.514    0.340
        36  -9.4850    102.7239    140.6217   9.7620966291e+01   3.2875031999e+01    0.4913452    0.2845144 -28.63   0.00180042    2.993    0.666
        37 -10.6727     90.3205    140.4190   1.0088580730e+02   3.5025843251e+01    0.2952691    0.2630396 -50.28 0.0005578918    1.157    0.136
        38 -12.0399     58.2788    130.5521   1.0788926298e+02   4.2060366350e+01      1.21582    0.4616499 -72.60  0.004117656    3.418    0.707
        39 -10.0316     31.8691    131.9501   1.1543228813e+02   4.4619664693e+01    0.2563809    0.2023244  12.36  0.001568818    1.690    0.408
        40  -8.3870    111.9533    130.8163   9.3047332331e+01   3.3514564726e+01    0.2400137    0.1794404   1.34  0.001044921    1.991    0.498
        41  -9.2653     99.1519    126.7558   9.5623410057e+01   3.6812807615e+01    0.2716632    0.2235195 -36.26  0.000511199    1.312    0.238
        42  -9.0503     40.2460    224.1648   1.2254918880e+02   2.3187138901e+01     0.241275    0.1350886  74.25 0.0007975793    1.572    0.364
        43 -10.5046     33.0513    118.5647   1.1315328795e+02   4.7737855843e+01     0.454912    0.1378809 -64.86  0.001773398    2.599    0.615
        44 -10.7954     32.3013    108.9650   1.1181357011e+02   5.0117202775e+01    0.6011999    0.1868148 -64.56  0.002358285    2.574    0.612
        45 -10.8391     28.9833    117.1041   1.1411842448e+02   4.8459138070e+01    0.5154964    0.1776695 -59.18  0.002214376    2.221    0.550
        46  -7.8984    168.2272    112.8319   7.4532707969e+01   2.5441603503e+01    0.2693948    0.1753975 -78.76 0.0009501032    2.835    0.647
        47  -8.8340    106.2434    130.9108   9.4605940307e+01   3.4551910102e+01    0.3062842    0.2353294 -63.92  0.001502531    1.306    0.234
        48  -7.8974    205.5271    110.0006   6.6216988177e+01   1.7378296157e+01    0.2301577    0.1420298 -38.17 0.0006249385    1.525    0.344
        49 -10.1057     43.6835    109.0832   1.0832027456e+02   4.8969866679e+01    0.2832021    0.2179513 -50.44  0.001650283    1.198    0.165
        50  -8.2597    107.9843    119.3441   9.1440643742e+01   3.6958292482e+01    0.2044526    0.1916632  43.72 0.0003559813    1.114    0.103
        51  -9.7114     33.0020     99.7666   1.0994363694e+02   5.2248843682e+01     0.300708    0.1624349 -72.68  0.001467597    1.776    0.437
        52  -9.0204    114.7612     99.9960   8.4489285785e+01   4.0056582576e+01    0.2150898    0.1264275 -45.88 0.0008892643    1.640    0.390
        53  -8.1538     41.3840     91.8496   1.0555216420e+02   5.3307289501e+01    0.1945757    0.1005685 -51.89 0.0005962999    1.603    0.376
        54  -7.9699     56.4240    224.2101   1.1953605914e+02   2.1209131014e+01    0.1472371   0.09331249  83.60 0.0002575559    1.455    0.313
        55  -8.5972     58.7629     67.5487   9.2914243974e+01   5.6703277809e+01    0.1735095     0.128642  44.68 0.0009388125    1.628    0.386
        56  -8.5604    178.3857    222.7640   9.5248165847e+01   2.4883632908e+00    0.2102409    0.1250962 -46.74  0.001045289    2.006    0.502
        57  -9.6993    146.9425     51.3056   6.1018985599e+01   4.1941667916e+01    0.4825349    0.3212414 -76.89   0.00191687    2.283    0.562
        58 -11.7744    188.7864     44.4981   5.1299940729e+01   3.2327816566e+01    0.8228534    0.5259076  36.51  0.002604087    1.972    0.493
        59  -8.2952    134.4862    246.0159   1.0691561147e+02   5.9738391373e+00     0.153686    0.1209745 -55.55 0.0006962098    1.565    0.361
        60 -15.4320      6.2367    208.1520   1.2777590647e+02   2.9918884224e+01     11.03287    0.9785237 -75.21   0.02587864    7.038    0.858
        61 -10.2616     33.0000     33.4621   9.1462411745e+01   6.6401385630e+01    0.6918303    0.0598422 -48.20  0.001514828   10.067    0.901
        62  -8.9089     93.3676    219.1515   1.1181864493e+02   1.7076592579e+01    0.2485888    0.1893492  85.60  0.001547383    1.310    0.237
        63  -8.9477    148.6397     44.6384   5.8461955028e+01   4.2508306284e+01    0.2704142    0.2419846 -80.33 0.0008503208    1.216    0.178
        64  -9.8062     61.3507    234.7127   1.1946457377e+02   1.8579433685e+01    0.2226758    0.1687076  76.47 0.0005709284    1.117    0.104
