#   1 NUMBER                 Running object number                                     
#   2 MAG_AUTO               Kron-like elliptical aperture magnitude                    [mag]
#   3 X_IMAGE                Object position along x                                    [pixel]
#   4 Y_IMAGE                Object position along y                                    [pixel]
#   5 X_WORLD                Barycenter position along world x axis                     [deg]
#   6 Y_WORLD                Barycenter position along world y axis                     [deg]
#   7 A_WORLD                Profile RMS along major axis (world units)                 [deg]
#   8 B_WORLD                Profile RMS along minor axis (world units)                 [deg]
#   9 THETA_WORLD            Position angle (CCW/world-x)                               [deg]
#  10 FWHM_WORLD             FWHM assuming a gaussian core                              [deg]
#  11 ELONGATION             A_IMAGE/B_IMAGE                                           
#  12 ELLIPTICITY            1 - B_IMAGE/A_IMAGE                                       
         1  -8.9165     12.7509     30.1692   1.0445442887e+02   6.9484905856e+01    0.3472698    0.1764042 -70.23  0.001578589    2.477    0.596
         2  -8.2157     30.0283     16.0574   8.9296654584e+01   7.0573205716e+01    0.1713351    0.1474296 -64.18 0.0007525227    1.692    0.409
         3  -7.9225     83.4320     11.1994   6.4615884544e+01   6.2449821332e+01    0.1890499    0.1158427 -35.32 0.0008619174    1.685    0.406
         4  -8.6873     55.5206      9.9320   7.3976907191e+01   6.7894717987e+01    0.2118476      0.19324 -44.78 0.0007516919    1.453    0.312
         5  -7.9164     47.4749     10.2284   7.7628835818e+01   6.9147184557e+01    0.1753236    0.1062502 -40.79 0.0009402763    1.726    0.421
         6  -8.4164     90.8190      8.8181   6.1256991080e+01   6.1130506454e+01    0.2537838    0.1552516 -45.60 0.0008725589    2.029    0.507
         7  -7.8449    101.4711      8.4372   5.8269647121e+01   5.8763419095e+01    0.1356598    0.1269907  18.68 6.828043e-05    1.053    0.050
         8  -8.5505     33.4730      5.2991   8.1547188661e+01   7.1858826433e+01    0.2772851    0.1779635 -57.15  0.001370882    3.009    0.668
         9  -8.4911     79.1476      4.3545   6.2404334494e+01   6.4096626796e+01    0.2493041    0.1498735 -36.75 0.0008011833    1.813    0.448
        10  -7.5005    115.4633      2.4791   5.2440804059e+01   5.5976253761e+01    0.1341583    0.1304843  36.85 0.0001471554    1.079    0.073
        11  -8.5273     62.4945      1.7128   6.6562317466e+01   6.7659533724e+01    0.2013423    0.1711861  75.70 0.0009960555    1.746    0.427
        12  -9.1502    120.0839    245.4290   1.1178322322e+02   1.0236211063e+01    0.2808755    0.1814293  82.96  0.001251536    2.128    0.530
        13  -8.5823    249.1369    249.0022   9.0780675226e+01  -8.6047116681e+00    0.2750084    0.1255977 -15.31  0.001607235    2.584    0.613
        14  -9.2923    248.5051    242.4003   8.9903685103e+01  -7.9266060693e+00    0.2472781    0.1693129 -31.72  0.001064383    1.903    0.474
        15  -8.3279     93.8445    249.6284   1.1664546843e+02   1.3257582035e+01    0.2037251    0.1094112  70.96  0.001212804    2.173    0.540
        16  -7.3636     86.2769    250.6618   1.1799700202e+02   1.4104505519e+01    0.1091798    0.0617524  64.16 0.0003686682    1.614    0.380
        17  -8.5921     67.7201    245.4747   1.2072886561e+02   1.7280892783e+01    0.2002548    0.1065797  84.66 0.0009560124    2.074    0.518
        18  -8.2557    192.7719    245.2115   9.9292835025e+01  -4.3918098715e-01    0.1477754    0.1053297  19.83 0.0005125409    1.277    0.217
        19  -8.4963    139.6676    244.9489   1.0834066948e+02   7.4571219246e+00    0.1509434   0.08780752 -86.47 0.0007004797    4.141    0.759
        20  -9.4621     78.2584    243.3432   1.1879944841e+02   1.6281618718e+01    0.3490957    0.1710167  72.17  0.001967516    2.394    0.582
        21  -8.6886    201.9520    243.4331   9.7523277829e+01  -1.5765527711e+00    0.1657249    0.1567718 -49.84 0.0008420823    1.601    0.375
        22  -8.7835    169.1716    243.2299   1.0304269600e+02   3.2940971551e+00    0.1922803     0.178221  83.05  0.001025502    1.452    0.311
        23  -8.7726      9.5041    243.4998   1.3000661829e+02   2.4047452603e+01    0.1747214   0.06391349  81.31  0.001029725    2.472    0.595
        24  -9.5130    160.3563    240.7338   1.0426027812e+02   4.9397372508e+00    0.2965483    0.2077625 -87.94  0.001465678    2.664    0.625
        25  -8.9383    194.1806    240.0751   9.8366756539e+01  -5.4260417216e-02    0.2594847     0.178762 -58.94  0.001431636    2.601    0.616
        26  -9.1767    183.3075    239.7795   1.0017584129e+02   1.6032524577e+00    0.3618748     0.308544 -72.19  0.001966162    1.838    0.456
        27  -7.9943    153.4366    242.2276   1.0564234866e+02   5.7811276285e+00    0.1299336     0.108149 -81.56 0.0006287936    1.648    0.393
        28  -8.2155     88.1475    241.9138   1.1699309313e+02   1.5205771685e+01    0.1728058    0.1118783 -87.54 0.0006567122    1.728    0.421
        29  -8.2375    240.5654    240.7550   9.0892591750e+01  -6.7189857142e+00    0.1253243    0.0960617 -26.24 0.0006292848    1.635    0.388
        30  -8.1616    214.1785    241.1967   9.5193031700e+01  -3.0959182261e+00    0.1411533    0.1177958  37.30  0.001069622    1.363    0.266
        31  -8.6963    146.2930    239.7224   1.0659940546e+02   7.1943342332e+00    0.2263109    0.1588576  76.10 0.0006100704    2.032    0.508
        32  -8.0986     41.4551    239.9637   1.2475700569e+02   2.1292557892e+01    0.1493469   0.06102931  73.55 0.0008086837    2.539    0.606
        33  -8.9621    135.6280    238.9175   1.0838718920e+02   8.9045788896e+00    0.1957017     0.153155  55.00 0.0008832866    1.158    0.137
        34  -7.9862    129.4789    239.0037   1.0948276324e+02   9.8047507037e+00    0.1424884    0.0904901  81.93 0.0008081684    2.425    0.588
        35  -9.1781    230.9218    236.6571   9.1811026318e+01  -4.9912087155e+00    0.2659787    0.1939037 -26.25  0.001356974    1.601    0.375
        36  -9.5502    175.7800    246.3027   1.0229649159e+02   1.9319216751e+00    0.3130664    0.2157654 -39.40   0.00124596    1.862    0.463
        37  -8.1094     13.2555    238.3583   1.2923588899e+02   2.4531212722e+01    0.1397571   0.06060586  49.57 0.0004998207    1.635    0.388
        38  -8.1515     58.7218    237.1644   1.2169513269e+02   1.9738712164e+01    0.2390247   0.03864842  42.66 0.0009069893    3.635    0.725
        39  -8.5711     26.0088    237.2511   1.2714817451e+02   2.3423383720e+01    0.2033299   0.05794111  65.89 0.0009100611    3.699    0.730
        40  -9.2537    248.0417    235.0022   8.8851323857e+01  -7.1699911516e+00    0.2112557    0.1401661 -16.59 0.0007730107    1.495    0.331
        41  -8.3679    191.4963    249.6713   1.0008655515e+02  -7.5778972565e-01    0.1820557    0.1103784  50.03  0.001150975    1.779    0.438
        42  -9.9627    214.8378    233.2323   9.3928976697e+01  -2.3235992676e+00    0.4309392    0.3334392  89.37  0.002379159    3.634    0.725
        43  -8.8771    203.0204    234.7948   9.6135822655e+01  -7.5471809057e-01    0.1988692    0.1665858 -46.37  0.001056331    1.719    0.418
        44  -9.7756    175.7600    233.4110   1.0063423855e+02   3.5504565357e+00    0.3674808     0.208647 -55.60  0.002059986    2.746    0.636
        45  -8.0216    170.1792    236.1014   1.0196508690e+02   4.0561396108e+00    0.1469054    0.1218017  55.78 0.0005728363    1.351    0.260
        46  -9.2552    108.9294    234.5706   1.1268196111e+02   1.3476966728e+01    0.3940449    0.1673028  52.83  0.001774724    2.109    0.526
        47  -8.2968     99.8224    234.6725   1.1431717313e+02   1.4754250398e+01    0.2119934    0.1204869  73.42  0.001198693    2.146    0.534
        48  -9.2881     78.7204    234.3101   1.1802342761e+02   1.7683759628e+01    0.2335225     0.147096  85.61  0.000935446    1.662    0.398
        49  -9.3446      7.9734    234.7236   1.2993710675e+02   2.5652898507e+01    0.1419429   0.09426716  61.28 0.0006952913    1.097    0.089
        50  -8.3136    122.8740    234.1284   1.1013806455e+02   1.1510243224e+01    0.1820573    0.1266949  61.49 0.0009176328    1.383    0.277
        51  -9.2856     68.4440    231.9453   1.1964788675e+02   1.9407340820e+01    0.4701771    0.2164539  82.97  0.002410086    2.903    0.656
        52  -8.5715    194.3372    232.9149   9.7345247299e+01   7.7263092196e-01    0.1894103     0.139802  50.79 0.0007374888    1.544    0.352
        53  -9.0913    141.8215    231.3220   1.0641014090e+02   9.0725917242e+00    0.5628458    0.2086225  55.57  0.002060168    4.446    0.775
        54  -8.1043    132.6626    233.0793   1.0826397302e+02   1.0205254057e+01    0.1700144    0.1323331  74.84 0.0009521664    1.470    0.320
        55  -8.5703     92.7008    232.0793   1.1535288407e+02   1.6165935883e+01    0.2755737    0.1449684  79.83  0.001301472    2.687    0.628
        56  -9.2924    186.5667    230.8094   9.8390702288e+01   2.2199520904e+00    0.2716476    0.2171516 -80.49  0.001457189    2.229    0.551
        57  -8.1538    158.1334    232.2218   1.0359465553e+02   6.4306936332e+00    0.1595717    0.1184805  55.37 0.0005242147    1.377    0.274
        58  -8.9849    236.1355    230.8683   9.0092446519e+01  -5.1276294551e+00    0.1816929    0.1554371  10.78 0.0007204511    1.273    0.215
        59  -8.7706      1.7877    230.9243   1.3078623347e+02   2.6877467403e+01    0.1870321   0.08810353  71.44 0.0007854579    1.555    0.357
        60  -9.3349    246.5222    228.9400   8.8141789516e+01  -6.3717205324e+00    0.2925654    0.1655496 -27.03  0.001490077    1.866    0.464
        61  -7.9342    204.9534    230.4888   9.5183771054e+01  -5.4228707003e-01    0.1803627   0.09185348  37.83  0.001030345    1.583    0.368
        62  -9.2828    151.3161    228.9762   1.0440829484e+02   7.9476472423e+00     0.246054    0.1667155 -80.82     0.001131    2.514    0.602
        63  -9.4403    148.6917    224.6660   1.0433907019e+02   8.9899399229e+00    0.3558745    0.2451225 -88.89  0.001271504    2.418    0.586
        64  -8.2802    229.9548    229.0166   9.0803585191e+01  -4.0570620047e+00    0.1467451    0.1364245  46.64 0.0008300038    1.667    0.400
        65  -8.6631    162.0196    228.0032   1.0235319971e+02   6.4140816080e+00    0.2268993    0.1591813  61.68 0.0009934243    1.730    0.422
        66  -8.9136    127.8014    227.2127   1.0848035143e+02   1.1837412770e+01     0.248825       0.1784  78.31  0.001118558    1.711    0.416
        67  -8.1578    119.9734    227.7241   1.0997249935e+02   1.2938177494e+01    0.1891848    0.1390143  83.25 0.0008177007    1.603    0.376
        68  -8.4851     49.4390    227.2770   1.2265527106e+02   2.2535155119e+01    0.2573886   0.09441568  60.02  0.001314402    2.470    0.595
        69  -7.6265    223.4736    227.5024   9.1631500053e+01  -2.9537109233e+00    0.1139338   0.08906907  21.20 0.0008093762    1.060    0.056
        70  -8.4281    206.0379    226.3022   9.4376177414e+01  -2.1075604209e-01    0.1728348    0.1633932  79.32 0.0008307202    1.638    0.389
        71  -9.0475      7.7105    226.8975   1.2969238292e+02   2.7021478483e+01     0.147847     0.104519 -83.29 0.0008585894    1.439    0.305
        72  -8.9306    216.4671    224.0497   9.2264185554e+01  -1.5240146037e+00    0.2735449    0.1760808 -35.80  0.001426318    1.859    0.462
        73  -7.9305    200.1649    226.2083   9.5369429232e+01   6.9897001220e-01    0.1397506    0.1297088  38.03 0.0005113337    1.342    0.255
        74  -8.9561     94.5588    224.5352   1.1431694597e+02   1.7163711209e+01    0.3877057    0.1637305  60.47  0.001603706    2.794    0.642
        75  -8.7087    180.5045    224.4222   9.8552731938e+01   3.9933386490e+00    0.2061815      0.16797  56.29 0.0007638889    1.442    0.307
        76  -9.0601    104.6794    223.6640   1.1236071044e+02   1.5859750450e+01    0.2901217      0.17891  73.53  0.001687165    1.884    0.469
        77  -7.9382     38.4656    224.9816   1.2442546171e+02   2.4195107003e+01    0.1518246   0.06384148  73.47 0.0006839865    2.394    0.582
        78  -9.0221    239.3486    222.1568   8.8197510001e+01  -4.6710597493e+00    0.2668596    0.1879676 -47.60  0.001562558    2.484    0.597
        79  -8.2384    113.8722    224.1240   1.1070509898e+02   1.4429410211e+01    0.1854302    0.1319599  63.10 0.0007725095    1.320    0.242
        80  -8.0488     59.7951    224.0090   1.2059930661e+02   2.1861996398e+01    0.1882215   0.09284275  70.52  0.001061402    2.023    0.506
        81  -9.1797    225.3091    221.9731   9.0461067462e+01  -2.6072164038e+00    0.2036334    0.1717175  10.36 0.0007229351    1.158    0.136
        82  -9.3779    192.5661    221.5099   9.5991290971e+01   2.4725722885e+00      0.27733    0.2297546  85.76  0.001145159    2.060    0.515
        83  -8.6119    172.8582    222.8589   9.9699854104e+01   5.4177687812e+00     0.194257    0.1687015 -67.21 0.0006438325    1.579    0.367
        84  -9.3027    160.3479    221.3227   1.0176050097e+02   7.6329323793e+00    0.4898873    0.2318325  58.40  0.002036534    3.497    0.714
        85  -8.4976    140.3868    223.0770   1.0566742864e+02   1.0534433412e+01    0.1480402    0.1104593 -78.75 0.0009290219    1.795    0.443
        86  -9.5006      7.6398    221.9002   1.2951288816e+02   2.7907577427e+01     0.294555   0.08008368  49.86  0.001629326    2.398    0.583
        87  -8.1588    202.7948    220.7236   9.4084728443e+01   9.6887816506e-01    0.1468125    0.1268736  41.89 0.0005680283    1.323    0.244
        88  -9.2284    120.4618    219.4105   1.0894604391e+02   1.4209389817e+01    0.3981414    0.2004089  64.88  0.001819348    2.909    0.656
        89  -8.5843     82.6317    220.4678   1.1614329208e+02   1.9519986823e+01    0.2557506    0.1415513  76.24  0.001161307    2.078    0.519
        90  -8.1124     72.8184    220.6067   1.1796857328e+02   2.0807090889e+01    0.2342941    0.1060216  82.05 0.0009027259    3.367    0.703
        91  -8.3445     27.5700    220.7837   1.2608221415e+02   2.6124725415e+01    0.1895466   0.08315257 -73.80  0.001146469    2.179    0.541
        92  -8.4557    210.2880    219.5697   9.2613571999e+01  -5.1598609869e-02    0.1815899    0.1643926  29.97  0.000669001    1.297    0.229
        93  -8.5782    249.1042    218.2237   8.5999005438e+01  -5.6378477024e+00    0.2304519    0.1421897  54.64  0.001234778    3.071    0.674
        94  -8.2393    179.4730    217.9743   9.7800731324e+01   5.0336817992e+00    0.1434482     0.107397 -78.64 0.0008084893    2.425    0.588
        95  -8.8275    143.0050    216.5458   1.0434294036e+02   1.1136639018e+01    0.2746942    0.1898151 -85.40  0.001254821    2.226    0.551
        96  -9.3670    132.8837    216.0328   1.0618970060e+02   1.2830062030e+01    0.4261619    0.2542222  76.78  0.002034684    2.926    0.658
        97  -8.6059     61.9672    217.3255   1.1970238033e+02   2.2787757857e+01    0.2839916    0.1314267  71.93  0.001325922    2.441    0.590
        98  -9.0159     51.5056    217.3661   1.2162132875e+02   2.4060156012e+01    0.2570897    0.1355047  77.78 0.0009575785    1.835    0.455
        99  -8.7440    169.3141    216.3735   9.9418571791e+01   6.9055393547e+00    0.2345523      0.20219 -88.87 0.0008229575    1.602    0.376
       100  -8.0203    111.7796    216.9926   1.1031184583e+02   1.5933294722e+01    0.1940809    0.1193429  73.81   0.00100536    2.026    0.507
       101  -8.5427    232.4064    214.9629   8.8149800817e+01  -2.8695191549e+00    0.2044083    0.1869108 -57.20  0.001172556    1.874    0.466
       102  -7.9393     18.4221    216.2385   1.2743932453e+02   2.7885189652e+01    0.1441699   0.07504226  81.30 0.0009406181    1.575    0.365
       103  -8.4664    195.8522    214.8923   9.4397290327e+01   2.8135133236e+00    0.2549775    0.1378013  29.73  0.001224902    1.714    0.417
       104  -8.3985    185.6205    214.6380   9.6188649665e+01   4.4990595559e+00     0.203153     0.162192  72.95 0.0007746079    1.904    0.475
       105  -8.1112    154.3960    215.1958   1.0202083394e+02   9.5078672800e+00    0.1479657     0.116818 -70.51 0.0005264065    1.676    0.403
       106  -9.0464     92.8374    213.8192   1.1358268703e+02   1.9272729235e+01    0.2958943    0.1647311  70.09  0.001132993    2.062    0.515
       107  -9.4752     73.5757    212.3386   1.1711421560e+02   2.2200541162e+01    0.6671097    0.2093795  58.26  0.002455806    4.255    0.765
       108  -9.5383    214.0917    212.3224   9.0797645014e+01   2.4531699484e-01    0.3357582     0.254892  54.22  0.001789841    1.771    0.435
       109  -8.1835    224.9635    212.7477   8.9019988691e+01  -1.4903044821e+00    0.1770974    0.1495028 -37.43  0.001051745    1.602    0.376
       110  -8.6597    161.6070    212.2801   1.0025666129e+02   8.7729481302e+00    0.2291291    0.1810784 -78.85  0.000756145    1.812    0.448
       111  -8.2417    106.6187    213.1035   1.1086254580e+02   1.7380266600e+01    0.1819318    0.1315038  78.78 0.0009754217    1.475    0.322
       112  -8.9769    204.3137    211.0104   9.2284206425e+01   1.9634533544e+00      0.20271    0.1937851  36.90 0.0006033682    1.350    0.259
       113  -9.4539    175.6594    210.2722   9.7340900663e+01   6.7502375226e+00    0.3814141    0.2471093  66.34  0.001430983    2.546    0.607
       114  -8.9413      8.2295    211.8291   1.2900468159e+02   2.9676315618e+01    0.2363707   0.06479759  66.63  0.001047989    3.536    0.717
       115  -8.2695    192.3043    210.6417   9.4361215426e+01   3.9577359936e+00    0.1878508    0.1490502 -51.34 0.0008210362    1.701    0.412
       116  -8.9660    147.9661    210.5630   1.0259314744e+02   1.1282455258e+01    0.2592453    0.1809216  67.95  0.001216831    1.807    0.447
       117  -9.0758    116.4247    210.6143   1.0867934062e+02   1.6320231707e+01    0.2928065    0.1674912  63.52  0.001081076    1.995    0.499
       118  -9.2088    236.5885    208.4016   8.6356894050e+01  -2.7459752262e+00    0.2882173    0.2308194 -48.84  0.001365545    2.028    0.507
       119  -8.6064     85.6271    209.4382   1.1452827738e+02   2.1088532783e+01     0.311281    0.1584743  69.78  0.001538892    2.397    0.583
       120  -8.1819     32.3541    210.1942   1.2463990523e+02   2.7563310991e+01    0.1555763   0.07967647  85.19 0.0004907617    1.751    0.429
       121  -9.5523    246.4619    207.4371   8.4590702312e+01  -4.1004315239e+00    0.2427951     0.176166 -27.07 0.0008007711    1.507    0.337
       122  -8.6360    139.2443    208.2324   1.0394804387e+02   1.3089195500e+01    0.2414111    0.1575837  69.61 0.0008533182    2.035    0.509
       123  -8.3479    126.4742    208.4748   1.0645971537e+02   1.5109821961e+01    0.2116345    0.1446751  68.13 0.0006853004    1.651    0.394
       124  -8.2321    156.4957    207.9860   1.0059868133e+02   1.0282412338e+01    0.2116347    0.1559224  69.54 0.0009842246    1.756    0.431
       125  -9.2644     99.3981    206.1814   1.1149253006e+02   1.9697388533e+01     0.318156    0.1912656  76.42  0.001212567    2.027    0.507
       126  -8.5032     56.4523    205.3150   1.1978861281e+02   2.5712761724e+01    0.2764113    0.1359999  74.92  0.001139222    2.175    0.540
       127  -8.5568     12.0018    206.7674   1.2811902404e+02   3.0266456512e+01    0.1267963   0.07360698  43.34 0.0004786332    1.599    0.375
       128  -9.2459    195.0937    203.8952   9.2763664745e+01   4.4278675774e+00    0.3049858    0.2381548  62.47  0.001044914    1.771    0.435
       129  -9.6473    192.4647    197.4675   9.2164375119e+01   5.7845112021e+00    0.3935624    0.3020322 -84.10  0.001631815    2.487    0.598
       130  -8.9464    183.7261    204.1077   9.4880020796e+01   6.3011172409e+00    0.2787491    0.1740223  55.89    0.0010192    1.978    0.494
       131  -8.1459    109.2316    205.2864   1.0944804970e+02   1.8373865555e+01    0.1712645    0.1233239  68.86 0.0005771524    1.384    0.278
       132  -7.9874     24.9988    205.1993   1.2569175737e+02   2.9282953642e+01    0.1675345   0.08607301  72.98 0.0005730918    1.619    0.382
       133  -9.4185    250.1096    202.0177   8.3059224433e+01  -4.0308240309e+00    0.3503205    0.1526893 -27.07  0.001661114    2.255    0.557
       134  -9.8481    246.2339    194.3939   8.2307805726e+01  -2.5749834059e+00    0.4071455    0.3048609 -63.40  0.002153068    3.258    0.693
       135  -8.5829    210.9923    202.2562   8.9649939460e+01   2.0268206806e+00    0.1914032    0.1754125 -63.80 0.0007230066    1.646    0.393
       136  -7.9722     17.3523    203.6704   1.2700516969e+02   3.0340493836e+01    0.1211304   0.05474241  63.90 0.0007047134    1.773    0.436
       137  -9.1507    243.0262    200.8664   8.3991990118e+01  -2.8451258439e+00    0.2476041    0.1591581 -30.04 0.0008974381    1.634    0.388
       138  -8.8787    140.5880    201.2363   1.0270673976e+02   1.4044256691e+01    0.3117302      0.20755  76.03  0.001505221    2.204    0.546
       139  -8.6363     79.9791    201.3418   1.1482178447e+02   2.3396841923e+01    0.3024553    0.1555665  74.89  0.001457055    2.481    0.597
       140  -7.5634     72.6892    202.3352   1.1636458013e+02   2.4199195866e+01     0.127751   0.07341038  67.50 0.0005703728    1.681    0.405
       141  -8.2395     48.4439    201.9542   1.2106498937e+02   2.7326047182e+01    0.1672347    0.0750507  77.50 0.0008076301    2.529    0.605
       142  -7.9165     41.2889    202.6770   1.2248807541e+02   2.8012216016e+01    0.1200547   0.06422816  67.20 0.0004076097    1.606    0.377
       143  -8.0275     10.9574    202.7624   1.2811802722e+02   3.1124641967e+01    0.1307237   0.07683534  41.29  0.000892254    1.659    0.397
       144  -8.0202    222.1790    201.2431   8.7534369106e+01   3.5039469437e-01    0.1485949    0.1416231  -6.18 0.0006502157    1.367    0.269
       145  -8.3478    230.9743    194.3145   8.4807382775e+01  -1.8284122065e-01    0.1817117    0.1653754  -9.17 0.0005961485    1.294    0.227
       146  -9.2046    236.9922    198.5537   8.4567304644e+01  -1.6499031797e+00    0.2751794    0.1967812 -27.55  0.001346748    1.467    0.318
       147  -7.9958    233.4652    197.4759   8.4959787215e+01  -9.6927997175e-01    0.1576344    0.1498157  42.88 0.0006371876    1.526    0.345
       148  -9.4490    149.6258    198.7090   1.0055274611e+02   1.2948322110e+01    0.3915193    0.2677249  84.81  0.001504671    2.430    0.589
       149  -9.0144    124.1133    199.1981   1.0570388158e+02   1.7118178699e+01    0.2835113    0.2040378  87.73  0.001334575    1.730    0.422
       150  -9.4938    112.9185    198.5750   1.0787853791e+02   1.9025401369e+01    0.4082581    0.2327588  68.27  0.001683873    2.271    0.560
       151  -9.2398     88.7239    198.4197   1.1275722401e+02   2.2719513149e+01    0.4116693    0.2305116 -83.10   0.00191061    2.151    0.535
       152  -8.4913    177.0049    199.1902   9.5338506404e+01   8.1763552873e+00    0.1842614    0.1597882  54.79 0.0005241585    1.281    0.219
       153  -8.5603    202.3112    197.8428   9.0434608374e+01   4.0625687941e+00    0.1996353    0.1885328 -73.51 0.0006364672    1.510    0.338
       154  -9.2505     61.8030    197.1027   1.1803991887e+02   2.6640209088e+01    0.4266028    0.1929798  66.00  0.001967882    2.434    0.589
       155  -7.8676     12.4049    197.5923   1.2760193064e+02   3.1986684395e+01     0.211481   0.06976168  83.34 0.0009541276    3.180    0.685
       156  -8.8582    215.9616    195.4830   8.7595127834e+01   2.1067518294e+00    0.2652565    0.1895613 -53.62  0.001148124    2.197    0.545
       157  -8.3128    133.0089    196.0192   1.0346899247e+02   1.6220875996e+01    0.2003983    0.1425523  71.10 0.0005673107    1.670    0.401
       158  -8.8827    224.3508    193.9816   8.5872422337e+01   9.2763961093e-01    0.2656724    0.1914379 -52.06  0.001156645    2.188    0.543
       159  -8.8054    185.1405    194.9540   9.3098295451e+01   7.4158907353e+00    0.2113409    0.1968099  59.55  0.000611235    1.298    0.230
       160  -8.9772    161.1560    194.5730   9.7641552052e+01   1.1651387717e+01    0.2792765    0.1975051  64.19 0.0009797673    1.770    0.435
       161  -8.8930     77.2130    194.1344   1.1463545143e+02   2.5183497092e+01    0.2397161     0.154029  61.27 0.0006443146    1.379    0.275
       162  -8.9985     44.1914    193.6368   1.2125418953e+02   2.9463784905e+01    0.4304405     0.162127  66.21  0.001861331    3.139    0.681
       163  -9.6906    163.7896    202.9615   9.8451896850e+01   9.8479160443e+00    0.3562657    0.2537057  62.06   0.00105232    1.704    0.413
       164  -7.6914    205.2287    191.9757   8.8876300569e+01   4.3901641131e+00    0.1496384     0.102176 -31.77 0.0003842206    1.559    0.359
       165  -8.1095    199.0938    191.8564   8.9970355022e+01   5.4598900097e+00    0.1777948    0.1668191  49.35 0.0005785149    1.309    0.236
       166  -7.8982    178.9839    191.9358   9.3749755279e+01   8.9538596913e+00    0.1886056    0.1562658  75.58 0.0005684345    1.664    0.399
       167  -8.4824    172.3213    191.8777   9.5021813214e+01   1.0134735079e+01    0.2279482    0.1919964  80.94 0.0008324426    1.600    0.375
       168  -9.2424    139.5468    190.6030   1.0133859822e+02   1.6080835814e+01    0.3580979    0.2425421  81.55  0.001131058    2.228    0.551
       169 -10.5067     92.1824    188.7632   1.1092385997e+02   2.4100642938e+01     0.900739    0.2584667  50.43  0.003230201    3.598    0.722
       170  -8.4914    237.4569    188.0772   8.2575865691e+01  -4.3622735914e-01    0.2518983    0.1102803 -25.33  0.001094795    2.394    0.582
       171  -8.9662    216.5973    187.9697   8.6121080518e+01   3.0142125671e+00    0.2307291    0.1973509   2.78  0.000700966    1.070    0.066
       172  -7.8298    210.2868    189.6527   8.7548790835e+01   3.8532450369e+00    0.1126712    0.1034571 -86.50 0.0002833749    1.654    0.396
       173  -9.3038    156.1159    187.7735   9.7533423936e+01   1.3683451516e+01    0.3163819    0.2319675 -68.94  0.000901764    1.823    0.452
       174  -8.9398    129.1638    188.6232   1.0317238176e+02   1.8213762791e+01    0.2577919    0.1859601  81.37 0.0009900469    1.748    0.428
       175  -9.8844    120.9162    186.8753   1.0463356310e+02   1.9926644491e+01    0.4881168    0.2719381 -76.19  0.002159768    2.766    0.638
       176  -8.8798     34.2777    188.2201   1.2282041442e+02   3.1662650217e+01    0.3004173    0.1223096  69.24  0.001128027    2.601    0.616
       177  -8.6075    131.2394    203.8478   1.0491528372e+02   1.5138166899e+01    0.2371867    0.1706608  71.48 0.0009162137    1.616    0.381
       178  -8.7756    191.5972    187.4513   9.0573562849e+01   7.4217655467e+00    0.2467867    0.2021582 -83.16 0.0008523481    1.966    0.491
       179  -9.3821    109.6658    186.1527   1.0689966771e+02   2.1906361519e+01    0.4127146    0.2637789  79.34  0.001552213    2.014    0.504
       180  -9.1544     54.7230    186.8952   1.1855014717e+02   2.9583082785e+01    0.3574615    0.1802275  74.71  0.001539435    2.143    0.533
       181  -8.2693    230.6808    187.2405   8.3554397090e+01   7.6672700426e-01     0.173976    0.1490047 -28.17 0.0007047538    1.363    0.266
       182  -8.8087    164.7793    186.6607   9.5616464441e+01   1.2330467427e+01    0.2292763    0.2068047  84.05 0.0007162896    1.342    0.255
       183  -8.8405    249.3570    185.5556   8.0164289402e+01  -2.0006517497e+00    0.2228561    0.1873807 -31.50 0.0007974023    1.487    0.327
       184  -8.9521    182.8932    185.0081   9.1787641037e+01   9.3513583532e+00    0.2712981    0.1906605 -40.35 0.0009443657    1.569    0.363
       185  -8.9020    210.2206    184.2533   8.6564991036e+01   4.6267015483e+00    0.2421947    0.1914916 -35.50 0.0007028301    1.411    0.291
       186  -8.5862    202.8481    184.6509   8.7976680829e+01   5.8569333165e+00    0.2259685    0.1715136 -54.62 0.0009479486    1.840    0.457
       187  -9.0822     66.7727    184.6615   1.1581411035e+02   2.8510785938e+01    0.3616292    0.1724397  58.67  0.001058212    2.057    0.514
       188  -9.1802    223.6593    183.3613   8.4026042391e+01   2.4480873818e+00    0.2276138     0.212859   4.80 0.0007060592    1.244    0.196
       189  -8.9874    174.2629    183.5364   9.3200627395e+01   1.1144769851e+01    0.2470493    0.2167169  89.33 0.0008197065    1.498    0.333
       190  -8.0859      1.7874    183.7774   1.2892452350e+02   3.5668679693e+01    0.1577967   0.08882304  64.93  0.001051516    1.371    0.270
       191  -9.1788    241.1552    181.7055   8.0759553767e+01  -2.2638290197e-01    0.3412789    0.2041172 -50.25  0.001646317    2.937    0.660
       192  -8.9615     44.2070    182.2865   1.2032444385e+02   3.1786124754e+01    0.3010367    0.1565014  78.60 0.0009634823    1.911    0.477
       193  -8.7034     19.8449    183.2442   1.2536536751e+02   3.4152988212e+01     0.209498    0.0723115  63.49 0.0009541138    2.847    0.649
       194  -9.4192    147.6147    180.7643   9.8099207656e+01   1.6442909968e+01    0.3455675    0.2531302  87.84  0.001121849    1.961    0.490
       195  -8.3755    143.4777    180.5460   9.8922700221e+01   1.7222759431e+01    0.2184433    0.1589269  36.91 8.820881e-05    1.308    0.235
       196  -8.6738    148.5265    189.3424   9.9318184672e+01   1.4746893939e+01    0.2169806    0.1798694 -85.59  0.000775103    1.488    0.328
       197  -9.5207     25.8360    179.3913   1.2389726158e+02   3.4363576698e+01    0.6259886    0.2065121  73.72   0.00225321    4.613    0.783
       198 -10.2266    191.1471    178.9436   8.9097070585e+01   8.8182004753e+00     0.312052    0.2801953 -23.95 0.0007371148    1.183    0.155
       199  -8.7147    137.5321    179.3841   9.9978114021e+01   1.8495644736e+01    0.2770306    0.1942391  79.18 0.0008605075    1.963    0.491
       200  -8.0086    169.3500    178.6623   9.3300979535e+01   1.2859166253e+01    0.1930572     0.156234  79.87 0.0006842176    1.683    0.406
       201  -9.1540     35.7705    176.4823   1.2160859989e+02   3.3945686232e+01     0.582365    0.2045966  83.96  0.002016865    4.760    0.790
       202  -9.7009    248.4367    176.6403   7.8597812504e+01  -7.5742227260e-01    0.4013915    0.2735687 -43.45  0.001794534    1.949    0.487
       203  -8.6314    250.5196    172.9263   7.7535063190e+01  -6.2380001316e-01    0.1794305    0.1534831  -7.29 0.0004417499    1.155    0.134
       204  -8.7633    204.9903    177.5430   8.6243990200e+01   6.5307672301e+00    0.2267019    0.1813821 -46.82  0.000662231    1.538    0.350
       205  -8.9317    129.4800    177.5452   1.0139116362e+02   2.0262482831e+01    0.2914962    0.1863838  76.89  0.000961809    2.339    0.572
       206  -8.2178     97.1183    177.7446   1.0844428596e+02   2.5582160551e+01    0.1908904     0.151941   9.38 0.0008495817    1.890    0.471
       207 -10.6710     76.0274    171.4116   1.1229019037e+02   3.0047517305e+01     1.093431    0.4323713 -75.06  0.003383522    3.262    0.693
       208  -9.3962     74.3282    160.3430   1.1124563960e+02   3.2713102181e+01    0.4753826    0.2679118  12.72  0.001699189    4.810    0.792
       209  -8.6240    230.9908    176.8133   8.1508831162e+01   2.0936748486e+00     0.228281    0.1720421 -34.68  0.000781237    1.461    0.316
       210  -8.1802    217.2443    177.1816   8.3964403340e+01   4.4105777583e+00    0.1628181    0.1521119 -42.71 0.0005974578    1.391    0.281
       211  -9.4308    183.1315    175.6629   9.0023000054e+01   1.0817591359e+01    0.3164769    0.2205405 -42.07 0.0008519161    1.565    0.361
       212  -9.3073    159.0197    175.2818   9.4787965147e+01   1.5356775605e+01    0.3958406    0.2656682  76.05  0.001412594    2.501    0.600
       213  -8.8645     89.0188    176.7235   1.1008429276e+02   2.7030925997e+01    0.2821645    0.1704642  78.44  0.001163485    2.000    0.500
       214  -9.1012     59.0302    176.0302   1.1657494072e+02   3.1324428156e+01    0.4069274    0.1728231  62.49  0.001412489    2.742    0.635
       215  -9.5457     55.9726    171.2712   1.1674767666e+02   3.2731066023e+01    0.4462565    0.2111471  77.45  0.001953462    2.732    0.634
       216  -8.7054     12.5679    176.5231   1.2641461986e+02   3.6221912256e+01    0.2606045     0.103952  64.90  0.001031769    2.262    0.558
       217  -7.6307    211.6760    176.3260   8.4793083681e+01   5.5168769146e+00    0.1197459    0.1074418 -88.46 0.0003849814    1.690    0.408
       218  -9.5390    104.3017    174.6661   1.0643072439e+02   2.5079339482e+01    0.4962994     0.323896  76.45  0.001891365    1.846    0.458
       219  -8.5147    224.3795    174.2763   8.2145199948e+01   3.5758717724e+00    0.2092311    0.1552838 -34.77 0.0006324463    1.447    0.309
       220  -9.5118    175.7173    172.3488   9.0858130946e+01   1.2756062222e+01     0.314759    0.2388891 -36.41 0.0007907436    1.405    0.288
       221  -8.7972    143.2574    172.8550   9.7658895736e+01   1.8703350178e+01     0.249171    0.1999376  83.83 0.0007834853    1.517    0.341
       222  -7.9606    194.3124    172.3276   8.7229397618e+01   9.2845211828e+00    0.1397131   0.09872042   7.88  0.000542388    1.667    0.400
       223  -8.8953    134.9337    171.8437   9.9271047682e+01   2.0405708928e+01    0.2777642    0.2113241  89.63  0.000982611    1.649    0.394
       224  -9.6634    121.4003    170.4036   1.0199032495e+02   2.3085611050e+01    0.4256275    0.2718706 -76.42  0.001213775    2.044    0.511
       225  -9.1873     44.8936    170.7852   1.1914239161e+02   3.4156588263e+01    0.3676577    0.1848448  83.54  0.001235962    2.096    0.523
       226  -8.3232    198.7809    170.3341   8.5992720048e+01   8.7713269147e+00    0.2263197    0.1795871 -63.83 0.0008905297    1.831    0.454
       227  -8.0708    244.5426    169.6911   7.7848808074e+01   7.6819572415e-01    0.1612411    0.1108996 -33.56 0.0009283424    1.506    0.336
       228  -8.2167    237.2151    169.7151   7.9056071489e+01   1.9954318857e+00    0.2053874    0.1577229 -31.07 0.0006275775    1.362    0.266
       229  -8.8326    230.7573    170.1617   8.0231233981e+01   3.0420411105e+00    0.1875047    0.1667064  -6.21  0.001205522    1.137    0.121
       230  -8.3046    205.7374    170.1569   8.4662320149e+01   7.5143117744e+00    0.1987516    0.1640093 -47.75 0.0005916197    1.483    0.326
       231  -9.1787    167.2720    168.8399   9.1898375699e+01   1.4963736776e+01    0.3763142    0.2556861  69.31  0.001218219    2.181    0.541
       232  -8.7628    149.8560    169.4472   9.5647155918e+01   1.8131955709e+01    0.2869255    0.1852123 -60.54  0.001017214    1.888    0.470
       233  -8.5019     88.7858    168.9380   1.0908684110e+02   2.8715755296e+01    0.2486172     0.166492  86.48 0.0009822012    1.643    0.391
       234  -8.3333    218.7208    168.2661   8.1937311551e+01   5.4363290242e+00    0.1879416    0.1597745 -37.54 0.0005589273    1.355    0.262
       235  -7.9677    211.3811    168.1745   8.3233587618e+01   6.7813190534e+00    0.1805066     0.120152 -43.53 0.0004943674    1.724    0.420
       236  -9.0463    191.8799    166.9420   8.6631604575e+01   1.0610409456e+01    0.2834778    0.1918799 -36.18 0.0006844021    1.534    0.348
       237  -8.8975    111.6493    167.3550   1.0367370832e+02   2.5383700111e+01    0.3410485    0.2178198  81.74  0.001182442    2.170    0.539
       238  -8.8330    185.1472    166.6736   8.7887516751e+01   1.1934459046e+01    0.2669911    0.2171865 -77.06   0.00130545    1.795    0.443
       239 -10.1118     95.1355    163.2146   1.0680213850e+02   2.8968739203e+01    0.8207289    0.4078637  73.92  0.002718558    4.355    0.770
       240  -8.9878     20.8336    166.4818   1.2401930678e+02   3.7597044256e+01    0.3252122    0.1050727  54.92  0.001034082    2.881    0.653
       241 -10.0071    136.7211    164.4259   9.7576032871e+01   2.1542499542e+01    0.6103055    0.3016982  57.39  0.002089624    2.579    0.612
       242  -8.2122    233.9907    165.0077   7.8639766048e+01   3.1946699214e+00    0.1970709    0.1694427 -10.11  0.000554516    1.101    0.092
       243  -8.9399    159.5688    164.5136   9.2668640069e+01   1.7220352968e+01    0.2814064    0.2369541  82.16   0.00104258    1.466    0.318
       244  -9.4605     33.5563    163.4302   1.2097700937e+02   3.7005199311e+01    0.5006828    0.1777799  56.98   0.00217455    2.912    0.657
       245  -8.2352    239.5446    163.9153   7.7492414178e+01   2.3835082790e+00    0.2464135    0.1718459 -50.49  0.001309428    2.088    0.521
       246  -9.2825    211.9814    163.2831   8.2127714366e+01   7.4135116779e+00    0.2871693    0.2296073  54.18  0.001625462    1.505    0.336
       247  -9.0350    246.0292    162.9095   7.6231750351e+01   1.4148127726e+00    0.2188598    0.1615636 -21.23 0.0005077348    1.223    0.183
       248  -8.3982    204.8691    163.0589   8.3386251367e+01   8.7789185560e+00    0.1945252     0.183735 -46.96 0.0005891041    1.291    0.225
       249  -9.2917      3.4106    162.4804   1.2748169329e+02   3.9968542205e+01    0.3519245     0.134743  57.13  0.001593803    2.281    0.562
       250  -9.3027    197.2281    159.2527   8.4035114774e+01   1.0849116415e+01    0.4705257    0.3025246 -62.20  0.002039993    2.691    0.628
       251  -9.0000    151.6577    161.1110   9.3697531717e+01   1.9380302854e+01    0.2974157    0.2279453 -82.10  0.001075005    1.756    0.431
       252  -8.9374    177.3699    160.6702   8.8231270365e+01   1.4470347881e+01    0.2662053    0.2236715 -89.20 0.0009275514    1.622    0.383
       253  -8.9146     60.6306    160.5064   1.1447443844e+02   3.4517709626e+01    0.3301192    0.1546473  64.95  0.001421938    2.610    0.617
       254  -9.8932    250.1851    157.8909   7.4532173244e+01   1.3813673543e+00    0.3537112    0.1614464 -30.27 0.0008213826    1.991    0.498
       255  -8.7257    227.5122    159.2508   7.8546756163e+01   5.1636106669e+00    0.2812124    0.1947577 -50.79 0.0009973667    1.983    0.496
       256  -8.4713    237.1671    159.1624   7.6900034226e+01   3.4524766058e+00    0.1707378    0.1488306 -35.92 0.0005793364    1.358    0.264
       257  -9.2996    167.6453    157.3473   8.9553192623e+01   1.6978606127e+01    0.3361567    0.2592643 -83.87  0.001121888    1.897    0.473
       258  -8.4119    128.0800    159.0527   9.8531388665e+01   2.4219935037e+01    0.2240702    0.1652033  81.39 0.0005880223    1.696    0.410
       259  -9.8072    105.7612    157.6171   1.0343353621e+02   2.8450781221e+01    0.4986287    0.3292143 -74.50  0.001562955    1.694    0.410
       260  -8.7230    188.1230    157.7014   8.5474189244e+01   1.2881618646e+01    0.2372209    0.1856186 -46.08 0.0006144781    1.411    0.291
       261  -8.4401    217.9752    156.5498   7.9642419081e+01   7.3225827621e+00    0.2419472    0.1775568 -45.39 0.0007191217    1.600    0.375
       262  -9.3128    157.6562    156.0770   9.1411335103e+01   1.9183434432e+01    0.3417182    0.2438847 -60.94  0.001162984    1.683    0.406
       263  -9.5145    119.5794    155.3531   9.9810421716e+01   2.6535597191e+01    0.4031576    0.2688819 -89.93  0.001553693    2.118    0.528
       264  -9.5139     81.8965    155.0755   1.0870138779e+02   3.2799768674e+01    0.4752923    0.2637691  71.36  0.001477674    2.378    0.579
       265  -8.0909    204.7254    155.3940   8.1807521263e+01   1.0027718328e+01    0.2342777    0.1591487 -44.23 0.0006172301    1.630    0.387
       266  -8.6794    144.8858    155.2559   9.4036272077e+01   2.1831669979e+01    0.3545935    0.2234506  66.29  0.001150555    2.183    0.542
       267  -9.0562     49.6535    155.4592   1.1646346228e+02   3.7006114680e+01    0.3375718    0.1851615  65.20  0.001424468    1.868    0.465
       268  -7.8545    237.4485    150.4859   7.5010646258e+01   4.6284469575e+00    0.1347489    0.1144746  -3.95 0.0001130654    1.005    0.005
       269  -9.3454    242.6332    154.7943   7.5086103280e+01   3.1000727454e+00    0.2078319    0.1802111  22.29  0.000464335    1.178    0.151
       270  -7.9688    239.7803    153.0014   7.5168377481e+01   3.8537118822e+00    0.1733387    0.1501682 -31.37 0.0004716789    1.281    0.220
       271  -9.9478    132.8256    153.0501   9.6322746177e+01   2.4582852997e+01    0.4437943    0.3459667  84.80  0.001252009    1.554    0.357
       272  -9.6712    133.3392    148.3414   9.5278378459e+01   2.5467771053e+01     0.383972    0.2851751 -33.31  0.001918085    1.582    0.368
       273  -9.5276     68.1585    153.9667   1.1185054065e+02   3.5002006836e+01    0.4421232    0.2254773  68.16  0.001211719    2.518    0.603
       274  -9.0946    151.7952    152.4596   9.1949819270e+01   2.1039260558e+01    0.2698995    0.1668776 -37.96    0.0012373    1.770    0.435
       275 -10.9689     55.3715    143.8368   1.1363291367e+02   3.8992577246e+01     1.195113    0.5973781 -85.63  0.004212669    2.298    0.565
       276  -9.2322     20.1913    152.5882   1.2307821845e+02   4.0717759029e+01    0.2411967    0.1392117  72.92 0.0009519453    1.539    0.350
       277  -9.7094     29.4207    150.7827   1.2076414215e+02   4.0254680810e+01    0.4660819    0.1947318  71.46   0.00199348    2.927    0.658
       278  -9.8172    248.8424    149.3605   7.2939142624e+01   2.7632177675e+00     0.330397    0.1890551 -29.07 0.0008323687    1.570    0.363
       279  -8.9013    247.0179    143.9807   7.2060635865e+01   3.8293889409e+00    0.2726693    0.1650118 -22.81 0.0004953805    1.506    0.336
       280  -9.4880    242.7775    149.9930   7.4037954382e+01   3.7430326357e+00    0.2979719    0.2722061   0.68  0.001468813    1.155    0.134
       281  -8.8948    189.4321    150.3819   8.3657970628e+01   1.3882564340e+01    0.2985714    0.2226129 -52.50 0.0008485176    1.585    0.369
       282  -7.9892    182.2238    151.2176   8.5274067207e+01   1.5184423703e+01     0.186426     0.169341 -82.25 0.0005459515    1.366    0.268
       283  -8.6015    162.7849    150.7370   8.9209976856e+01   1.9186735504e+01    0.2656417    0.1901674 -73.76  0.001000465    2.057    0.514
       284  -8.8657     98.3043    150.7979   1.0405908821e+02   3.1193912067e+01    0.2682994    0.1935928  89.02  0.001056461    1.548    0.354
       285  -8.2254    213.0818    149.8263   7.9071150425e+01   9.2982537190e+00    0.1906797    0.1884113 -32.77 0.0004344955    1.236    0.191
       286 -10.3237     89.3058    146.5814   1.0555105649e+02   3.3593415297e+01    0.6511235     0.357025  85.29  0.002452876    3.173    0.685
       287  -9.7218     39.9116    148.1013   1.1797560972e+02   3.9786998725e+01    0.5335444    0.2135862  62.12  0.002032459    3.132    0.681
       288  -8.4326    198.8100    149.0290   8.1546194547e+01   1.2236263403e+01    0.2069575    0.1903038 -65.36 0.0006069526    1.352    0.260
       289  -9.6351    233.2560    147.5432   7.5065986272e+01   5.8206405270e+00    0.3036503    0.1764485 -23.52 0.0007931858    1.665    0.399
       290 -10.4446    106.8288    143.9858   1.0076154763e+02   3.1275910351e+01    0.8188407    0.5337902 -84.13  0.002471688    2.020    0.505
       291  -9.1837     78.2818    147.4329   1.0842316122e+02   3.5071116637e+01    0.3041299    0.1813748  69.87 0.0009640171    1.999    0.500
       292  -8.4520    223.2647    146.8058   7.6603898976e+01   7.8085481436e+00    0.2335151    0.1559954 -32.91 0.0006312037    1.435    0.303
       293  -8.4057    175.5389    146.4636   8.5606586277e+01   1.7401821721e+01     0.242445    0.1984849  88.95 0.0007425745    1.671    0.402
       294 -10.2969    149.0734    145.0519   9.1010363925e+01   2.3058616941e+01    0.5626561    0.3878659  86.06  0.001735644    2.384    0.581
       295  -9.9557    139.1257    144.9625   9.3252954545e+01   2.5051939683e+01    0.5067145    0.3135381 -70.91  0.001069944    2.391    0.582
       296  -9.4477    140.0529    137.2528   9.1389191708e+01   2.6479741978e+01    0.5163673     0.315556  23.40  0.002061066    2.447    0.591
       297  -9.1217     13.0014    145.7762   1.2419911221e+02   4.2871415328e+01    0.3621719    0.1479938  71.32   0.00131562    2.617    0.618
       298  -9.9434    241.3427    144.3461   7.3041553134e+01   4.7999139252e+00    0.4927636    0.2945364   4.03  0.002264251    2.214    0.548
       299  -9.8808    125.2385    142.8398   9.6073579788e+01   2.8180822788e+01    0.5714468    0.3704061 -86.98  0.001813141    2.472    0.595
       300  -8.4623    125.5229    135.9898   9.4579008381e+01   2.9615839728e+01    0.2958302    0.1935472  15.38    0.0011816    2.618    0.618
       301 -11.0126     69.3687    141.3294   1.0972470899e+02   3.7753353379e+01    0.7290125    0.4640057 -83.09  0.003717272    1.608    0.378
       302  -8.0399    194.3701    144.1394   8.1315962524e+01   1.3963286402e+01    0.2036167    0.1284576 -47.14 0.0005836131    1.762    0.432
       303  -8.7967    165.4566    144.0913   8.7208110523e+01   1.9916524704e+01    0.2689303    0.2070619  53.50 0.0006714558    1.349    0.259
       304  -9.4419      2.6442    141.5280   1.2631672342e+02   4.4628274594e+01     0.390941    0.1581946  80.60   0.00150419    2.352    0.575
       305  -7.6542    206.7820    146.5852   7.9509883686e+01   1.1054551398e+01     0.181812    0.1346404  55.94 0.0005264772    1.592    0.372
       306  -8.5362    182.0146    141.6214   8.3201145318e+01   1.6953048856e+01    0.2677166    0.1990287 -53.90 0.0006104661    1.559    0.359
       307  -8.1447    250.3034    141.0235   7.0902518298e+01   3.6563789706e+00    0.1915475    0.1499854 -19.13 0.0005521855    1.105    0.095
       308  -9.7219     23.7232    138.3380   1.2093683042e+02   4.3648040454e+01    0.4977328    0.2020774  65.87   0.00190041    2.993    0.666
       309  -8.5044    172.1569    138.4601   8.4522144709e+01   1.9598380157e+01    0.2861719    0.2207246 -81.29 0.0008104294    1.872    0.466
       310  -7.7337    218.5305    138.5444   7.5578685196e+01   1.0015628235e+01    0.1410705    0.1264428  -4.05  0.000117659    1.003    0.003
       311  -8.3704    207.3849    138.0088   7.7461861430e+01   1.2345005880e+01    0.2307103    0.2046687 -84.65 0.0009071874    1.518    0.341
       312  -8.8120    197.5369    137.4730   7.9188198717e+01   1.4461710427e+01    0.2869287    0.2162207 -57.29 0.0007801673    1.671    0.402
       313  -9.0958    151.2223    136.1951   8.8583740742e+01   2.4417995071e+01    0.4645949    0.2785558  22.68  0.001788495    2.591    0.614
       314  -7.8286    192.4729    136.9625   8.0049997502e+01   1.5605743109e+01    0.1959049    0.1233814 -59.25 0.0008064259    2.337    0.572
       315  -8.7044    162.6940    136.4087   8.6081923494e+01   2.1981817827e+01    0.2589967    0.1824491 -54.95 0.0007659217    1.585    0.369
       316  -9.4243     39.0948    136.1863   1.1679709934e+02   4.2647721304e+01    0.2745956    0.1720997  81.85 0.0009044982    1.545    0.353
       317  -8.8018    248.4033    135.1989   6.9903479510e+01   4.8155816493e+00    0.2914947    0.1657456 -29.81 0.0007129573    1.556    0.357
       318  -9.0419    250.7089    130.2497   6.8439800196e+01   5.0949014251e+00    0.5493308    0.1180407 -31.26  0.001623836    4.225    0.763
       319  -8.5832    246.9140    130.3363   6.9035381440e+01   5.7833355522e+00    0.2519439    0.1650113 -39.75 0.0006666721    1.540    0.350
       320 -10.5127     83.3647    132.8316   1.0466712132e+02   3.7705742852e+01    0.5534168    0.3161701 -75.90  0.001193061    2.024    0.506
       321  -8.0877    237.4966    133.5777   7.1251710051e+01   7.0836260437e+00    0.2446578     0.110266 -41.47 0.0008515832    2.303    0.566
       322  -8.5833    179.5219    134.0245   8.1961602979e+01   1.8872288327e+01    0.2527414    0.2123193  71.22 0.0006498045    1.444    0.307
       323 -10.2660    132.3519    131.5424   9.1949906628e+01   2.9241779019e+01    0.5608334    0.3926337 -79.17  0.001064582    1.971    0.493
       324  -9.3712    112.8442    133.1283   9.7112267355e+01   3.2640185253e+01    0.3795593    0.2837833 -80.94  0.001160405    1.547    0.354
       325  -9.3170    143.2064    131.7681   8.9421058528e+01   2.6989114385e+01    0.3629453    0.2578154 -72.27 0.0007643615    1.852    0.460
       326 -10.5394     98.2997    129.6857   1.0013842284e+02   3.6011070084e+01    0.8839198    0.3262661 -56.34  0.002188463    2.631    0.620
       327 -10.1995     73.4395    128.8451   1.0659521388e+02   4.0128042777e+01     0.579137    0.2839582 -68.71  0.001269588    2.058    0.514
       328 -10.1141     12.8044    128.8629   1.2278683367e+02   4.6764021350e+01    0.5680873    0.2399017  83.50  0.002135217    2.507    0.601
       329  -8.1812    204.4508    130.2207   7.6183727159e+01   1.4258024565e+01    0.2022562     0.131232 -45.16 0.0007791597    1.639    0.390
       330  -8.2483    192.9026    130.1983   7.8374578190e+01   1.6709753860e+01    0.2130117    0.1979094 -66.00 0.0004663114    1.255    0.203
       331  -9.5047    168.3704    129.0145   8.3118605215e+01   2.2215980693e+01    0.4202718    0.2660256 -39.31 0.0009935661    1.578    0.366
       332  -9.6330    153.0319    128.1238   8.6301255800e+01   2.5685131380e+01    0.7106498    0.2506048 -43.11  0.002091177    2.841    0.648
       333  -8.1201      1.8037    130.5493   1.2571542375e+02   4.7173102335e+01    0.1525767   0.09117838  50.44 0.0009461512    1.681    0.405
       334  -7.6745    231.3902    134.1631   7.2381754813e+01   8.1698639587e+00    0.1893385    0.1183709 -39.34 0.0003333195    1.594    0.373
       335  -8.2541    211.6387    129.1611   7.4620005538e+01   1.2933400291e+01    0.2215713    0.1673373 -47.63 0.0006798047    1.469    0.319
       336  -7.5630    186.4946    129.5701   7.9489660471e+01   1.8196918521e+01    0.1467514    0.1406106   1.43 0.0001303735    1.016    0.015
       337  -8.3386    161.8214    129.6228   8.4689455936e+01   2.3505830311e+01    0.2162337    0.1411835  56.53 0.0008433018    1.697    0.411
       338 -10.6835     44.9392    123.7038   1.1355811566e+02   4.4986835167e+01     1.048544    0.4856593  76.14  0.003821904    3.713    0.731
       339  -8.1912     25.6535    129.6857   1.1953167975e+02   4.5494991773e+01    0.1229626   0.08286113 -48.31 0.0006565186    1.717    0.418
       340 -10.5474     60.0630    125.1427   1.0960652087e+02   4.2834366818e+01    0.7065473    0.3743493  75.90   0.00264662    2.868    0.651
       341 -10.0904    118.1706    124.8253   9.3951614856e+01   3.3507178613e+01    0.6733395    0.4953893 -63.67  0.002468538    1.413    0.292
       342  -8.2507    228.4716    125.0791   7.0749964240e+01   1.0141023839e+01    0.2194726    0.1278212 -31.80 0.0008104637    1.571    0.363
       343 -10.1911     28.4892    122.4639   1.1792090668e+02   4.6947219763e+01    0.6961005    0.3073947  77.01   0.00278747    3.213    0.689
       344  -8.2432    187.8449    135.8214   8.0697761020e+01   1.6780385607e+01    0.1912441    0.1762832 -75.10 0.0004294165    1.300    0.231
       345  -7.6867    188.6760    124.3059   7.7777529074e+01   1.8678329356e+01    0.1472878     0.120069 -76.64 0.0004467578    1.644    0.392
       346  -8.5841     84.9480    122.9864   1.0235943351e+02   3.9783266382e+01    0.3326791    0.2217585 -10.70  0.001333634    3.103    0.678
       347  -9.3396    158.7366    121.7262   8.3456298137e+01   2.5751530804e+01    0.3837376    0.2861761 -82.17 0.0009429141    1.926    0.481
       348  -7.8952    202.8170    121.8257   7.4456963778e+01   1.6039355025e+01    0.1976031    0.1726525 -59.00 0.0004719497    1.337    0.252
       349  -8.0516    194.9631    122.0123   7.5985679476e+01   1.7714554636e+01    0.2296846     0.180245 -67.01 0.0004484235    1.677    0.404
       350  -8.3421    171.9550    121.5168   8.0517364929e+01   2.2881495331e+01     0.272331      0.20301 -54.34 0.0005010667    1.483    0.326
       351 -10.1392    131.1740    118.6484   8.9214995568e+01   3.2282433835e+01    0.6187709    0.4112622 -81.54  0.002212855    2.425    0.588
       352  -9.4867     70.9600    119.6782   1.0559595804e+02   4.2674624951e+01    0.3953811    0.2560533 -86.44  0.001325523    1.787    0.440
       353 -10.1912    141.5255    117.8732   8.6491683715e+01   3.0275275970e+01     0.708104    0.3132914 -50.53  0.001841087    2.390    0.582
       354  -9.5032      2.9382    117.3400   1.2432102670e+02   5.0143707453e+01    0.4477488    0.1808955  72.75   0.00200626    2.845    0.649
       355  -9.0081    179.2396    124.9102   7.9832491280e+01   2.0632741804e+01    0.2679657    0.2476489  82.69 0.0006336073    1.249    0.199
       356  -8.3336    185.8039    116.1429   7.6305635273e+01   2.0801056188e+01    0.2273539    0.2009281 -54.51 0.0004909512    1.224    0.183
       357  -9.9310    109.3414    114.3130   9.3808868818e+01   3.7575333698e+01    0.5119578    0.3344572 -74.74   0.00134952    2.020    0.505
       358  -9.0263    109.1931    107.9902   9.2295051308e+01   3.9048385347e+01    0.4567572    0.3078257   0.19  0.001740225    2.924    0.658
       359  -8.7611     59.8237    115.2410   1.0794588288e+02   4.5251751635e+01     0.296897    0.2101579  -8.23  0.001447043    2.348    0.574
       360  -8.9234    249.8362    115.3513   6.5136652783e+01   7.3916999678e+00    0.2097384    0.1795042 -36.68  0.001216807    1.198    0.165
       361  -8.1011    192.9941    115.3080   7.4682964467e+01   1.9341272620e+01    0.2010378    0.1963089 -22.33 0.0004759878    1.063    0.059
       362  -7.7812    153.3013    115.6428   8.3156689421e+01   2.8180437277e+01     0.158694    0.1221723 -78.15  0.000703774    1.711    0.416
       363 -10.0116     78.8734    112.4183   1.0187558878e+02   4.3247365634e+01    0.5414015     0.342407  88.83  0.001660528    2.220    0.550
       364  -7.8663    167.4484    114.4974   7.9701087735e+01   2.5249206582e+01     0.152411    0.1480963 -46.25 0.0002045955    1.047    0.045
       365  -9.8247    121.9948    112.6492   9.0059505920e+01   3.5478642725e+01    0.3754713    0.2834301 -59.75 0.0005957644    1.354    0.262
       366 -10.2168     92.6844    112.2934   9.7914198476e+01   4.1039667327e+01    0.6431897    0.3632729 -70.84  0.001530617    2.240    0.553
       367  -8.7582     93.4675    104.4953   9.5837752987e+01   4.2734030468e+01    0.4606164    0.2491855  21.06  0.001605979    3.500    0.714
       368  -9.0579     27.4678    113.6898   1.1706990915e+02   4.9137365607e+01    0.2879144    0.1625956  20.16   0.00151257    2.392    0.582
       369  -8.6908    174.8519    112.1872   7.7523273184e+01   2.4016603944e+01    0.3327279    0.2026814 -52.12 0.0007723675    1.862    0.463
       370 -10.0463    133.6946    109.3937   8.6241947040e+01   3.3761593309e+01    0.7036334    0.3108386 -50.83  0.002262252    2.369    0.578
       371  -9.7588     14.1704    111.2425   1.2057728274e+02   5.0802797723e+01    0.4183824    0.1907661  82.58  0.001798889    2.480    0.597
       372  -9.1393    158.4690    111.9497   8.1022368562e+01   2.7777080860e+01    0.3941958    0.2614305  38.57  0.001735413    1.607    0.378
       373 -10.1811     66.3865    109.7896   1.0497342175e+02   4.5695917807e+01    0.6235559    0.3217472 -65.72   0.00200816    1.829    0.453
       374  -9.7668    248.5069    108.6361   6.3740187756e+01   8.6238679588e+00    0.2814983    0.2373651 -52.27  0.001043004    1.370    0.270
       375 -10.6163    249.0120    103.0897   6.2339580974e+01   9.3309601067e+00    0.5620527    0.2869804 -34.87  0.002592371    1.688    0.408
       376  -8.8122    212.1139    108.6519   6.9486737213e+01   1.6235047156e+01    0.2464493    0.1853968 -37.97 0.0005097215    1.266    0.210
       377  -7.8191    182.6597    109.2576   7.5151970472e+01   2.2781064077e+01    0.2126459    0.1400623 -29.24 0.0009297429    1.546    0.353
       378  -9.6918    119.0483    107.1536   8.9429371041e+01   3.7298387011e+01    0.4437146    0.2244159 -47.47  0.001757305    1.900    0.474
       379  -9.1625     42.9378    109.3163   1.1186890165e+02   4.8677783102e+01    0.3108913    0.1691828  23.25  0.001506423    2.420    0.587
       380  -8.1380    189.1798    108.1387   7.3567431319e+01   2.1490703345e+01    0.2165311    0.1759665 -55.94 0.0007220907    1.367    0.268
       381  -9.6821    139.9166    104.4358   8.3377720895e+01   3.3468118733e+01    0.5045669    0.3149041 -56.47  0.001265029    1.802    0.445
       382 -10.5374     45.6991    102.5119   1.0982546977e+02   5.0026145070e+01    0.7752176     0.400831  72.73  0.003043098    3.248    0.692
       383 -10.6828     22.9421    102.6179   1.1686368415e+02   5.2181718429e+01     0.760903    0.3630901  73.84  0.003254438    2.935    0.659
       384  -9.7454    150.6610    103.2985   8.0494050820e+01   3.1295133977e+01    0.4731693    0.2929828 -59.43  0.001161017    2.029    0.507
       385  -8.5926    166.7396    104.1132   7.7097678133e+01   2.7433160033e+01    0.2392482    0.2043471 -59.35 0.0006704515    1.265    0.209
       386  -9.5114      6.7555    102.7566   1.2176110227e+02   5.3320332910e+01    0.3834697    0.1891278  78.15  0.001534426    2.184    0.542
       387 -10.1411    128.3887    102.0735   8.5632315945e+01   3.6475748123e+01    0.3982271    0.2908762 -62.92 0.0009884775    1.536    0.349
       388  -9.4371    130.5098     97.4897   8.3813805938e+01   3.7004181689e+01     0.438622    0.2264826  25.20  0.001273227    4.251    0.765
       389  -8.2896    175.5147    102.0955   7.4689386468e+01   2.5771392018e+01    0.2371415    0.1486355 -38.38 0.0005445572    1.538    0.350
       390 -10.7528    109.4608     99.1225   8.9906265292e+01   4.1007491173e+01    0.8438107    0.4871561  67.40  0.002226357    2.931    0.659
       391  -9.1560    108.0985     92.5166   8.8459437160e+01   4.2754894788e+01    0.5755829    0.3184021  25.33  0.002065917    2.958    0.662
       392  -8.3977    159.7367    100.9576   7.7771309690e+01   2.9676998125e+01    0.2895353    0.2023678 -54.06 0.0005383178    1.559    0.358
       393  -9.2689     82.0286     99.9726   9.8097917026e+01   4.5714523237e+01    0.3752018    0.2450699 -75.84 0.0007609937    1.857    0.461
       394 -10.2447     63.8620     95.9022   1.0274471847e+02   4.9384230923e+01    0.6946799    0.3928497 -76.67  0.001932497    2.225    0.551
       395  -8.8656     65.2290     87.7667   1.0034171071e+02   5.1131465975e+01    0.4475849    0.2796828  -7.22  0.001798027    3.156    0.683
       396  -9.3045     94.9197     97.1386   9.3538607011e+01   4.4187101854e+01    0.3313487     0.254407 -68.24 0.0007033845    1.366    0.268
       397  -8.3400     78.8346    104.9237   1.0022638864e+02   4.5043283624e+01    0.2204764    0.1893614 -31.29 0.0008319325    1.331    0.249
       398  -8.3998    176.4719     93.4372   7.2086038917e+01   2.7154119494e+01    0.3320725    0.2213611 -69.35 0.0009629829    2.242    0.554
       399  -8.1071    164.8396     94.2967   7.4771089258e+01   2.9771594112e+01    0.2235733    0.1862244 -47.06 0.0004470805    1.195    0.163
       400  -9.5395    139.0415     92.0339   8.0093293056e+01   3.6248347004e+01    0.4827724    0.2891386 -54.63  0.001247974    1.881    0.468
       401  -8.3685    188.5132     93.5068   6.9740218957e+01   2.4262991889e+01    0.1546164      0.14655 -36.95 1.894202e-05    1.036    0.034
       402 -10.4086    123.8172     91.3628   8.3802857573e+01   3.9761338819e+01    0.6201798    0.4688868  32.30  0.001185472    1.493    0.330
       403  -8.7265     45.6527     92.8657   1.0794731645e+02   5.2362462765e+01    0.3430304    0.2017924   6.74   0.00155186    2.855    0.650
       404  -9.5638      4.8645     92.0376   1.2105827966e+02   5.5965787280e+01    0.3326768    0.1657745  64.35  0.001421427    2.401    0.583
       405 -10.3960    247.6693     90.6197   5.9485849883e+01   1.1414172134e+01    0.4936353    0.2440741 -21.14  0.002064719    2.149    0.535
       406  -9.5770     34.8731     89.9934   1.1093123196e+02   5.4165217397e+01    0.4402795    0.2379021  89.61  0.001741284    2.474    0.596
       407  -9.1927     22.8777     90.3740   1.1497872530e+02   5.5124031350e+01    0.2856251     0.238619 -29.10  0.001581053    1.450    0.310
       408  -8.0032    151.1310     89.1928   7.6359396855e+01   3.4015245162e+01     0.219837    0.1816651 -64.31  0.000380197    1.352    0.260
       409 -10.2560     86.7413     85.7532   9.2896432596e+01   4.8238189030e+01    0.7729998    0.4595289 -48.77  0.001515932    1.532    0.347
       410  -7.8596    164.2103     87.4174   7.2911427835e+01   3.1227574630e+01    0.2064362     0.154291  68.94 0.0004037147    1.568    0.362
       411  -9.7472     48.5335     84.0145   1.0502887042e+02   5.4155506468e+01    0.5970681    0.3663829 -82.20  0.002333585    2.016    0.504
       412  -8.7290    157.9123     84.4377   7.3400572260e+01   3.3313024498e+01     0.331816    0.1986963 -42.02 0.0008198947    1.618    0.382
       413  -9.7259    104.7637     83.3201   8.6722769842e+01   4.5441786153e+01    0.4204503    0.3104643 -70.85 0.0009484026    1.676    0.403
       414  -8.7745    105.0317     77.4670   8.4828362466e+01   4.6649991813e+01    0.3245511    0.2167227   5.21  0.001226462    2.626    0.619
       415  -9.1123    140.7147     82.8208   7.6912967545e+01   3.7723758080e+01     0.384553    0.2226552 -49.97   0.00101175    1.825    0.452
       416  -9.8076      9.8936     81.5467   1.1792302053e+02   5.8140557128e+01     0.367132    0.2063731  78.21  0.001612601    2.087    0.521
       417  -8.0685    157.9640     91.9460   7.5609009824e+01   3.1858775235e+01    0.2451975    0.1884775 -69.67 0.0005440018    1.616    0.381
       418  -8.0490     35.3347     82.3131   1.0921585550e+02   5.5958435256e+01    0.1361255   0.08539032 -39.71  0.000276607    1.685    0.407
       419  -9.7049     24.7232     80.6928   1.1260659883e+02   5.7285144775e+01    0.4384967    0.2516764  80.96  0.001475635    2.329    0.571
       420  -8.3947    150.1367     80.5882   7.3986250508e+01   3.5921928655e+01    0.2850427    0.2043505 -46.24 0.0009029168    1.386    0.278
       421  -8.9280    119.5060     80.1899   8.1578198867e+01   4.3049541591e+01    0.4082842    0.2384933 -50.43  0.001513595    1.749    0.428
       422  -8.8806     74.5434     80.4171   9.5292265795e+01   5.1463542945e+01    0.3364213    0.2152968 -68.22 0.0008920268    1.819    0.450
       423  -8.3119    166.8273     79.8506   7.0096902101e+01   3.1986257813e+01    0.2283944    0.2083115  -5.62 0.0003820366    1.152    0.132
       424  -8.2048    184.3338     78.2082   6.6154547727e+01   2.7943996625e+01    0.2267208    0.1333583 -40.51 0.0009364891    1.621    0.383
       425 -10.0067     63.4321     73.9518   9.7209486976e+01   5.4595185777e+01    0.7323989    0.3022134 -63.83  0.002506401    3.301    0.697
       426  -8.7861     64.6870     63.3912   9.3506802896e+01   5.6771986896e+01    0.4665704    0.2758449 -11.72  0.001774573    3.339    0.700
       427  -9.1658    128.1468     75.5945   7.7802432421e+01   4.2062684667e+01     0.352196    0.2298264 -55.04  0.000624942    1.721    0.419
       428  -7.7732    157.0021     76.5025   7.1171177105e+01   3.5017852791e+01    0.2058072    0.1414773  89.51 0.0004330532    2.226    0.551
       429  -8.6048    140.3652     75.3502   7.4649230591e+01   3.9263846477e+01    0.2946362    0.2149368 -75.05 0.0007057565    1.899    0.473
       430  -9.7848     82.3331     72.4890   9.0328357961e+01   5.1965988045e+01    0.5298238    0.2881415 -60.98  0.001014672    2.241    0.554
       431  -8.7951     82.9710     66.0290   8.8005026731e+01   5.3249385578e+01    0.5295306    0.3207316   3.41  0.001850799    3.699    0.730
       432  -8.3649    163.4185     72.9214   6.8678007489e+01   3.4075466512e+01    0.2984749    0.1431337 -38.88  0.001045848    1.983    0.496
       433  -8.0612    151.1808     73.2495   7.1442589911e+01   3.7045568254e+01    0.2188711    0.1839766 -67.20 0.0006596082    1.343    0.255
       434  -8.5749    115.4968     73.0245   8.0381113204e+01   4.5389517132e+01    0.2806159    0.2232508 -57.43 0.0007076468    1.343    0.255
       435  -8.6713    115.2877     69.0301   7.9105828217e+01   4.6237261803e+01    0.2564206    0.2419673 -65.37 0.0004821263    1.128    0.113
       436  -8.4126     42.4480     72.7352   1.0442357631e+02   5.7490317923e+01    0.2590087    0.1177896 -64.29 0.0009371103    2.061    0.515
       437  -7.6682    175.5274     72.5475   6.6129931982e+01   3.1107963089e+01    0.1553728    0.1497567 -36.86 0.0001056483    1.006    0.006
       438  -9.3486    105.8694     71.3353   8.2589133986e+01   4.7765449701e+01    0.4186283    0.2024096 -46.65  0.001151752    1.996    0.499
       439  -9.2883     95.1339     71.1210   8.5777017130e+01   4.9939303638e+01    0.3940901    0.2364569 -58.29 0.0009235191    1.940    0.484
       440  -9.5214     51.4375     69.6165   1.0027125691e+02   5.7171104431e+01    0.4647349     0.245846 -70.45  0.001527226    2.430    0.588
       441  -9.1666     29.8145     70.2774   1.0852679377e+02   5.9305923972e+01     0.431648    0.2088912 -24.74  0.001725662    3.627    0.724
       442  -8.8508     16.6429     70.1697   1.1346986693e+02   6.0371641057e+01    0.2637542    0.1755987  85.71 0.0008624556    1.706    0.414
       443  -8.8396    147.0504     68.1771   7.0741391860e+01   3.8985381429e+01    0.3336329    0.2115144 -42.71 0.0006809235    1.546    0.353
       444  -8.1554    129.6241     69.6880   7.5478324882e+01   4.2876491423e+01    0.1643671    0.1217105  12.62 0.0007029995    1.789    0.441
       445  -8.7758    138.6647     66.5818   7.2184826835e+01   4.1318032462e+01    0.3173665     0.222322 -53.68 0.0008540475    1.574    0.365
       446  -8.8812    121.6194     66.1512   7.6385584893e+01   4.5391970176e+01    0.3372094     0.242399 -62.38 0.0008505016    1.721    0.419
       447  -7.4213    203.2899     66.7126   5.9557597408e+01   2.5122030259e+01    0.1520681    0.1110495 -60.87 0.0002767768    1.538    0.350
       448  -9.1822    110.0645     63.5775   7.8710939525e+01   4.8441282905e+01    0.3932746    0.2270818 -50.68 0.0008904579    1.866    0.464
       449  -8.6310     37.4500     64.4461   1.0412295446e+02   5.9925349597e+01    0.2734532    0.1812037  78.45 0.0008303558    2.336    0.572
       450  -7.4713    187.6741     63.3292   6.1116501952e+01   2.9558069450e+01    0.1636509    0.1142402 -62.96 0.0007050484    1.703    0.413
       451  -8.2668    158.2458     61.9704   6.6250491011e+01   3.7275536883e+01    0.2205679    0.1970687 -36.94 0.0003999873    1.088    0.080
       452  -9.4777     97.7044     60.2952   8.1244978325e+01   5.1652985479e+01    0.3834634    0.2822838 -36.69   0.00141542    1.272    0.214
       453  -9.8024     73.3079     59.0126   8.8916618016e+01   5.6366280614e+01    0.6433106    0.2281319 -48.93  0.002324008    2.628    0.620
       454  -8.3257    211.8519     59.7560   5.6295057693e+01   2.4067545685e+01    0.2690547    0.1991053 -16.22  0.001307957    1.443    0.307
       455  -8.5683    147.0060     59.2703   6.7772692242e+01   4.0564316514e+01    0.2143901    0.2074672 -48.02 0.0004963341    1.042    0.041
       456  -7.5730     89.2516     59.6586   8.3709144588e+01   5.3423673433e+01     0.142892    0.1119256 -66.62 0.0004055915    1.575    0.365
       457  -9.9743     23.4173     56.4713   1.0761254180e+02   6.3013452063e+01    0.4544717    0.2670099  87.55  0.002112025    2.769    0.639
       458  -9.6313      7.5396     57.1523   1.1435345714e+02   6.3941530373e+01    0.3346425     0.198987  86.78  0.001125272    2.067    0.516
       459  -8.1760    130.6933     57.9493   7.1166202504e+01   4.4790081596e+01    0.2196334    0.1877413 -37.04 0.0003407386    1.135    0.119
       460  -9.3798    119.1962     55.3826   7.3220368674e+01   4.7943781691e+01    0.5297649    0.2343256 -45.11   0.00139405    2.361    0.576
       461  -9.4721     54.3586     55.5920   9.4791330670e+01   5.9906932079e+01     0.370581    0.2156719 -63.26  0.001241714    2.020    0.505
       462  -8.2038    140.1483     56.1964   6.8272821769e+01   4.2792903242e+01     0.217445    0.1757898 -55.48 0.0004507925    1.341    0.254
       463  -8.7400     44.1632     55.5405   9.8818373953e+01   6.1187786835e+01    0.2934644    0.1874617 -66.82  0.001008093    1.738    0.425
       464  -8.6705    105.8235     53.2914   7.6205319452e+01   5.1298342846e+01    0.2524042    0.1944713 -47.03 0.0006678374    1.324    0.245
       465  -9.4358     92.3919     50.6000   7.9308581633e+01   5.4573435620e+01    0.4268317    0.2273777 -49.29  0.001328934    2.044    0.511
       466  -8.0884    144.8293     49.3236   6.4797807987e+01   4.2751405773e+01    0.2158256    0.1837407 -42.25 0.0005064369    1.172    0.147
       467  -8.3182    129.7461     48.9866   6.8157719942e+01   4.6548585496e+01    0.2211635    0.1919293 -30.28 0.0004875057    1.121    0.108
       468  -8.7397    120.8911     47.4686   6.9821243155e+01   4.8916413610e+01    0.2788734    0.2091938 -22.51 0.0005663488    1.351    0.260
       469  -8.2597    112.3329     47.0348   7.1953194709e+01   5.0965050916e+01    0.2156314    0.1785841 -35.45  0.000561795    1.169    0.145
       470  -9.2378     82.1720     46.1470   8.0954723452e+01   5.7361915418e+01    0.4589843    0.2209404 -41.92  0.001933913    1.927    0.481
       471  -8.4025     45.0702     44.7329   9.4704143338e+01   6.3373429910e+01    0.2174823    0.1612495 -55.86 0.0005353823    1.335    0.251
       472  -8.9688     16.6386     44.6601   1.0726238712e+02   6.6146299575e+01    0.2244195    0.1792399 -67.07  0.000685833    1.227    0.185
       473  -8.7546    133.0388     43.6577   6.5391956522e+01   4.6592409495e+01    0.2576416    0.2001597 -45.30 0.0006267661    1.331    0.248
       474  -8.7564     92.6426     42.9792   7.6197545027e+01   5.5896712474e+01    0.3370055    0.1709762 -25.84  0.001330573    2.251    0.556
       475  -8.9193     58.2103     42.6663   8.8477057393e+01   6.2016275389e+01    0.3298863    0.1980719 -60.15   0.00107993    2.212    0.548
       476  -9.3758     69.7300     41.4704   8.3517507956e+01   6.0428168738e+01    0.4490053    0.2599351 -53.06   0.00147254    2.025    0.506
       477  -9.6047      5.1826     41.9610   1.1178720694e+02   6.7454561313e+01    0.3657634    0.1896123 -81.44  0.001785195    2.390    0.582
       478  -8.7159    106.0356     41.5369   7.1555308787e+01   5.3293167021e+01    0.2760348    0.1920884 -45.84 0.0006150491    1.523    0.343
       479  -8.4662     36.7777     40.8732   9.6874300956e+01   6.5126933288e+01    0.2249661    0.1610478 -63.95 0.0006237034    1.570    0.363
       480  -7.8371    160.4840     40.0532   5.8417630629e+01   4.0101503699e+01    0.2232104    0.1487392 -27.31 0.0004674309    1.498    0.333
       481  -9.1131     95.4719     37.9820   7.3235998029e+01   5.6155523471e+01    0.2843987     0.217814 -52.29  0.000759854    1.519    0.342
       482  -8.2449     80.9555     36.9586   7.7553115300e+01   5.9226069779e+01    0.2097149     0.169539 -62.24 0.0005224328    1.623    0.384
       483  -9.5638     26.1336     35.4656   9.9769591909e+01   6.7308967629e+01    0.3093432    0.2162186 -73.09 0.0009659653    1.875    0.467
       484  -7.8422    133.3926     36.2002   6.2492041608e+01   4.7614886331e+01     0.212706    0.1333022 -39.07 0.0004970176    1.598    0.374
       485  -8.1616    126.0093     35.5307   6.3930507860e+01   4.9541433652e+01    0.2239386    0.1936433 -24.35 4.447152e-05    1.136    0.120
       486  -8.5480    111.9413     34.5738   6.7079176883e+01   5.3041294988e+01    0.2801167      0.18981 -45.87 0.0007057026    1.610    0.379
       487  -7.8230    140.4367     41.5161   6.2934792111e+01   4.5064344581e+01    0.1502141     0.146115 -35.74  0.000132416    1.040    0.038
       488  -8.9780     48.4658     33.4678   8.8716309263e+01   6.5150203286e+01    0.2434046    0.2098361 -54.07 0.0006752432    1.349    0.259
       489  -8.8401    118.9650     32.4688   6.4413964344e+01   5.1688747503e+01    0.3656614    0.1705666 -37.83  0.001402842    2.116    0.528
       490  -8.6740     60.6399     32.6742   8.3261132807e+01   6.3504444620e+01    0.2507052    0.1828631 -48.53 0.0005672618    1.472    0.321
       491  -9.0649     72.1291     31.0926   7.8109365052e+01   6.1836579589e+01    0.2700602    0.1805321 -41.53 0.0007152393    1.477    0.323
       492  -7.8201    139.3141     31.6890   5.9504677808e+01   4.6739032941e+01    0.1535247    0.1134078 -62.92 0.0007030876    1.633    0.388
       493  -8.6503    218.7450    247.9539   9.5400282305e+01  -4.4419843287e+00    0.2286623    0.1199977 -32.22  0.001361679    2.275    0.560
       494  -8.4814    101.4637     29.1727   6.7678104755e+01   5.6212793551e+01    0.2178898    0.1985552 -61.14  0.000662666    1.308    0.235
       495  -8.9971     91.8119     26.5581   6.9374796921e+01   5.8683996228e+01    0.3366351    0.1809026 -37.19  0.001005519    1.827    0.453
       496  -8.9163     81.4612     27.4832   7.3144834001e+01   6.0658346283e+01    0.3116586    0.2134427 -47.13  0.001026783    1.684    0.406
       497  -9.0088      3.4746     27.7870   1.0846253450e+02   7.0556311934e+01    0.2184149    0.1740991  85.79  0.001079387    1.689    0.408
       498  -8.3565    104.2840     22.9784   6.4176377498e+01   5.6424822053e+01     0.202091    0.1774023  -8.39 0.0004973492    1.086    0.079
       499  -8.1616     34.6716     23.2946   9.0497381953e+01   6.8762408353e+01    0.1714026    0.1487342 -82.48 0.0009753997    1.819    0.450
       500  -8.9401     63.6846     21.1759   7.6601411080e+01   6.4895013020e+01    0.2775654    0.1956688 -48.96 0.0009236411    1.745    0.427
       501  -8.8906     48.4376     21.7335   8.3280417420e+01   6.7227044968e+01    0.2347531    0.1826498 -40.02 0.0007147864    1.292    0.226
       502  -8.2817     19.7932     21.7808   9.7431411372e+01   7.0580304416e+01    0.1521113    0.1304396 -55.61 0.0004171337    1.345    0.257
       503  -7.9174     41.9871     30.0511   9.0112351390e+01   6.6635008669e+01    0.1596483    0.1277279 -31.70 0.0004607606    1.031    0.030
       504  -7.7190    139.5260     20.5114   5.5191726772e+01   4.8075792808e+01    0.1426915    0.1416391  87.47 0.0003927922    1.047    0.045
       505  -8.9953     73.9765     19.4331   7.1887327741e+01   6.3282977993e+01    0.2850578    0.1702355 -42.19 0.0006853019    1.831    0.454
       506  -8.2978     87.9380     17.9524   6.6550227078e+01   6.0675184449e+01    0.2039122    0.1623168 -54.27 0.0004699779    1.611    0.379
       507  -8.0427     38.5578     18.0808   8.6044163622e+01   6.9190210880e+01    0.1917635     0.105397 -39.82  0.001015973    1.566    0.361
       508  -7.9637    112.8545     16.8459   5.9315581072e+01   5.5165012509e+01     0.187242    0.1654098 -53.24 0.0003536211    1.296    0.229
       509  -9.5165    211.2849    246.7221   9.6438310747e+01  -3.2693130626e+00      0.27702    0.1811977 -44.39  0.001068691    2.269    0.559
       510  -7.8886     17.4671     14.4852   9.5328000945e+01   7.2137892421e+01    0.1189626   0.09427718 -34.24 6.267499e-05    1.076    0.070
       511  -8.5308    156.4159    248.4319   1.0584791246e+02   4.5258313170e+00    0.2671492     0.137493  55.66  0.001349147    2.272    0.560
       512  -7.7551     76.2728     10.6159   6.6611854610e+01   6.3983282666e+01    0.1310064   0.09877922 -48.92 0.0005701289    1.709    0.415
       513  -8.8082    132.5693    248.0486   1.0989302065e+02   8.0658810961e+00    0.2584366    0.1434842  56.95  0.000943647    1.806    0.446
       514  -8.5272    112.9720    248.6407   1.1331069587e+02   1.0778644588e+01    0.1875302    0.1449047  85.01  0.001218755    1.469    0.319
       515  -9.2864    103.8436    246.8720   1.1471377559e+02   1.2309610062e+01    0.3544374    0.1908696 -85.26  0.001909085    2.822    0.646
       516  -9.0236    242.6459    247.1433   9.1508698706e+01  -7.5954285350e+00    0.2096301    0.1432231 -25.19  0.001024564    1.698    0.411
       517  -8.6669    232.5543    247.3393   9.3114013623e+01  -6.2715820207e+00    0.1542687    0.1380313   2.43 0.0005532901    1.446    0.308
       518  -9.9887    224.0016    244.1920   9.4025340586e+01  -4.7920140829e+00    0.3624666    0.2104446 -41.72  0.002303261    2.514    0.602
       519  -7.7962      7.4861     15.5078   1.0155062607e+02   7.2746173311e+01    0.1164956   0.09046637 -41.16 0.0008095102    1.070    0.065
       520  -9.0034    147.2363    246.2805   1.0717919814e+02   6.1607710375e+00     0.236351    0.1612999  67.37  0.001517958    1.871    0.466
