#   1 NUMBER                 Running object number                                     
#   2 MAG_AUTO               Kron-like elliptical aperture magnitude                    [mag]
#   3 X_IMAGE                Object position along x                                    [pixel]
#   4 Y_IMAGE                Object position along y                                    [pixel]
#   5 X_WORLD                Barycenter position along world x axis                     [deg]
#   6 Y_WORLD                Barycenter position along world y axis                     [deg]
#   7 A_WORLD                Profile RMS along major axis (world units)                 [deg]
#   8 B_WORLD                Profile RMS along minor axis (world units)                 [deg]
#   9 THETA_WORLD            Position angle (CCW/world-x)                               [deg]
#  10 FWHM_WORLD             FWHM assuming a gaussian core                              [deg]
#  11 ELONGATION             A_IMAGE/B_IMAGE                                           
#  12 ELLIPTICITY            1 - B_IMAGE/A_IMAGE                                       
         1 -14.9009    164.2121     44.7155   7.7029003633e+01   3.8815347129e+01     1.270813     1.083055  -9.77  0.004042273    1.399    0.285
         2 -15.0110    180.3099     11.5874   6.5383503995e+01   3.8818064311e+01      1.90157     1.091919  69.34   0.00679325    1.497    0.332
         3 -12.0372    167.4899    245.5782   1.2176517294e+02  -5.2449194856e-01    0.2262493    0.1995772  36.04  0.001002829    1.076    0.071
         4 -20.2429     71.3777    178.0689   1.3218591594e+02   2.9535882615e+01     17.49121     6.438201 -64.87   0.06940671    2.556    0.609
         5 -11.6833     16.0175    209.4891   1.4682028298e+02   2.9286062772e+01    0.1591754     0.128342 -81.11 0.0005777878    1.281    0.219
         6 -13.6698     11.5157    206.1426   1.4739469856e+02   3.0435903025e+01    0.4818934     0.383745  28.97  0.003122309    1.840    0.457
         7 -10.1922    141.7608    240.3633   1.2599847309e+02   4.8199297830e+00    0.1558856    0.1208348 -49.02 0.0008042309    1.546    0.353
         8 -11.9142    134.6741    243.3111   1.2776020415e+02   5.5215392446e+00    0.4270509    0.1838366 -46.88  0.001918195    2.948    0.661
         9 -11.1895    139.2807    200.6322   1.2050901190e+02   1.2913729574e+01    0.2732607    0.2093913  75.50 0.0006319097    1.448    0.310
        10 -10.8457    141.6028    198.8335   1.1970278372e+02   1.2848085462e+01    0.3039496    0.2298284  85.48 0.0007333038    1.582    0.368
        11 -11.8989    152.5729    197.7717   1.1714640799e+02   1.0959078309e+01     0.401363    0.3125843 -37.45  0.001331756    1.483    0.326
        12 -12.9634    152.6240    192.1867   1.1613433297e+02   1.2100130916e+01    0.4484908    0.3918038  57.52  0.001416722    1.087    0.080
        13 -12.6937    152.2945    184.8250   1.1484348502e+02   1.3712244448e+01    0.3717735    0.2902142 -65.93 0.0008636132    1.403    0.287
        14 -10.3282    121.8807    198.4750   1.2394070044e+02   1.6595735005e+01     0.206052    0.1787665 -74.70 0.0006078944    1.163    0.140
        15 -12.4199    155.4708    187.5161   1.1464929971e+02   1.2511437003e+01    0.3116341     0.262881  26.07  0.001160188    1.308    0.235
        16 -11.4939    138.9202    243.1105   1.2691658704e+02   4.8288725036e+00    0.3062133    0.2082947 -68.22  0.001038701    1.788    0.441
        17 -11.2462    126.9975    250.4459   1.3011211434e+02   5.5708131650e+00    0.1653441    0.1220865  49.21  0.001018134    1.119    0.106
        18 -13.4413    177.4883    171.2522   1.0661295502e+02   1.1390594964e+01    0.7734423    0.3275583 -57.25  0.002427224    3.616    0.723
        19 -13.0837    204.4408    175.8300   1.0196656576e+02   4.9340905712e+00     0.538613    0.4954157  55.33  0.001115448    1.167    0.143
        20 -12.2723    202.3535    166.8614   1.0048932805e+02   7.0823952676e+00    0.8865719    0.5553165  21.46  0.003666056    2.268    0.559
        21 -12.3915    197.3126    176.7905   1.0360701496e+02   6.1889368122e+00      0.49279    0.3731641 -73.21  0.002032039    1.831    0.454
        22 -12.9025    193.5402    166.2365   1.0215511533e+02   9.0404923332e+00    0.4638736    0.3549568 -46.04 0.0006584785    1.326    0.246
        23 -13.4799    190.4331    161.0116   1.0166893417e+02   1.0749072682e+01     1.217153    0.5213458 -44.94   0.00305288    2.348    0.574
        24 -12.1089    188.0806    175.3619   1.0521900307e+02   8.3565242639e+00    0.4064919    0.2083454 -58.66   0.00147874    2.833    0.647
        25 -11.6307    230.6434    167.1607   9.5109782031e+01   1.3753059022e+00    0.2937452    0.1192572 -46.52  0.001096788    2.634    0.620
        26 -11.0022     25.3450    165.0326   1.4097432255e+02   3.8114606520e+01    0.1831926    0.1810411 -71.81 0.0007828338    1.373    0.271
        27 -12.0271    125.1779    240.3821   1.2921434524e+02   7.6627480091e+00    0.5505001    0.1638578 -54.95  0.002123976    3.809    0.737
        28 -12.5025     13.1415    240.2740   1.4930377901e+02   2.3444987834e+01    0.2065365     0.163727 -89.33  0.001304536    1.312    0.238
        29 -11.2776    236.6249    158.1916   9.2117324139e+01   1.8305037191e+00    0.2004229    0.1247793 -29.13 0.0001441878    1.631    0.387
        30 -12.0695    166.9983    155.7123   1.0558002086e+02   1.6914862998e+01    0.2461542    0.2138441  84.61 0.0006220337    1.278    0.217
        31 -14.7271    143.7264    143.3480   1.0821308573e+02   2.4679260222e+01     1.329311    0.7113732 -64.33  0.004708921    2.623    0.619
        32 -15.2927    132.6599    145.4145   1.1137288993e+02   2.6521790727e+01     1.801994    0.9745297 -60.39  0.005312817    2.115    0.527
        33 -14.0980    135.8679    127.9025   1.0650785007e+02   2.9852832137e+01     2.104796    0.4004772 -50.19  0.004601199    6.154    0.837
        34 -11.5706     13.4626    236.4459   1.4902785574e+02   2.4143435046e+01    0.2187632     0.160377  66.43  0.001216531    1.185    0.156
        35 -11.4490     22.9674    156.1309   1.4051730685e+02   4.0380097264e+01    0.1971093    0.1872491  83.60 0.0004737197    1.272    0.214
        36 -11.9315    167.9706    240.1720   1.2087833730e+02   2.7066692826e-01    0.1937616    0.1914119 -66.85 0.0003695042    1.192    0.161
        37 -12.3373    134.6600    109.7800   1.0222346096e+02   3.4118919938e+01     1.187914    0.1747725 -45.70  0.002476084    6.768    0.852
        38  -9.7565      6.5500    150.7310   1.4368740877e+02   4.2991630713e+01    0.1153358     0.073416 -44.61  0.000302125    1.875    0.467
        39 -12.2956    174.0146    148.1947   1.0233024706e+02   1.6993937004e+01     0.484614     0.354687 -65.19  0.001708476    1.600    0.375
        40 -10.8467    160.9643    239.4139   1.2212724424e+02   1.6258021180e+00    0.2874147    0.2027379  37.90  0.001243217    1.260    0.206
        41 -10.3216    139.7031    250.1971   1.2768897840e+02   3.4790906491e+00    0.2168623    0.1666682  88.76  0.001328202    1.548    0.354
        42 -12.3616    152.6451    139.5381   1.0520542342e+02   2.3605873369e+01    0.3134075    0.2824267 -84.89  0.001284478    1.162    0.139
        43 -10.9165      8.5231    137.8646   1.4182666781e+02   4.5743825184e+01    0.2183539    0.1694565 -16.80  0.001435265    1.840    0.456
        44 -10.3084    135.7819    236.8997   1.2669552314e+02   6.4761044661e+00    0.1683609    0.1328994  78.71 0.0003798337    1.359    0.264
        45 -12.8752    160.6256    128.0359   1.0057861471e+02   2.4351763949e+01    0.5203714     0.359681 -55.33  0.001839536    1.514    0.339
        46 -12.4428     21.6509    236.0406   1.4765854003e+02   2.3330943332e+01    0.2265653     0.142567  88.75  0.001035995    1.239    0.193
        47 -11.2099    131.0268    234.0693   1.2724843171e+02   7.8195976371e+00     0.215614    0.1725539 -64.73 0.0007609322    1.400    0.286
        48 -11.0351    167.7080    112.6403   9.5090328671e+01   2.5976940343e+01    0.3881028    0.2546161 -89.25  0.001256025    2.580    0.612
        49 -11.1555    162.9273    233.4670   1.2085634521e+02   2.2918290809e+00    0.2015454    0.1141317  42.91 0.0003645999    1.520    0.342
        50  99.0000      5.6198    233.6200   1.5013165171e+02   2.5500088998e+01    0.2316241   0.08969959  38.60  0.001307027    2.666    0.625
        51 -10.8307    205.3224    110.2419   8.6809008926e+01   1.7570317005e+01    0.3148343    0.2136653  48.59  0.001002021    1.538    0.350
        52 -11.9836    141.3320    228.6985   1.2444821870e+02   7.0043931454e+00    0.3758521    0.3253615 -87.91  0.001190702    1.250    0.200
        53 -10.8427    218.3911    219.7788   1.0776815431e+02  -5.2710579224e+00    0.2285353    0.1223779 -43.23 0.0007504367    2.082    0.520
        54 -10.1566     20.9651    210.7233   1.4601336698e+02   2.8512867373e+01    0.2091414    0.1052077 -53.65  0.001116519    2.610    0.617
        55 -10.5552    144.9427     81.4768   9.1830078729e+01   3.7503237013e+01    0.2284171    0.1474094  51.66 0.0004159726    1.527    0.345
        56 -14.3940    152.5815     59.1249   8.3548314188e+01   3.9525611770e+01     1.204864     1.009668  29.45 0.0009950227    1.307    0.235
        57 -10.6099    160.0851    247.7115   1.2348390868e+02   4.0735207806e-01    0.2652055    0.1744547  24.22  0.001116032    1.825    0.452
        58 -13.0901    168.3912     36.6248   7.3983187771e+01   3.8865932770e+01    0.4022735    0.3788301 -11.38 0.0008943955    1.228    0.186
        59 -11.3131     13.5433     59.9050   1.2673707568e+02   6.2121503963e+01    0.1749572    0.1601223  -0.72 0.0004257033    1.303    0.232
