#   1 NUMBER                 Running object number                                     
#   2 MAG_AUTO               Kron-like elliptical aperture magnitude                    [mag]
#   3 X_IMAGE                Object position along x                                    [pixel]
#   4 Y_IMAGE                Object position along y                                    [pixel]
#   5 X_WORLD                Barycenter position along world x axis                     [deg]
#   6 Y_WORLD                Barycenter position along world y axis                     [deg]
#   7 A_WORLD                Profile RMS along major axis (world units)                 [deg]
#   8 B_WORLD                Profile RMS along minor axis (world units)                 [deg]
#   9 THETA_WORLD            Position angle (CCW/world-x)                               [deg]
#  10 FWHM_WORLD             FWHM assuming a gaussian core                              [deg]
#  11 ELONGATION             A_IMAGE/B_IMAGE                                           
#  12 ELLIPTICITY            1 - B_IMAGE/A_IMAGE                                       
         1 -10.2545     81.5840     52.5010   7.8743004262e+01   5.6212126310e+01    0.6927332     0.368986 -11.61   0.00227699    4.101    0.756
         2 -10.2830     99.0795     22.7284   6.1391170858e+01   5.7172530353e+01    0.4592261    0.2468175 -17.92  0.002110674    2.086    0.521
         3 -11.0762    144.0443     20.7926   5.0442146638e+01   4.6770279115e+01    0.5060742    0.3499585  54.71  0.001789255    1.305    0.234
         4 -11.1317    149.6480     18.3133   4.8632983104e+01   4.5628979449e+01    0.4015305    0.3463164 -32.26  0.001595185    1.261    0.207
         5 -11.1285    111.3889     18.9741   5.6667672682e+01   5.4850194071e+01    0.5049265    0.3294901  54.01  0.001745581    1.400    0.286
         6 -11.4149    101.6606     15.6402   5.7785878145e+01   5.7400621511e+01     0.541451    0.3321739  -7.32  0.002299288    1.868    0.465
         7  -9.1215    154.8297     16.9373   4.7334309635e+01   4.4465392411e+01    0.3660525    0.1701773 -11.65  0.001402745    3.164    0.684
         8 -10.8053     57.6983     13.6575   7.1218230548e+01   6.6181284243e+01    0.5356965    0.2821452  11.74   0.00241654    2.651    0.623
         9 -10.7714     20.9615     15.2266   8.9143727362e+01   7.0779349320e+01    0.3240966    0.2219342   3.81  0.001315887    1.369    0.270
        10 -10.2009     19.6136     10.6602   8.7677537508e+01   7.1609368815e+01    0.2049095    0.1793708 -17.84 0.0003164096    1.339    0.253
        11 -11.2166     12.1553      7.0275   9.0038453833e+01   7.2840803579e+01    0.4696769    0.3535391 -41.41    0.0033651    1.488    0.328
        12 -10.0255      7.4649      3.9532   9.1237943481e+01   7.3691645680e+01     0.213253    0.1684983 -54.95  0.001188121    1.940    0.484
        13 -10.6357     10.1967     15.2035   9.4973054941e+01   7.1707313337e+01    0.3032399    0.2032198 -17.86    0.0011082    1.243    0.195
        14  -9.6065      8.2114     12.0701   9.4692477579e+01   7.2368443870e+01    0.1895525    0.1264485 -38.36 0.0003448784    1.241    0.194
        15 -10.4292    192.5569     10.0784   4.0342910124e+01   3.5668112789e+01    0.3697908    0.2509153 -51.88  0.001286913    1.447    0.309
        16 -11.0834    182.6522     13.2233   4.2338944561e+01   3.7813237300e+01    0.6500777    0.3046405  61.56  0.002936236    1.895    0.472
        17  -9.4909    187.5546      8.6965   4.0519218070e+01   3.7049231320e+01     0.254617    0.1946636 -43.49 0.0008585039    1.336    0.252
        18  -9.5712     84.8508     13.9239   6.1810843755e+01   6.1151150530e+01     0.221762    0.1484542  -7.44  0.001041509    1.551    0.355
        19 -10.7827    122.1904     11.6468   5.1436410526e+01   5.3060346658e+01    0.5250612    0.2728564  49.12  0.002483547    1.677    0.404
        20 -10.5265    211.3315     11.3348   3.8763052516e+01   3.0963457751e+01    0.2569747    0.2308952   8.31   0.00155408    1.469    0.319
        21 -10.0145    209.7097      8.6596   3.8254983827e+01   3.1635694115e+01     0.231299    0.1993252 -21.75 0.0007458184    1.400    0.286
        22 -10.5086    249.3796     10.1779   3.5368747399e+01   2.2456257449e+01    0.2703221    0.1825937  88.70  0.001513503    1.374    0.272
        23  -9.1277     66.9200     13.0055   6.7385241997e+01   6.4678792230e+01    0.2092299    0.1296872  14.66 0.0005532403    1.699    0.411
        24 -10.2421    212.7716      5.5908   3.7226818731e+01   3.1224397993e+01    0.2185112    0.1459835  83.73  0.001065372    1.350    0.259
        25 -10.4142     47.9794      8.4721   7.2672649731e+01   6.8346641594e+01    0.3306085    0.1957367  12.54  0.001444071    1.772    0.436
        26 -11.3256    238.3830      7.2839   3.5545727396e+01   2.5167067395e+01    0.4686767    0.1800131 -37.48  0.002209726    2.243    0.554
        27 -11.1826    221.7241      8.5939   3.7169157789e+01   2.8806480493e+01    0.3530355    0.1944551  65.89  0.001846986    1.739    0.425
        28  -9.4341     40.2542      8.6214   7.6213008456e+01   6.9449454871e+01    0.1981061     0.139701 -29.48 0.0006458525    1.409    0.290
        29 -10.4024     38.0814      4.9158   7.5286027885e+01   7.0210269702e+01    0.1886477    0.1601726   0.60   0.00029254    1.211    0.174
        30 -10.7322    229.3805      8.1411   3.6432304870e+01   2.7093962823e+01    0.2128394    0.1565269  72.61 0.0007757684    1.334    0.250
        31  -9.6077     79.2694      6.3589   6.0103546144e+01   6.3043789617e+01    0.3001415    0.1711707  38.91  0.001599719    1.530    0.346
        32  -8.5633     57.2870      7.6071   6.8394709757e+01   6.6959137983e+01    0.1119675   0.09478503 -48.03 0.0007003628    1.766    0.434
        33 -10.5012     25.2421      6.6578   8.2631952882e+01   7.1592826455e+01    0.3270399     0.159395 -34.00  0.001399181    1.784    0.439
        34  -9.3561     22.5066      3.5374   8.2435702839e+01   7.2320030540e+01    0.1885361     0.129262  25.56 0.0008021628    1.515    0.340
        35  -8.7115    158.5271      6.5929   4.3519442307e+01   4.4541333270e+01    0.1350264    0.1178072  75.19 0.0001046466    1.026    0.025
        36 -10.3717    106.1040      3.6357   5.1797867780e+01   5.7532368409e+01    0.5835842    0.3323899 -67.52  0.002360873    3.576    0.720
        37  -9.2633    127.8217      4.9371   4.7873053889e+01   5.2307150386e+01     0.216026    0.1573482  37.68  0.001204648    1.327    0.246
        38 -11.2842    231.9793      2.3480   3.4928835800e+01   2.7120409224e+01    0.5585299    0.2231385  88.77  0.002391744    2.760    0.638
        39  -9.2368    175.1415      3.5274   4.0490474738e+01   4.0643830079e+01    0.2143405    0.1594502 -46.87  0.001221788    1.392    0.282
        40 -10.2061     89.8719      2.8812   5.5475755725e+01   6.1174014214e+01    0.4449035    0.2739558  80.21  0.001593396    2.621    0.619
        41  -9.8725     84.4625      1.2695   5.6236112621e+01   6.2446525721e+01    0.1986986   0.09989309  55.70 0.0001016894    1.832    0.454
        42  -9.4294     30.4345      3.8295   7.8441405616e+01   7.1349781196e+01    0.2406178    0.1188405 -20.61 0.0009707825    1.972    0.493
        43  -9.5868     17.1933      3.6264   8.5417692407e+01   7.2865420177e+01    0.1926606    0.1660633 -29.16  0.001171785    1.493    0.330
        44  -8.9807      2.1469      4.2128   9.4580196344e+01   7.4047326785e+01    0.1350536    0.1146513 -30.03  0.001059611    1.357    0.263
        45  -9.7434    188.8232      1.3854   3.8415681715e+01   3.7438819530e+01    0.1833356    0.1037561  63.40  0.000457284    1.593    0.372
        46 -11.0987    245.4921      2.4331   3.3999721807e+01   2.4137290273e+01    0.6126217     0.238522  84.78  0.002765992    2.677    0.627
        47  -8.5103    122.2893      1.7005   4.7711998048e+01   5.3905419273e+01    0.1250396    0.0980915 -68.36 0.0002148326    1.560    0.359
        48  -9.2611     22.2253    110.4241   1.1471704253e+02   5.0689602609e+01    0.1626921    0.1128253  44.23 0.0009493526    1.669    0.401
        49  -8.8382     28.5381    109.5164   1.1262449497e+02   5.0395991125e+01    0.1317829    0.1069659 -62.82 5.334622e-05    1.042    0.040
        50 -10.6651      7.0483    108.1303   1.1900712473e+02   5.2271834169e+01     0.267858    0.1881616 -83.80            0    1.244    0.196
        51 -10.6466      8.7323    103.9635   1.1794343304e+02   5.3153300849e+01    0.2600534    0.1448924 -67.81 0.0008102794    1.382    0.276
        52  -9.1281     11.5241    101.5198   1.1672625569e+02   5.3557822775e+01    0.1251876   0.09926367 -69.59 4.259308e-05    1.021    0.020
        53 -10.1494    240.1174    105.8112   5.8244686801e+01   1.0752647462e+01     0.342721    0.2364284  83.15   0.00162692    2.154    0.536
        54 -10.4590     79.8301    103.4702   9.5027945076e+01   4.5703088030e+01    0.3417055    0.2613466 -19.77  0.001401229    1.580    0.367
        55  -9.8679     16.7938    104.3789   1.1549034955e+02   5.2532568536e+01    0.1558435    0.1172812 -11.42 0.0009550385    1.703    0.413
        56 -10.0885    108.8017    102.9978   8.6077027486e+01   4.0685077467e+01    0.2843089    0.2222051  26.20 0.0006636581    1.430    0.301
        57 -10.1382    191.3524    101.5035   6.5542305482e+01   2.2322172785e+01    0.4165163    0.2324937 -66.95  0.001335153    3.507    0.715
        58  -8.6414    143.4726    102.5040   7.6497448203e+01   3.3385739798e+01    0.1585363    0.1534235 -71.23  0.000228961    1.064    0.060
        59  -8.4274     89.7496    102.3054   9.1626595101e+01   4.4348506171e+01    0.1422767    0.1154578 -85.22  0.000156191    1.505    0.335
        60 -10.0976    219.8448    100.6442   6.0198186941e+01   1.5950467824e+01    0.3662063    0.2672818  51.37  0.001302003    1.476    0.322
        61 -10.6480     53.6761     98.9205   1.0244058719e+02   5.0397405352e+01    0.4331372    0.2733607 -47.72  0.002199933    1.416    0.294
        62  -9.1823      1.3847    100.8864   1.1980858269e+02   5.4283358729e+01    0.1815449   0.09358306 -76.01 0.0006963509    1.567    0.362
        63 -10.5333     69.3729     97.2571   9.6844316313e+01   4.8736561627e+01    0.3421223    0.2358643 -63.23 0.0009410261    1.458    0.314
        64  -9.6089     18.6942     97.7104   1.1382620089e+02   5.3979749427e+01    0.1893521    0.1376751 -68.72 0.0003457245    1.132    0.117
        65  -9.8654     16.2300     95.3908   1.1425377214e+02   5.4695859567e+01    0.2209079     0.165903  45.05 0.0005452917    1.603    0.376
        66  -8.8058      5.6435     98.3221   1.1813283380e+02   5.4654842140e+01    0.1227893    0.0807529  70.58 0.0007045539    1.764    0.433
        67  -8.8198    250.1503     96.3585   5.4621012764e+01   1.0269934873e+01    0.1700929    0.1301184  78.13 0.0003416729    1.625    0.385
        68  -9.1558    148.0212     96.0081   7.3532965595e+01   3.3687413141e+01     0.188566    0.1853352  43.44 0.0003383366    1.029    0.028
        69  -9.5934     79.2246     94.9932   9.3034973883e+01   4.7781205686e+01    0.2598867    0.1976834   9.25  0.001291529    1.617    0.382
        70  -9.6911     37.9354     93.6682   1.0660756617e+02   5.3337787565e+01    0.1697754    0.1598817 -48.33 0.0001700536    1.119    0.107
        71  -9.1378      1.2075     94.0345   1.1895873835e+02   5.5882781699e+01    0.2773177   0.09047884 -67.40 0.0004050642    2.179    0.541
        72  -9.8902      1.8802     90.5010   1.1824214322e+02   5.6665482210e+01    0.2362857    0.1597202 -41.19 0.0009509835    1.460    0.315
        73  -8.7683    132.4928     93.5461   7.6780983936e+01   3.7758136022e+01    0.1560748    0.1523065  -9.02 -6.888972e-07    1.026    0.025
        74  -9.0941      9.2783     93.2097   1.1620353982e+02   5.5641552468e+01    0.1560745    0.1261099  82.83 0.0005031633    1.328    0.247
        75  -9.9115    236.2884     91.4551   5.5420108928e+01   1.3928105928e+01    0.3102825    0.1953794 -48.03 0.0009984408    1.495    0.331
        76  -8.6921     89.2806     92.3322   8.9070090725e+01   4.6719092618e+01    0.1514472    0.1119066 -20.55 0.0003592268    1.609    0.378
        77  -9.7650    230.7926     90.6113   5.6022763544e+01   1.5251247592e+01    0.2785746    0.2089312 -51.31 0.0006934536    1.278    0.217
        78  -9.0730     51.9586     91.5007   1.0129944022e+02   5.2352460243e+01    0.1780052    0.1373039  26.79  0.000364542    1.474    0.321
        79  -9.3448     43.2725     90.6267   1.0410232492e+02   5.3518594170e+01    0.2532352    0.1904601  74.02  0.001203155    1.736    0.424
        80  -9.9950    171.2101     89.9968   6.6515029815e+01   2.9323947258e+01     0.348731    0.2243217  48.07  0.001503969    1.578    0.366
        81  -9.2733    109.1722     89.4030   8.2100736362e+01   4.3623322775e+01    0.2971364    0.1099968 -42.66  0.000812049    2.646    0.622
        82  -9.0310    219.5143     89.4855   5.7476532894e+01   1.7944414112e+01    0.1466743    0.1349818 -47.03 0.0008103435    1.003    0.003
        83 -11.0855    180.2382     88.7133   6.4291159012e+01   2.7368743609e+01    0.4982871    0.3675447  -4.82  0.002187554    1.844    0.458
        84 -10.5456    177.0207     86.1907   6.4237753971e+01   2.8618041213e+01    0.3530838    0.2719443 -49.03  0.001679826    1.302    0.232
        85 -10.6683    173.6947     84.6936   6.4496393135e+01   2.9707583907e+01    0.2815574    0.2258527  26.10 0.0006771545    1.460    0.315
        86 -10.9010    174.8140     81.5931   6.3386642282e+01   2.9998015092e+01     0.415877    0.3006295  81.66  0.001836523    1.752    0.429
        87  -8.5091    153.7150     89.7178   7.0352131463e+01   3.3603032288e+01    0.1537939    0.1243997  10.35 0.0002011428    1.520    0.342
        88  -9.7638     47.9094     88.9775   1.0210183048e+02   5.3404032862e+01    0.2016006    0.1710556 -47.92 0.0003012805    1.026    0.025
        89 -11.4672    131.8291     86.6500   7.4912886663e+01   3.9329974956e+01    0.2936831    0.2669852 -23.72 0.0003473569    1.116    0.104
        90 -10.0448    121.0373     87.9236   7.8237888738e+01   4.1457411018e+01    0.2290776    0.2208811 -24.22 0.0003250599    1.012    0.012
        91 -10.1130    161.9368     86.0673   6.7410487981e+01   3.2324540784e+01    0.3955927    0.2123031 -48.83  0.001519559    1.998    0.499
        92  -9.5255    239.9832     85.5766   5.3503482264e+01   1.4095454510e+01    0.2787224    0.1698325 -50.05   0.00110661    1.570    0.363
        93  -9.7578    124.7972     85.8134   7.6556935307e+01   4.1073540422e+01    0.2260065    0.2088439  -3.15 0.0004355716    1.125    0.111
        94 -10.4628    166.8504     83.2784   6.5530536108e+01   3.1647394423e+01    0.2961169    0.2110105 -48.65  0.001338212    1.433    0.302
        95  -9.4525    136.9581     85.0000   7.3076933561e+01   3.8486684148e+01    0.2595609   0.08918252  49.04 0.0008011046    2.933    0.659
        96 -10.1625     45.9947     83.9308   1.0155279057e+02   5.4781080112e+01    0.2181571    0.1684464 -51.97  0.001257572    1.109    0.099
        97  -8.8586     33.6904     84.3001   1.0606291582e+02   5.5921193463e+01    0.1231586   0.09683796  78.53 0.0002578683    1.601    0.375
        98 -11.1817    156.2884     81.0254   6.7202200925e+01   3.4650259963e+01    0.5316081    0.3568528 -62.31  0.002221601    1.896    0.473
        99  -9.6820     75.8304     83.0645   9.0840709637e+01   5.1014839830e+01    0.2274507    0.2076629  26.85 0.0005040039    1.177    0.150
       100  -9.2364      2.7635     83.1448   1.1682728349e+02   5.8308869812e+01     0.246829    0.1686212  -8.02  0.001564253    1.837    0.456
       101 -10.7878      6.2304     79.3052   1.1496186874e+02   5.9008008760e+01    0.3933415    0.2378904  81.03  0.001289291    2.146    0.534
       102  -9.2653    143.3901     80.7664   7.0175407217e+01   3.7805606111e+01    0.2211615    0.1492188 -26.82 0.0009433749    1.650    0.394
       103 -11.1352    104.3771     78.8327   8.0308184230e+01   4.6812898281e+01    0.4336683    0.3398619 -16.67  0.001559227    1.424    0.298
       104  -9.6881    109.8649     71.6244   7.6336342980e+01   4.7129032332e+01     0.466975    0.2760847 -22.22  0.001856718    2.229    0.551
       105  -9.9049     55.5012     80.1799   9.7153177564e+01   5.4521184204e+01    0.3044724    0.1865246 -41.66  0.001520043    1.481    0.325
       106  -8.4647     80.9925     80.6555   8.8383128794e+01   5.0711418484e+01    0.2371254    0.1212763  14.70 0.0007040323    4.589    0.782
       107  -9.8364     97.2481     78.3766   8.2376186964e+01   4.8299433220e+01    0.3894666    0.2452189 -12.80  0.001522901    2.527    0.604
       108  -9.2814     43.8942     78.6314   1.0097703981e+02   5.6212778576e+01    0.2287697    0.1511302 -45.01 0.0005163942    1.299    0.230
       109 -10.3614    217.1394     76.6649   5.4610171652e+01   2.0623738138e+01    0.3450644     0.285163 -88.21  0.001271166    1.313    0.238
       110 -10.1306    178.2124     78.2031   6.1744969224e+01   2.9764983319e+01    0.2206499    0.1805943 -71.02 0.0008998942    1.362    0.266
       111  -8.3480     28.2992     78.2927   1.0667498018e+02   5.7762268533e+01    0.1319463   0.08026478 -37.47 0.0003138345    1.565    0.361
       112 -11.4646     78.1178     74.8539   8.7581145033e+01   5.2426720225e+01    0.4394136    0.2759744  28.39  0.002074284    1.767    0.434
       113 -10.6859    152.4370     73.6347   6.5852267561e+01   3.6949860825e+01    0.3270772    0.2960731 -74.85 0.0006201145    1.197    0.165
       114  -9.4260    129.8788     75.3879   7.1949416414e+01   4.1994703787e+01    0.3039145    0.1804413  34.87  0.001228388    1.925    0.481
       115  -8.7819    207.6766     74.3074   5.5468706649e+01   2.3237521974e+01    0.1541836    0.1086071 -67.97 0.0007035138    1.646    0.392
       116 -10.6780     56.3681     73.0982   9.4830694582e+01   5.5975556393e+01    0.6516365    0.3445714  -8.48  0.002180821    4.474    0.776
       117  -9.9769    163.6277     72.9945   6.3199231779e+01   3.4302433371e+01    0.2935928    0.2330327  70.38 0.0008536893    1.355    0.262
       118 -10.5309    158.4744     72.5373   6.4170110616e+01   3.5660336321e+01    0.3204433    0.1527975 -35.28  0.001196588    2.124    0.529
       119 -10.6422    141.9415     68.7162   6.6781714989e+01   4.0383171246e+01    0.6832701    0.2092899  48.86  0.002105998    3.145    0.682
       120  -9.7883    140.9122     72.0069   6.8072039947e+01   4.0037102396e+01    0.2803499     0.212787  51.53 0.0006301526    1.313    0.238
       121 -10.3157    137.4934     72.5462   6.9089159162e+01   4.0751840811e+01    0.3843091    0.2866713 -59.55   0.00176696    1.579    0.367
       122  -9.2768     45.6838     72.9846   9.8798985237e+01   5.7276647833e+01    0.1948497     0.149541 -49.11 0.0003810602    1.128    0.114
       123  -9.2543     22.0031     80.9418   1.0956730096e+02   5.7648567182e+01     0.242218    0.1359972 -62.16  0.001301495    1.452    0.311
       124  -9.8074    239.1967     72.1749   5.0432789047e+01   1.6373820924e+01     0.285605    0.2075315  63.26  0.001321057    1.502    0.334
       125 -11.2356     65.7867     71.1183   9.0775634073e+01   5.5115490217e+01    0.3460807    0.2588471  49.82  0.000512542    1.658    0.397
       126  -9.7246     97.0491     68.8868   7.9360829665e+01   5.0255132488e+01    0.2845084    0.1909479 -39.48  0.001056144    1.438    0.305
       127  -9.3639     18.1229     70.0729   1.0866833502e+02   6.0373084354e+01    0.2501418    0.1192417 -60.86  0.001272242    1.686    0.407
       128 -10.9604    163.9518     52.7888   5.7007755897e+01   3.7540859010e+01    0.4356312     0.375378  72.21  0.001662818    1.158    0.136
       129 -11.2707    163.1740     66.4331   6.1324806560e+01   3.5547049795e+01    0.6034553    0.4127638 -57.50   0.00268629    1.683    0.406
       130 -11.1057    163.7773     59.2884   5.9032250947e+01   3.6570633200e+01     0.447646    0.3495222  26.17  0.001395796    1.516    0.341
       131  -9.9910    159.2708     58.3670   5.9660441209e+01   3.7852421292e+01    0.3665377    0.3036619   2.58  0.001511299    1.438    0.305
       132  -8.9169     27.4625     69.0611   1.0478346351e+02   5.9896358905e+01    0.1965065   0.06898313 -42.95 0.0008085514    2.510    0.602
       133 -10.2167    157.3398     68.0138   6.3040990555e+01   3.6732053966e+01    0.2207351    0.1989959 -34.66 0.0005729597    1.123    0.110
       134  -9.7899     89.3373     67.3859   8.1358995153e+01   5.2007503988e+01    0.3407879    0.2694752  84.07 0.0008174894    1.957    0.489
       135  -9.0456    250.5172     67.0461   4.7861146970e+01   1.4738129618e+01    0.1978009     0.118633 -35.51 0.0005026591    1.498    0.332
       136 -10.0149    231.3921     70.8113   5.1126419541e+01   1.8305029004e+01    0.3022935    0.2014925 -75.77  0.001446609    1.846    0.458
       137  -9.4240    210.4940     64.5087   5.2475690557e+01   2.4132683799e+01    0.2653552    0.2094152  54.98  0.001085152    1.337    0.252
       138 -10.9543    151.5712     63.5652   6.2926056195e+01   3.8920840214e+01    0.4471455    0.3540428 -13.17  0.002166352    1.456    0.313
       139 -10.0154    150.7114     58.3607   6.1470288053e+01   3.9993992152e+01    0.3052779    0.2166422  30.67  0.001091036    1.644    0.392
       140  -9.5699    202.3407     63.6816   5.3492808072e+01   2.6232773872e+01    0.3080539    0.1542187  41.98  0.001177905    2.568    0.611
       141  -9.7390     44.1649     63.0964   9.6516725336e+01   5.9573595998e+01    0.2618644    0.2212904  44.42  0.001609278    1.485    0.327
       142 -10.5765    172.3247     61.9791   5.8176779526e+01   3.3982872482e+01    0.3896627    0.2500901 -50.71  0.001479612    1.655    0.396
       143  -9.5514     66.8162     62.9019   8.7744458131e+01   5.6660713076e+01     0.203616    0.1653581 -19.84 0.0003070192    1.174    0.148
       144  -9.8662      2.4483     62.4927   1.1320165672e+02   6.2927860188e+01    0.2137578    0.1317019 -61.28  9.24539e-05    1.255    0.203
       145 -10.6912      7.4331     57.4096   1.1004602948e+02   6.3775605305e+01    0.4660358    0.1888958 -27.54  0.001516058    2.923    0.658
       146  -9.2276    219.2327     61.7891   5.0534078059e+01   2.2480554896e+01    0.1866922    0.1692449  26.95  0.001041838    1.333    0.250
       147 -10.3650    110.0132     62.7401   7.3308813915e+01   4.8767380519e+01    0.4778439    0.3504831 -51.39  0.002310902    1.534    0.348
       148  -9.7871    133.3573     62.0112   6.6720529372e+01   4.3610835191e+01    0.4016751    0.1878105  52.23  0.001532804    2.106    0.525
       149 -10.1009    145.9978     56.3289   6.1860588583e+01   4.1489389920e+01    0.4893334     0.268915  19.06  0.001492128    4.154    0.759
       150  -9.0769    120.6049     60.3208   6.9484452914e+01   4.6863492055e+01    0.2087107    0.1419206 -22.90 0.0009412207    1.624    0.384
       151  -9.4206    100.7849     58.9542   7.4772240344e+01   5.1378630583e+01    0.6946837    0.3603761  60.62  0.002529728    3.079    0.675
       152 -10.3878     94.3900     58.7831   7.6732044570e+01   5.2684367537e+01    0.4556986    0.3004983  60.34  0.002061723    2.066    0.516
       153  -8.7384     95.6990     55.6680   7.5197491710e+01   5.2986721878e+01    0.2395503    0.1728706 -18.22  0.000587831    1.486    0.327
       154  -9.1157     50.7271     59.7015   9.2845637405e+01   5.9507258280e+01    0.1577053    0.1446601 -53.34 0.0004171068    1.243    0.196
       155  -9.9545    237.2525     57.5037   4.7190599701e+01   1.9003715198e+01    0.4274164    0.1744225 -27.93   0.00162936    2.821    0.645
       156 -10.2343    180.5118     58.7928   5.5745961469e+01   3.2424587176e+01    0.2860744    0.2087775  63.73 0.0009330087    1.362    0.266
       157  -9.2670    231.3052     58.6751   4.8190421616e+01   2.0164700257e+01    0.1471738   0.09416486 -62.55 0.0007033873    1.644    0.392
       158 -10.7086    198.8075     56.7853   5.2178297964e+01   2.8162579741e+01    0.5913794    0.2783062  50.35  0.002373605    2.237    0.553
       159  -9.6979     60.4207     57.4051   8.8287872688e+01   5.8683463467e+01     0.248148    0.1890296 -33.55 0.0006891781    1.163    0.140
       160  -9.0423     34.2914     57.6483   9.8865946393e+01   6.1734185619e+01     0.222349    0.1409288 -61.03  0.000950184    1.638    0.390
       161  -9.5761    212.3352     56.5866   5.0154560678e+01   2.4899679232e+01    0.2761763    0.1398255  70.68  0.001143513    2.201    0.546
       162  -9.2988    123.1960     56.2061   6.7378214385e+01   4.6972263914e+01    0.2038401    0.1815623 -75.29  0.001070678    1.338    0.252
       163  -8.9107    105.3975     56.2059   7.2392572672e+01   5.0907995422e+01     0.188699    0.1351056 -45.11 0.0002451028    1.489    0.328
       164 -12.0104     76.6711    219.4305   1.1455386236e+02   1.9229939548e+01    0.5971029    0.5283231  70.29  0.003002756    1.129    0.114
       165  -8.4813    112.2932     55.7082   7.0200383244e+01   4.9510000465e+01     0.139854    0.1181259 -76.61  0.000370036    1.552    0.356
       166  -9.5687    207.7231     50.0199   4.9079752409e+01   2.6975365923e+01    0.2313988    0.2203481 -22.98  0.000699078    1.186    0.157
       167 -10.5196    203.8379     51.8455   5.0106317617e+01   2.7659267276e+01    0.4838479    0.3190396 -78.18  0.002244905    1.810    0.447
       168 -10.7747    137.1756     51.7887   6.2385941196e+01   4.4369958181e+01    0.5175075    0.4737726 -87.99  0.002034966    1.210    0.174
       169 -10.6594    141.1250     44.5810   5.9065679958e+01   4.4485205025e+01    0.7261676    0.3885445  29.00   0.00267652    2.802    0.643
       170  -8.8199     86.1434     54.1425   7.7782708573e+01   5.5089481725e+01    0.1855529    0.1731125 -63.42  0.001069014    1.326    0.246
       171 -11.0969    173.7408     51.4311   5.4786896642e+01   3.5261532416e+01    0.5144579    0.2812446 -22.61  0.002084041    2.225    0.551
       172  -9.1093     69.2652     55.8494   8.4395746901e+01   5.7664519128e+01     0.328226    0.1085871 -42.42  0.001194534    2.795    0.642
       173  -9.0442     49.1285     49.7961   9.0110620366e+01   6.1664069781e+01    0.2054984    0.1526612 -15.82 0.0005151291    1.304    0.233
       174 -10.4803     45.9810     47.1702   9.0475641756e+01   6.2551513442e+01    0.5393464    0.2393955 -28.58 0.0002563762    2.856    0.650
       175  -8.6138     29.5073     52.4739   9.9294996387e+01   6.3242025600e+01    0.1264059    0.1028212 -36.78 0.0004069202    1.018    0.017
       176 -10.3198     18.1964     50.9898   1.0375854164e+02   6.4455226878e+01    0.2360822    0.1913946   3.79 0.0004946113    1.372    0.271
       177 -10.0961    238.2023     50.4256   4.5409661138e+01   1.9807766036e+01    0.2731627    0.1979587 -65.54  0.000798684    1.329    0.247
       178  -9.8822    126.3003     50.2806   6.4522272582e+01   4.7207931077e+01    0.3959946    0.2060528 -25.78  0.001032682    2.185    0.542
       179 -10.5610    106.7147     50.9566   7.0112572676e+01   5.1515584320e+01    0.2609088    0.2160217  49.12 0.0003062264    1.244    0.196
       180  -9.5209    190.6464     48.8550   5.1246379661e+01   3.1366192697e+01     0.423988    0.1289719 -32.99  0.001399244    3.182    0.686
       181  -9.0468     55.4188     50.4750   8.7800415501e+01   6.0712918474e+01    0.1343535    0.1122649 -22.34 0.0001476996    1.027    0.027
       182 -10.7674     58.9306     47.6175   8.5347137658e+01   6.0753307473e+01    0.2448813    0.2099981  -3.55 0.0004032849    1.084    0.077
       183  -9.2764    148.5781     49.2313   5.8992562986e+01   4.1949342188e+01    0.1967354    0.1463512 -15.84 0.0004757858    1.544    0.352
       184  -9.5310    157.7174     44.9923   5.5779616024e+01   4.0269328961e+01    0.4175067    0.1851646  53.49  0.001626073    2.092    0.522
       185 -10.5902    150.7152     45.2233   5.7244962576e+01   4.2002779294e+01    0.4758181    0.2439931  59.79   0.00196361    1.887    0.470
       186  -9.7146    121.7906     48.8898   6.5193417094e+01   4.8477956635e+01    0.2426371     0.206136  45.91 0.0007395393    1.139    0.122
       187  -9.5131     95.3108     48.6527   7.2741104015e+01   5.4266482211e+01    0.2478686    0.2090853  38.52 0.0006018052    1.187    0.158
       188  -9.8223      5.9850     48.0682   1.0835127829e+02   6.5809868125e+01    0.1738873    0.1327943 -44.34 0.0003253669    1.018    0.018
       189  -9.4489    249.0323     46.2331   4.3298157688e+01   1.8028983961e+01    0.1815302    0.1565306 -68.94 0.0005703347    1.064    0.060
       190  -8.7543    117.5082     52.4664   6.7600417674e+01   4.8887910828e+01    0.1481323    0.1377225  17.21 0.0001346021    1.032    0.031
       191  -9.1785    129.5006     44.9839   6.1883394731e+01   4.7254701098e+01    0.2181414    0.1448014 -30.36 0.0004882258    1.561    0.359
       192 -10.5045    167.1984     43.2559   5.3484495818e+01   3.8104923109e+01    0.3743374    0.2739751  35.52  0.001189896    1.554    0.356
       193  -9.1144    109.7837     44.3849   6.6816040087e+01   5.1890210103e+01    0.2078706    0.1248298  40.52 0.0006506067    1.628    0.386
       194 -10.0736    216.4619     42.2081   4.5937008940e+01   2.5963695567e+01    0.3784185    0.2400771 -80.38  0.001817954    1.792    0.442
       195  -8.4596     69.7161     43.2528   7.9501333214e+01   5.9860498442e+01    0.1143967    0.1087009 -86.74 0.0001827006    1.471    0.320
       196  -9.8508    205.6530     41.3053   4.7065899272e+01   2.8699156782e+01    0.3015158    0.2090495  56.73 0.0006628577    1.478    0.323
       197  -9.2531    197.6438     41.5258   4.8202730739e+01   3.0645292942e+01    0.2409705    0.1297828 -33.42   0.00106763    1.851    0.460
       198 -10.3888     63.5723     41.1318   8.1010779633e+01   6.1203535733e+01    0.2331751     0.198429  -1.18 0.0004706877    1.058    0.055
       199  -9.3470     56.5268     41.6492   8.4019744008e+01   6.2165505965e+01    0.1927435    0.1561724  51.95 0.0006575243    1.715    0.417
       200 -10.3821    177.7503     39.8313   5.0683672248e+01   3.5886587005e+01     0.334984    0.2907734 -17.17 0.0009320984    1.301    0.232
       201  -8.6033    104.6315     41.1917   6.7090671984e+01   5.3497137728e+01    0.1796432    0.1301849 -15.47 0.0001182977    1.468    0.319
       202  -8.7329     27.9661     40.9447   9.6153243497e+01   6.5652359602e+01    0.1489867    0.1142658 -34.20  0.000435503    1.047    0.045
       203 -10.2692    149.5227     38.3025   5.5226840275e+01   4.3264878832e+01    0.5359533    0.2105597 -32.20  0.002007023    2.583    0.613
       204  -8.7411     26.4402     56.4098   1.0178254676e+02   6.2695945381e+01     0.124445    0.1012049 -39.76 0.0001014556    1.017    0.017
       205  -9.2742      4.1897     40.3780   1.0706723074e+02   6.7460120844e+01    0.1386646    0.1028638  23.27  0.000771826    1.680    0.405
       206 -10.0097     32.4187     38.5200   9.3235358924e+01   6.5675892536e+01    0.2423476    0.1702302 -39.79 5.973866e-05    1.208    0.172
       207 -10.0312     33.7773     34.8173   9.1193622724e+01   6.6206373363e+01    0.2246627    0.1823135 -17.23 0.0004620593    1.050    0.048
       208  -9.7829    161.4893     37.9664   5.2866332920e+01   4.0279130610e+01    0.2777454    0.2035016  61.30 0.0004661435    1.286    0.222
       209  -9.0686     75.0653     37.7813   7.5339335028e+01   5.9843936411e+01    0.1818469    0.1783853  12.45 0.0005196513    1.271    0.213
       210  -9.5702     82.3053     35.5713   7.1896639328e+01   5.8861500743e+01    0.3245772    0.1626308 -47.06  0.001074537    2.613    0.617
       211 -10.5397     78.3335     31.9195   7.1753481741e+01   6.0140115196e+01    0.4400587    0.2576548 -16.02  0.001336127    1.946    0.486
       212  -9.5560     48.3733     37.1653   8.5633467497e+01   6.4061987254e+01     0.239251    0.1783147 -75.25  0.001197022    2.786    0.641
       213  -9.8499    127.5297     36.9765   5.9526124068e+01   4.8859991257e+01    0.2919345    0.2098585  59.61  0.001181964    1.375    0.273
       214  -8.8067     94.5522     37.0618   6.8513183995e+01   5.6229273269e+01    0.1851367     0.114204 -53.76  0.000806122    2.390    0.582
       215  -9.3216     69.1979     36.8248   7.7109572631e+01   6.1003644066e+01    0.1915533    0.1747108 -14.37 0.0006643511    1.150    0.131
       216  -9.9589    107.9726     35.4156   6.3940301786e+01   5.3595139203e+01     0.466283    0.2240222  61.85 0.0009754038    2.620    0.618
       217  -9.4245     63.1609     36.3473   7.9230722527e+01   6.2061474464e+01    0.2118916     0.166492  39.40 0.0006206144    1.431    0.301
       218  -8.7496     27.4886     36.4990   9.4762163438e+01   6.6529175167e+01    0.1241522   0.09736586 -27.75 -0.000110514    1.006    0.006
       219 -10.5675    193.7031     33.0783   4.6434887662e+01   3.2740971930e+01    0.4699915    0.2913013  36.78  0.001671269    2.137    0.532
       220  -9.5469    167.4143     34.6471   5.0816315370e+01   3.9202738481e+01     0.336167    0.2172415 -80.25  0.001045097    1.976    0.494
       221 -10.7532    239.5910     22.5671   3.8847483033e+01   2.3145586173e+01    0.3564136     0.225689  81.46  0.001414537    1.543    0.352
       222  -9.5116    230.2381     30.3029   4.1503832213e+01   2.4301135389e+01     0.271799    0.1238207 -52.32 0.0007574073    2.094    0.522
       223 -11.2012    237.1225     32.1756   4.1265699403e+01   2.2503046369e+01    0.5184212    0.3884363  75.98  0.002584305    1.334    0.250
       224 -10.0531    237.5037     26.9106   4.0019681463e+01   2.3079935847e+01    0.2881842    0.1884757 -34.75 0.0007277911    1.502    0.334
       225 -10.3579    185.3413     31.9959   4.7282532305e+01   3.4980418197e+01    0.3410709    0.2639556  -2.67  0.001444979    1.674    0.403
       226  -9.4100    223.2809     31.4258   4.2487573135e+01   2.5770338830e+01    0.3265257    0.1825541 -88.92  0.001519543    2.029    0.507
       227  -9.0101    156.2189     32.6188   5.2120535884e+01   4.2310528805e+01    0.2123547    0.1185535  52.26 0.0004381645    1.671    0.402
       228  -8.9021    114.7412     32.5911   6.1063209438e+01   5.2446711436e+01    0.1835882    0.1333136  64.41 0.0004667887    1.506    0.336
       229  -9.5040      9.2580     31.8967   1.0194987196e+02   6.8814785701e+01     0.357603   0.08087251  27.61  0.001455359    4.598    0.782
       230  -8.8084     65.4809     29.9886   7.5641680772e+01   6.2675472407e+01    0.1767669    0.1089466 -53.81 0.0008103256    2.634    0.620
       231 -10.2774    180.8021     28.3130   4.6873863075e+01   3.6583850188e+01     0.448763    0.1897386  50.19  0.001771785    2.422    0.587
       232  -8.7098    125.7616     29.0137   5.7066461811e+01   5.0312059948e+01    0.1787479    0.1190488 -26.06 0.0008752645    1.593    0.372
       233  -9.2290    110.7149     29.4364   6.0904025486e+01   5.3772098946e+01    0.2510506    0.1340539  59.53  0.000767393    1.958    0.489
       234  -9.7418     47.4091     28.5048   8.2422341657e+01   6.5625623028e+01    0.2190249    0.1786072  -1.10 0.0005875485    1.075    0.069
       235  -8.7529     53.7312     28.7016   7.9802187979e+01   6.4704187953e+01    0.1274938   0.08595683  -5.97 0.0001939606    1.521    0.343
       236  -9.4974     16.5496     27.6681   9.6738395669e+01   6.9074259564e+01    0.2849894    0.1298704 -30.87  0.001478005    2.014    0.504
       237  -9.4574    206.5118     26.4720   4.3090841711e+01   3.0396311853e+01    0.2644343    0.1300441 -30.86 0.0009614901    2.078    0.519
       238 -10.5851     82.2364     26.0984   6.7955683560e+01   6.0208473531e+01    0.3489386    0.2507133  47.79 0.0009510771    1.437    0.304
       239  -9.4275    194.8037     25.8896   4.4334103477e+01   3.3353512554e+01     0.210587    0.1808659  45.79 0.0006896695    1.311    0.237
       240  -9.4957    120.9389     25.7562   5.6980408171e+01   5.1853356620e+01    0.2550971    0.2010384 -30.00  0.001092774    1.353    0.261
       241 -12.0360     69.3419    218.6617   1.1595871722e+02   2.0394550749e+01    0.6448048    0.4728828 -81.92  0.003512034    1.328    0.247
       242 -10.3164    228.0124     23.6121   4.0140415321e+01   2.5638449320e+01    0.4280018    0.2359508 -78.80  0.002047481    2.009    0.502
       243  -9.7057    249.5480     23.7984   3.8279581760e+01   2.0824412961e+01    0.2351106    0.1641988  83.82  0.001411062    1.398    0.285
       244  -9.6915     29.9657     23.4575   8.8290047887e+01   6.8550714366e+01    0.1857712    0.1333175 -30.60 0.0005986923    1.166    0.142
       245  -8.9641     14.8399     24.0960   9.6209059627e+01   6.9839556740e+01    0.1648894    0.1011344 -29.87  0.000434623    1.310    0.237
       246  -9.2807    200.1615     22.5349   4.2794520746e+01   3.2422143724e+01    0.2071119    0.1908715  28.07  0.001257485    1.328    0.247
       247  -9.8561    178.8683     22.8327   4.5563852767e+01   3.7719407002e+01    0.2254308    0.2025671  -2.77  0.001317787    1.323    0.244
       248 -10.6255    164.6247     22.2750   4.7471000261e+01   4.1402227888e+01    0.3842754    0.2325256  74.36 0.0009264539    1.630    0.386
       249 -10.2248     59.2865    208.9396   1.1708727564e+02   2.3725506129e+01    0.2967825    0.1314277  51.87  0.001453328    1.998    0.499
       250  -8.9693      1.1721    184.9590   1.2712393398e+02   3.5023006051e+01    0.1593773   0.06694987 -81.30 0.0006669134    1.902    0.474
       251 -10.3509      2.3434     21.7390   1.0192778211e+02   7.1094137490e+01    0.2458438    0.1923946 -46.16  0.001010861    1.235    0.190
       252  -9.5308    131.7651     20.3211   5.2639594430e+01   4.9861686216e+01    0.3100536    0.2146388 -63.94  0.001519747    1.890    0.471
       253  -8.7431     19.6151     21.7312   9.2754558479e+01   6.9847883310e+01    0.1234061   0.07119969 -16.93 0.0006327825    1.701    0.412
       254  -9.7650    222.5510     19.6322   3.9714060854e+01   2.7378134169e+01    0.2687968    0.2212046 -20.66  0.001300089    1.474    0.322
       255  -9.4743    249.4914    183.4971   7.3616010564e+01  -3.4714240348e+00    0.1297097    0.1074895  -6.62  4.18756e-05    1.019    0.019
       256  -9.9697    105.5095     17.4686   5.7535090165e+01   5.6348473292e+01    0.2474246    0.1973787  32.47 0.0008072811    1.141    0.123
       257  -9.4816    239.0676    178.0302   7.4325842501e+01  -9.5833932354e-01    0.1869254    0.1707566 -80.12 0.0008979389    1.693    0.409
       258 -10.1320     69.5957     19.1098   6.9254773728e+01   6.3463133804e+01    0.2300467     0.189528  13.53 0.0004566997    1.038    0.036
       259  -8.7795     63.5585     19.4810   7.1681430338e+01   6.4466627802e+01    0.1280952    0.1074472   3.78 0.0001484814    1.023    0.023
       260  -9.8328    210.6552     17.8319   4.0444893512e+01   3.0407178728e+01    0.2640316    0.1913956 -77.72 0.0007997192    1.297    0.229
       261 -10.3805      2.7575    152.9121   1.2462208402e+02   4.2052288799e+01    0.2783349    0.2224492 -23.88  0.001902515    1.821    0.451
       262  -9.9399     86.8345     17.9108   6.2951409983e+01   6.0304870007e+01    0.2477811    0.1715541  41.82  0.001377322    1.309    0.236
       263  -9.4064    119.9680     18.9380   5.4649331089e+01   5.2851943952e+01    0.2055646    0.1784511  51.47 0.0004793709    1.067    0.063
       264 -10.9339     38.4788     17.5879   8.1499459506e+01   6.8460480566e+01    0.3243587    0.1994871  26.25 0.0007217398    1.603    0.376
       265  -9.8415     43.1579     14.8207   7.7995827552e+01   6.8229922848e+01    0.1922764     0.152161  -5.36  0.000455184    1.013    0.012
       266 -10.7809    248.9501    144.5758   6.5612971797e+01   2.6500346118e+00    0.3439925     0.202247 -38.59  0.001720166    1.538    0.350
       267 -10.2005    227.1277    145.8246   6.9594707671e+01   6.4879267013e+00    0.2415039    0.1826218 -41.14 0.0004916136    1.301    0.232
       268 -10.6922    225.3946    142.2222   6.9095500161e+01   7.4515234851e+00    0.2952561    0.1834722 -47.57  0.001373209    1.721    0.419
       269  -9.2724     35.9201    141.6551   1.1516340503e+02   4.1907072944e+01    0.1780312    0.1610245  81.48  0.001158674    1.125    0.111
       270 -10.1286     21.9893    141.9578   1.1886124265e+02   4.3123009922e+01    0.1904719    0.1708265  60.72 0.0003591816    1.238    0.192
       271 -10.8153    244.6035    138.8147   6.5055098276e+01   4.3769084361e+00    0.3526585    0.1881252 -45.88  0.001597829    1.942    0.485
       272  -9.9348    246.6671    135.6633   6.4025753297e+01   4.5153762216e+00     0.219327    0.1539999  -0.91  0.001079027    1.749    0.428
       273  -9.9045      5.7253    140.6497   1.2287390077e+02   4.4687749590e+01    0.1414273     0.117207 -37.58 0.0003663609    1.537    0.350
       274  -9.2251     29.4479    137.9749   1.1642598738e+02   4.3419755914e+01    0.1833155    0.1624014  46.13 0.0006742612    1.299    0.230
       275 -11.2938    224.3310    134.3777   6.7495351960e+01   9.0413305651e+00    0.5415842    0.3594224  46.98  0.002316391    1.628    0.386
       276  -8.7428    144.4535     14.4805   4.8247516101e+01   4.7326625038e+01    0.1372916     0.124162  61.31 0.0001218905    1.004    0.004
       277  -9.6170      8.0209     22.3543   9.9111469177e+01   7.0637109904e+01     0.192578    0.1475296 -26.42 0.0007321102    1.057    0.054
       278  -9.8310    240.7831    134.9036   6.4808572206e+01   5.7398356638e+00    0.2257319    0.2074294  30.61  0.001061641    1.196    0.164
       279  -9.0791    185.0366    134.0212   7.5054083671e+01   1.7415033837e+01    0.1882391    0.1703615 -33.09 0.0003221637    1.077    0.072
       280  -8.9560      4.8153    130.6176   1.2215921444e+02   4.7103227986e+01    0.1499757   0.09987243  47.83 0.0003144525    1.652    0.395
       281  -8.9556     12.5319    127.9611   1.1981244273e+02   4.7207007605e+01    0.1825607   0.06618322 -53.96  0.000808292    2.430    0.588
       282  -8.9455    203.4708    127.4617   6.9728628548e+01   1.4667165141e+01    0.1498748    0.1422777 -31.53 0.0001655708    1.034    0.033
       283  -8.9703     33.4279    127.4671   1.1391634022e+02   4.5601609242e+01     0.131841    0.1087649 -73.84 8.608731e-05    1.009    0.009
       284 -11.4171    229.7842    123.3311   6.3989219536e+01   9.8746027504e+00     0.628722    0.5134706 -40.72  0.003133944    1.150    0.131
       285  -9.8065     48.2849    125.4836   1.0931174344e+02   4.4557992748e+01    0.2224395    0.1408119  20.72 0.0007876901    1.998    0.499
       286  -8.6379     38.3771    125.2597   1.1216431522e+02   4.5660965332e+01    0.1303883   0.09204519 -36.29 0.0006975968    1.664    0.399
       287 -10.2080     28.3041    125.3337   1.1507684122e+02   4.6586493347e+01    0.1786236    0.1714277  87.48 0.0009068989    1.187    0.157
       288  -9.0260     23.2532    125.3787   1.1651932423e+02   4.7004524980e+01    0.1571886    0.1120727  45.51 0.0005287128    1.568    0.362
       289  -9.1538     93.5454    122.7007   9.5454870644e+01   3.8843243169e+01    0.2037087    0.1409884 -66.36 0.0007189263    1.516    0.340
       290  -8.4308     78.2981    123.2675   1.0003669495e+02   4.1160026809e+01     0.139437    0.1100764 -26.77 0.0002134565    1.518    0.341
       291  -9.5296     12.5536    122.8002   1.1921180491e+02   4.8435257451e+01     0.234379    0.1465129  80.19 0.0008903127    1.623    0.384
       292  -9.7201      8.5608    122.0730   1.2024340689e+02   4.8878189481e+01    0.3535979    0.1511087  85.86  0.001340383    2.850    0.649
       293  -9.6916    250.3004    120.1167   5.9993911948e+01   6.3862304678e+00    0.2576756    0.1638451 -45.84  0.001174145    1.510    0.338
       294  -9.9152     57.5533    117.6568   1.0512462203e+02   4.5389616242e+01     0.227813    0.2202292 -39.84 0.0006542275    1.143    0.125
       295  -9.0622     98.7198    117.2491   9.2678822143e+01   3.9248326283e+01    0.2015344    0.1735653 -17.38 0.0005161172    1.340    0.254
       296 -10.6198     24.8853    116.3664   1.1479574748e+02   4.9047326078e+01    0.4340807    0.1934392  27.31   0.00153714    2.605    0.616
       297 -10.1823    202.1809    115.7038   6.7090305003e+01   1.7164685800e+01    0.3270786    0.1941902  63.25   0.00113264    2.153    0.536
       298 -11.4535     11.4344    114.5142   1.1851844213e+02   5.0484565040e+01    0.2422367    0.2059475 -61.88 0.0003890249    1.143    0.125
       299  -8.8297    213.7070    115.6999   6.4958971798e+01   1.4618819818e+01    0.1467416    0.1149558   3.79 0.0002097432    1.568    0.362
       300 -10.3489    191.9669    114.4932   6.8780829172e+01   1.9704980304e+01    0.3269246    0.2321283 -41.93 0.0007859502    1.358    0.264
       301  -9.3433     38.5527    114.7939   1.1041383346e+02   4.8199110775e+01    0.1871164    0.1145389 -79.42 0.0008068299    1.641    0.391
       302  -9.8442    249.0154    113.7211   5.8741203674e+01   7.6778897232e+00    0.2586804    0.1739996 -53.30  0.001027302    1.607    0.378
       303  -9.5400      2.5807    114.2271   1.2104876235e+02   5.1096018746e+01    0.1779187    0.1239815 -69.67 0.0002644685    1.113    0.102
       304  -9.6410    208.5091    117.5361   6.6355623879e+01   1.5420137912e+01    0.3978544    0.1458222  48.92  0.001373426    2.851    0.649
       305  -8.6699     17.3075    113.6485   1.1666876583e+02   5.0284639935e+01     0.129358   0.08386207  74.96 0.0007043069    1.713    0.416
       306  -9.3026     49.7531    112.0266   1.0644219572e+02   4.7690040334e+01    0.2006035    0.1586318 -61.87 0.0005821551    1.094    0.086
