#   1 NUMBER                 Running object number                                     
#   2 MAG_AUTO               Kron-like elliptical aperture magnitude                    [mag]
#   3 X_IMAGE                Object position along x                                    [pixel]
#   4 Y_IMAGE                Object position along y                                    [pixel]
#   5 X_WORLD                Barycenter position along world x axis                     [deg]
#   6 Y_WORLD                Barycenter position along world y axis                     [deg]
#   7 A_WORLD                Profile RMS along major axis (world units)                 [deg]
#   8 B_WORLD                Profile RMS along minor axis (world units)                 [deg]
#   9 THETA_WORLD            Position angle (CCW/world-x)                               [deg]
#  10 FWHM_WORLD             FWHM assuming a gaussian core                              [deg]
#  11 ELONGATION             A_IMAGE/B_IMAGE                                           
#  12 ELLIPTICITY            1 - B_IMAGE/A_IMAGE                                       
         1 -13.2508    186.4045     24.6825   7.0841962916e+01   3.5022184824e+01     1.769743     1.371129 -21.06  0.006467016    1.342    0.255
         2 -13.0284    193.3084     17.5640   6.7837635629e+01   3.3965316204e+01     1.339625    0.9778224 -55.78  0.004538368    1.360    0.265
         3 -13.1273    199.5679      9.9715   6.4942854573e+01   3.3092941748e+01     1.641898    0.8328686  50.61  0.001542762    2.116    0.527
         4 -10.1773     29.7227     13.1304   1.1747873498e+02   7.3441460874e+01     0.322128   0.09602579 -49.87  0.001228072    2.888    0.654
         5  -8.7304     49.3218      2.6780   9.7802772296e+01   7.2422928990e+01    0.1220948    0.1095245 -70.36 0.0007045678    1.675    0.403
         6 -11.2570     34.9937    205.9450   1.4698021405e+02   2.8791401378e+01    0.4663047     0.185098  47.30  0.002296663    1.816    0.449
         7  -9.9836    163.4523    249.0084   1.2462811055e+02   6.0357052285e+00     0.256147    0.1941226  48.98  0.001893738    1.611    0.379
         8 -10.3272    110.4969    248.4903   1.3452841547e+02   1.3061268845e+01    0.1868507    0.1496537  36.45 0.0008808688    1.145    0.127
         9 -11.6949    105.8247    246.0047   1.3521810394e+02   1.3999306582e+01    0.4521095    0.2870624  58.06 0.0006280662    1.652    0.395
        10 -11.1267    100.9578    249.4790   1.3642378851e+02   1.4125707237e+01    0.6355397    0.1315312  37.22   0.00274209    2.960    0.662
        11 -11.9754    100.8915    245.1492   1.3609926261e+02   1.4743233184e+01    0.5238598     0.232021  32.89  0.001919319    1.708    0.415
        12 -11.6033     80.0264    246.8616   1.4022508693e+02   1.7039577241e+01    0.5143332    0.2395841  56.08  0.003078859    2.031    0.508
        13 -11.6884     81.7594    241.6408   1.3954523558e+02   1.7608521745e+01    0.5571489    0.2347929  59.65  0.002891546    2.789    0.641
        14 -13.3473     52.2979    228.8853   1.4456899945e+02   2.2993431465e+01     1.596741    0.6391045 -81.71  0.003373254    3.084    0.676
        15 -14.8075     60.2654    213.5947   1.4203182137e+02   2.4716405750e+01     7.203703     1.291052  42.17   0.02833667    3.158    0.683
        16 -15.6758      7.9727    238.6185   1.5330565244e+02   2.5668530420e+01     12.64449     1.582827 -81.53   0.04808265    7.693    0.870
        17  -9.9922    192.7663    194.1238   1.1152750561e+02   8.6208634508e+00    0.5821525     0.339335 -60.05  0.002142293    6.058    0.835
        18  -8.4146     75.6785    198.6289   1.3750035856e+02   2.5572767468e+01    0.1688334    0.0882231  41.62 0.0005226125    1.487    0.327
        19  -8.3902     68.9597    197.2857   1.3891590824e+02   2.6660359590e+01    0.1673624    0.1238309  43.32 0.0002298719    1.091    0.083
        20 -11.0915     74.0280    193.3829   1.3741379592e+02   2.6768866710e+01    0.3572973    0.2442748 -40.10  0.001810349    2.110    0.526
        21 -11.0644     78.4916    186.4970   1.3571199681e+02   2.7521925568e+01    0.2596327    0.2390031 -30.78 0.0007535432    1.411    0.291
        22  -8.0013    181.5103    192.4279   1.1345869152e+02   1.0640452986e+01    0.1299752    0.1008114  22.73 5.498388e-05    1.013    0.013
        23 -10.4920     86.4560    174.6977   1.3248663352e+02   2.8789432387e+01    0.2332399    0.2105832  42.54 0.0004469796    1.100    0.091
        24 -12.5031     74.3200    172.1472   1.3525560892e+02   3.0961795851e+01    0.4265802    0.2741325 -40.46  0.001270155    2.164    0.538
        25  -9.8766    126.4863    173.9871   1.2256491605e+02   2.2763218589e+01    0.3084788    0.1840077  36.94  0.001557845    1.417    0.294
        26 -10.6136    106.3996    173.2253   1.2733512940e+02   2.6134158072e+01    0.9604037    0.1490018  41.37  0.002697978    4.771    0.790
        27 -10.2250    136.4776    172.1212   1.1990455473e+02   2.1426698009e+01    0.4279655    0.2325277  27.23  0.001952038    1.891    0.471
        28 -12.2730     68.0050    144.6918   1.3372522629e+02   3.7795162288e+01     1.108627    0.5918891  75.04  0.004685547    2.587    0.613
        29 -11.4022     92.2951    166.6119   1.2999615389e+02   2.9605558752e+01    0.5920316    0.4501082  25.04  0.001507885    1.359    0.264
        30 -10.3779     81.2703    161.5846   1.3222407956e+02   3.2250519333e+01    0.8263221    0.3273965  54.32  0.003097083    3.068    0.674
        31 -15.3767      1.8711     70.7680   1.4832723870e+02   6.1512785060e+01     14.69905    0.6063805 -80.46   0.02373751   17.247    0.942
        32  -9.7521     89.7385    245.5625   1.3827774834e+02   1.6064779536e+01    0.2079183   0.08286679  32.12  0.001098557    1.965    0.491
        33  -9.4716    103.8448    149.6757   1.2443922520e+02   3.1376002683e+01    0.2860791    0.2552674 -21.67 0.0008268476    1.324    0.245
        34  -8.7488    106.4157    145.3499   1.2300962699e+02   3.1875949375e+01    0.3049647    0.1989723 -29.33  0.001377302    2.172    0.540
        35 -11.3700     92.8179    149.1637   1.2736664213e+02   3.3245776392e+01    0.2744154     0.249613  23.01 0.0004542447    1.173    0.148
        36  -8.8303    133.7985    143.7910   1.1548450186e+02   2.7299272701e+01    0.2147463    0.1170031 -59.46 0.0006707337    2.486    0.598
        37 -11.7680     57.8879    130.2271   1.3484132350e+02   4.2450867542e+01     1.127482    0.4265417 -82.52  0.003615681    4.293    0.767
        38  -9.5939     70.4829    134.6308   1.3161238684e+02   3.9799692829e+01    0.2372434    0.1248354  32.15  0.001071808    1.833    0.454
        39 -10.0746    100.9713    132.6201   1.2224107763e+02   3.5596042202e+01    0.3003567     0.241373 -15.33 0.0007564083    1.595    0.373
        40  -9.6818     44.9959    129.5103   1.3874772604e+02   4.4064945614e+01    0.1966655    0.1244526  30.01  0.001032828    1.590    0.371
        41  -8.2992    118.4509    128.5121   1.1645338489e+02   3.3362280486e+01    0.1489359    0.1386858  26.95 8.022306e-05    1.058    0.055
        42  -8.9620    109.2023    122.8909   1.1789901043e+02   3.6317463270e+01    0.2128779    0.1892715  62.34   0.00041979    1.157    0.136
        43  -9.3302    113.2947    135.4090   1.1928535422e+02   3.2822817007e+01    0.3037401      0.23114  -9.01 0.0009391829    1.781    0.439
        44 -10.0936    168.1700    112.9828   1.0015987016e+02   2.6125447333e+01     0.356654    0.3031207  89.02 0.0009973958    1.608    0.378
        45  -8.7741    204.8735    110.6614   9.2140901130e+01   1.8580668516e+01    0.2931952    0.1137491  42.43  0.001096273    2.582    0.613
        46 -10.1969    164.1291    224.6782   1.2158763267e+02   8.9245077831e+00     0.191562    0.1691751 -11.51  0.001158749    1.368    0.269
        47 -10.7848    174.2579    220.1280   1.1902284364e+02   8.0408016268e+00    0.3074428    0.1870911  25.99  0.001881183    1.297    0.229
        48 -11.0716    139.3565    247.8665   1.2899154400e+02   9.3805657976e+00    0.3011846    0.2062137  46.30  0.001695656    1.386    0.278
        49 -13.2219     10.3969    206.5307   1.5212287286e+02   3.0910463547e+01     1.162138    0.5464506  19.93  0.004775397    2.539    0.606
        50 -11.1502    126.1275    244.8090   1.3121016356e+02   1.1530631194e+01    0.3367353    0.2008089  55.01  0.002127139    1.886    0.470
        51 -10.2969     32.4673     30.7522   1.2367860672e+02   6.9418748302e+01    0.4103568    0.1249328 -59.69  0.001461802    3.195    0.687
        52  -9.6544    229.9505    207.4375   1.0697820088e+02   1.5524987854e+00    0.1875112    0.1437763  -8.43  0.000386839    1.294    0.227
        53 -10.4560    247.9425    244.8025   1.0964433243e+02  -4.2227152471e+00     0.173056    0.1291862   4.66  0.001443219    1.316    0.240
