#   1 NUMBER                 Running object number                                     
#   2 MAG_AUTO               Kron-like elliptical aperture magnitude                    [mag]
#   3 X_IMAGE                Object position along x                                    [pixel]
#   4 Y_IMAGE                Object position along y                                    [pixel]
#   5 X_WORLD                Barycenter position along world x axis                     [deg]
#   6 Y_WORLD                Barycenter position along world y axis                     [deg]
#   7 A_WORLD                Profile RMS along major axis (world units)                 [deg]
#   8 B_WORLD                Profile RMS along minor axis (world units)                 [deg]
#   9 THETA_WORLD            Position angle (CCW/world-x)                               [deg]
#  10 FWHM_WORLD             FWHM assuming a gaussian core                              [deg]
#  11 ELONGATION             A_IMAGE/B_IMAGE                                           
#  12 ELLIPTICITY            1 - B_IMAGE/A_IMAGE                                       
         1 -11.9228    171.7496     31.0084   7.8133442397e+01   3.8091690099e+01     1.342628     1.029189  12.87  0.005229211    1.509    0.337
         2 -10.4895    174.8361     24.0259   7.5347072263e+01   3.8106639530e+01    0.5551516     0.446266  -2.11  0.001305629    1.362    0.266
         3  -9.3574    158.8286    235.3490   1.2561615012e+02   9.1637676944e+00    0.1854008    0.1633059 -57.96  0.001171743    1.632    0.387
         4 -13.2763     62.5688    223.3378   1.4202139193e+02   2.3476232356e+01     1.050779    0.4555069  47.61  0.001958765    1.690    0.408
         5 -15.7413     54.3322    246.5831   1.4480613748e+02   2.0865600058e+01      4.09139     2.903641  33.65   0.01561467    1.452    0.311
         6  -9.0814    127.6147    229.0807   1.3049877710e+02   1.4308943749e+01    0.3476601    0.2977744 -59.72  0.002757951    1.543    0.352
         7  -7.4961      1.1846    231.4604   1.5317637843e+02   2.8249134067e+01   0.07836463   0.05794715 -74.61 0.0006672881    1.713    0.416
         8  -9.0220    138.6467    229.1419   1.2850611515e+02   1.2768732439e+01    0.1970795    0.1462531  61.21  0.001251837    1.552    0.356
         9  -7.8719      4.5753    229.7242   1.5257010838e+02   2.8235210136e+01    0.1186718   0.06378347  69.51 8.456506e-05    1.430    0.300
        10  -7.3794    239.3017    234.3396   1.1229208286e+02  -1.6424242401e+00    0.1084793   0.05907503  13.21 0.0005592592    1.670    0.401
        11  -7.3791    143.6237    223.2444   1.2694585233e+02   1.2850386455e+01    0.1138932   0.06942241  52.01 0.0003113406    1.633    0.388
        12  -8.2217    177.6426    220.7019   1.2052351053e+02   8.2371445996e+00    0.1744437    0.1111977  13.39  0.001078674    1.765    0.433
        13  -8.3781    171.8058    218.9274   1.2132288509e+02   9.3078768441e+00    0.1761827    0.1603178  76.61  0.001334455    1.602    0.376
        14  -8.9749     99.9989    215.4899   1.3432521282e+02   2.0065328571e+01    0.2906931    0.1628797  54.61  0.001401468    1.622    0.384
        15 -14.5721     31.4703    248.5755   1.4869561228e+02   2.2921333874e+01     2.425949    0.7812127  60.42   0.01390998    2.567    0.610
        16  -9.0901     15.4477    214.8662   1.5023580642e+02   2.9694679476e+01    0.1869133    0.1556874  12.84 0.0006894405    1.820    0.451
        17  -8.7845      7.1270    213.9729   1.5170162716e+02   3.0571024804e+01    0.2426128    0.1271982  23.80  0.001596191    2.377    0.579
        18  -8.4567    167.6112    211.7861   1.2113057740e+02   1.0837032607e+01    0.2556105     0.200551 -83.01  0.001277735    2.268    0.559
        19  -9.9100     95.9686    209.5326   1.3454186004e+02   2.1551993191e+01    0.4645077    0.1777181  50.90  0.002260305    2.410    0.585
        20 -11.4557     11.7801    206.5974   1.5061878967e+02   3.1423441294e+01    0.4260471    0.2627661  35.00  0.001748629    1.564    0.361
        21  -7.7094     18.6342    202.2019   1.4916381767e+02   3.1580412410e+01    0.1538755    0.1044492  62.25 0.0004781501    1.085    0.078
        22  -7.7989    130.2496    207.1935   1.2758517170e+02   1.7080374243e+01    0.1635391    0.1301795  32.83 0.0004278492    1.132    0.117
        23  -8.9690     22.9116    206.2062   1.4851975589e+02   3.0486626592e+01    0.2517231    0.2316767 -22.11   0.00212274    1.738    0.425
        24  -9.8756    124.0057    205.9962   1.2866077124e+02   1.8179557900e+01    0.1671938    0.1331084  42.20            0    1.006    0.006
        25 -13.0311     35.6286    242.4968   1.4777202171e+02   2.3404287320e+01    0.3409735    0.3279514 -67.95 0.0006126955    1.626    0.385
        26  -9.5142    198.8981    200.4589   1.1388558047e+02   7.4829810800e+00     0.438721    0.2009504  36.68  0.002344709    1.776    0.437
        27  -6.9193    158.6397    200.2986   1.2122290198e+02   1.3770673306e+01    0.1187719   0.08407326  58.22 0.0007034803    1.712    0.416
        28  -8.7517    192.6252    195.1987   1.1417352252e+02   9.1048112500e+00      0.29061    0.2180736 -61.05  0.001746749    2.356    0.576
        29 -10.0302    191.6450    188.4573   1.1326985928e+02   1.0124483567e+01    0.2436764    0.1857259  17.90 0.0001350157    1.158    0.136
        30  -7.6304    209.4989    189.5543   1.1029262393e+02   7.1455166873e+00    0.1223277   0.09373179  18.91 2.413498e-05    1.049    0.047
        31  -7.9565      4.9300    249.6262   1.5297660729e+02   2.5202889038e+01    0.1265725   0.09347083  67.90 0.0003725857    1.212    0.175
        32  -9.4417     61.9070    185.7911   1.3936474821e+02   3.0050524410e+01    0.3550431    0.1871052  89.81  0.001946258    2.207    0.547
        33  -8.9869     39.1965    187.5443   1.4429566860e+02   3.2251129456e+01    0.2150606   0.08003146  38.72   0.00113989    2.130    0.531
        34  -8.9049     33.0134    187.1568   1.4555727749e+02   3.2950051887e+01    0.1531774    0.1425557  67.44  0.001237008    1.296    0.228
        35  -7.4206    214.0000    185.0000   1.0875221793e+02   6.9817104191e+00    0.1762425   0.06514576 -33.23 0.0008021834    2.941    0.660
        36  -8.3607    201.5844    183.8055   1.1071192844e+02   9.1150906050e+00    0.2227555    0.1751041  37.34 0.0007303575    1.242    0.195
        37  -9.4350     27.2237    180.4555   1.4638281106e+02   3.4781320330e+01    0.4043154     0.138995  80.88  0.001733927    3.704    0.730
        38  -9.4905     95.6781    179.6606   1.3141318277e+02   2.6758343157e+01    0.2742331    0.2285144 -48.27  0.001138143    1.472    0.320
        39  -9.3312     98.0156    174.5015   1.3026570315e+02   2.7377339813e+01    0.2898982    0.2117933 -41.28  0.001173723    1.769    0.435
        40  -8.0016    229.3275    174.1231   1.0427019061e+02   5.8361350250e+00    0.1704258    0.1360253 -47.79 0.0009668017    1.953    0.488
        41  -8.4778    226.5636    170.1661   1.0400188139e+02   6.7417143938e+00    0.1974235    0.1627105 -13.33   0.00133417    1.232    0.188
        42  -7.5283    192.1691    173.7727   1.1068103380e+02   1.2001297688e+01    0.1692674    0.1255104  14.91 0.0003413766    1.288    0.223
        43  -7.8332     38.3496    170.8060   1.4333442294e+02   3.5570047101e+01    0.1820184    0.1310563 -75.56 0.0007357077    1.396    0.284
        44  -8.0693    113.4718    170.0936   1.2623178113e+02   2.5850337978e+01     0.189256    0.1537082  46.07  0.000478432    1.070    0.065
        45  -8.6168    102.9247    165.1198   1.2791151573e+02   2.8420209969e+01    0.1875682    0.1757543  84.51 0.0003671038    1.125    0.111
        46  -9.6792     91.8926    160.6459   1.2986091931e+02   3.0946344090e+01    0.2911795    0.2228766  24.42 0.0008654346    1.503    0.335
        47  -8.0119     68.6121    162.2875   1.3556748290e+02   3.3811527914e+01    0.1349861   0.07660779  60.43 9.987437e-05    1.755    0.430
        48 -10.0113     23.5239    158.5931   1.4587989401e+02   3.9470628614e+01    0.6180536    0.3048894  15.21  0.003112708    3.148    0.682
        49  -8.9166    105.9973    158.5028   1.2624236244e+02   2.9222287993e+01     0.416683    0.2221797 -44.63  0.001780314    2.289    0.563
        50  -7.2645     66.5389    158.4465   1.3563335298e+02   3.4860895508e+01    0.1224109    0.1058156  65.68 7.867296e-05    1.019    0.019
        51  -9.2144      9.6256    152.6668   1.4878071044e+02   4.1852951566e+01    0.2036948    0.1268298  37.23  0.001349524    1.568    0.362
        52  -7.2606     19.5748    151.2129   1.4633649160e+02   4.1349947087e+01    0.1417567   0.09259761 -72.03 0.0002838628    1.474    0.322
        53  -8.2585     51.7437    148.8249   1.3821806082e+02   3.8664041495e+01    0.1934402    0.1202056 -32.33 0.0008818141    2.777    0.640
        54 -11.0783     68.0912    144.4136   1.3355620341e+02   3.7616297893e+01     0.719197    0.3693443  65.58  0.003260846    2.434    0.589
        55  -8.7604    133.5556    145.0256   1.1754362619e+02   2.7144184721e+01    0.3301082    0.1363353 -49.43  0.001218151    2.659    0.624
        56  -6.9731     21.3201    145.2636   1.4550897899e+02   4.2461232793e+01    0.1020213   0.08432695 -47.53 0.0002271932    1.553    0.356
        57  -8.4379     86.4551    144.4689   1.2889007057e+02   3.5056676550e+01    0.1306511     0.116759  66.04 0.0008081003    1.013    0.013
        58  -8.2396    114.3488    142.3432   1.2160752990e+02   3.1047785561e+01    0.3161271    0.1794122 -42.77  0.001481751    2.047    0.511
        59  -7.7447     88.2964    140.3157   1.2778594917e+02   3.5660535405e+01    0.1248975    0.1040514 -21.15 0.0002145696    1.606    0.377
        60 -10.5524     67.1718    134.8048   1.3250233873e+02   3.9827436875e+01    0.4400773    0.2844352  64.38  0.001508189    1.614    0.380
        61  -9.2952     66.5151    130.1799   1.3201815498e+02   4.0938084903e+01    0.2492014    0.1759981  48.05 0.0008013846    1.349    0.259
        62  -8.4774      3.7638    137.4225   1.4940102484e+02   4.5490935941e+01     0.134952    0.1088281   1.77 0.0009573976    1.748    0.428
        63  -6.8876    205.3064    136.7246   1.0102707174e+02   1.4858800866e+01    0.1185033    0.1088887 -86.81 0.0001898499    1.547    0.354
        64  -8.1350    136.0485    135.9882   1.1521360160e+02   2.8397854608e+01    0.2051634    0.1906384  50.63 0.0003268954    1.054    0.051
        65  -7.8843     79.8353    135.8441   1.2929050182e+02   3.7863383305e+01    0.1831876    0.1418055  68.42 0.0005522536    1.284    0.221
        66  -9.1905     58.7047    133.4534   1.3459513302e+02   4.1196521349e+01    0.2566839    0.1910074  61.94 0.0008776488    1.268    0.211
        67  -7.8601    119.3208    132.0473   1.1846183687e+02   3.2248817043e+01    0.1924582    0.1815183 -58.72 0.0008101824    1.119    0.106
        68  -9.8456     73.4161    129.0274   1.2995660371e+02   4.0265261880e+01    0.4813772    0.2648004 -44.33  0.002250742    2.233    0.552
        69  -7.3245    108.1538    128.3934   1.2057531549e+02   3.4971631839e+01    0.1949337    0.1206697  50.91 0.0005811049    1.614    0.380
        70  -8.3808     41.4890    128.0007   1.3863673347e+02   4.4361194874e+01    0.1913425    0.1095919 -72.23  0.001032586    1.596    0.373
        71  -7.5262    160.2657    126.6701   1.0774744139e+02   2.5383876183e+01    0.1345139    0.1136229 -83.12 0.0006969544    1.576    0.365
        72  -8.1874     64.0590    125.3015   1.3197707636e+02   4.2350279984e+01    0.1810922    0.1570261  59.00 0.0004136698    1.100    0.091
        73  -8.3592    200.2539    124.1864   9.9177724655e+01   1.7678979424e+01    0.2167565    0.1684197  26.38  0.000335118    1.232    0.188
        74  -7.8487     41.0123    124.5073   1.3836503741e+02   4.5200783555e+01    0.1812113    0.1182246  33.99  0.001036787    1.602    0.376
        75 -10.4127    246.0848    115.0689   8.9671015577e+01   1.0102764935e+01    0.2699094    0.2196561  26.13 0.0005133936    1.207    0.171
        76  -7.3865     56.8113    110.6071   1.3179425224e+02   4.6622517881e+01    0.1836631    0.1116297  46.24 0.0006773713    1.649    0.394
        77  -8.0617    196.3921    107.5693   9.5964143308e+01   2.0992919377e+01    0.2399037    0.1389666  54.82 0.0009018875    1.885    0.470
        78  -9.0604    177.8747    238.3891   1.2270474528e+02   6.1729256268e+00     0.194779    0.1697404 -11.97  0.000613703    1.412    0.292
        79  -7.7054     67.9832    103.9975   1.2719505059e+02   4.6700596142e+01     0.206726    0.1512688 -31.04  0.001070638    1.750    0.429
        80  -8.9650    248.6988     96.3277   8.5051051308e+01   1.1910739921e+01    0.2741001    0.1953577 -49.63  0.001521887    1.727    0.421
        81  -7.5913    215.3535     75.0406   8.4473184374e+01   2.1551784136e+01    0.1926294    0.1646805 -19.84 0.0003551214    1.090    0.083
        82  -8.8890    197.9920     53.7635   8.1177615154e+01   2.8490518501e+01    0.2449045    0.2006564 -11.50  0.000309569    1.247    0.198
        83 -10.7387    162.3938     51.2556   8.6475488364e+01   3.7761869300e+01    0.5656506    0.4230278  27.49  0.002682838    1.507    0.336
        84 -10.8410    158.9438     46.5397   8.5586315176e+01   3.9334340791e+01    0.5593581    0.5267534 -39.56  0.001657559    1.074    0.069
        85 -10.0190    181.1781    235.7528   1.2182768685e+02   6.0062280568e+00    0.2791011    0.2435846 -43.52  0.002273331    1.668    0.401
        86  -7.1022    245.6974     28.7076   6.8821512663e+01   2.0342473597e+01    0.1249311   0.09529971  23.19 0.0001980993    1.571    0.364
        87  -7.5964    193.0013     27.0722   7.3871232285e+01   3.3042366914e+01    0.2134149    0.1615617  26.50  0.000512069    1.514    0.339
        88  -8.2288    164.3425     21.5847   7.6078263548e+01   4.1160150655e+01    0.3726374    0.2006472  23.04  0.001010401    2.762    0.638
        89  -8.7296    146.0436     21.1196   7.8980436408e+01   4.6071422424e+01    0.2285001    0.2080993 -18.20 0.0002786793    1.119    0.106
