#   1 NUMBER                 Running object number                                     
#   2 MAG_AUTO               Kron-like elliptical aperture magnitude                    [mag]
#   3 X_IMAGE                Object position along x                                    [pixel]
#   4 Y_IMAGE                Object position along y                                    [pixel]
#   5 X_WORLD                Barycenter position along world x axis                     [deg]
#   6 Y_WORLD                Barycenter position along world y axis                     [deg]
#   7 A_WORLD                Profile RMS along major axis (world units)                 [deg]
#   8 B_WORLD                Profile RMS along minor axis (world units)                 [deg]
#   9 THETA_WORLD            Position angle (CCW/world-x)                               [deg]
#  10 FWHM_WORLD             FWHM assuming a gaussian core                              [deg]
#  11 ELONGATION             A_IMAGE/B_IMAGE                                           
#  12 ELLIPTICITY            1 - B_IMAGE/A_IMAGE                                       
         1 -14.3033    158.4323     52.6564   8.1749936814e+01   3.8928964496e+01     1.474905     1.179882   0.77  0.005390566    1.550    0.355
         2 -14.2483    170.6247     37.3932   7.5029756627e+01   3.8046682510e+01    0.9989864    0.9076708 -17.37  0.003630448    1.258    0.205
         3 -14.0272    187.0255      5.9960   6.4141341971e+01   3.7558497345e+01    0.9448113    0.7592731  83.07  0.004701726    1.073    0.068
         4 -11.2161     16.7420    249.9205   1.5010502020e+02   2.1335368615e+01    0.1763402    0.1631078  32.92  0.001458623    1.941    0.485
         5 -19.3616     68.3143    240.6519   1.4094860709e+02   1.6615608939e+01     6.779284     5.338607  76.52   0.04011767    1.072    0.068
         6 -11.5988    160.9731    197.8480   1.1677037098e+02   9.2817668539e+00     0.297461    0.2529435 -67.13  0.001194436    1.306    0.234
         7 -11.4777    163.4621    204.1863   1.1736801897e+02   7.5665513872e+00    0.3074771     0.247892 -54.13  0.001108218    1.367    0.268
         8 -11.6910    146.7181    238.2888   1.2606237945e+02   4.4325888373e+00    0.1903235    0.1596675 -66.54 0.0003299191    1.383    0.277
         9 -11.4041    158.8215    204.8847   1.1845730819e+02   8.3252183231e+00    0.3750235    0.2254533  62.46  0.001260382    2.069    0.517
        10 -12.0479    139.4771    200.5281   1.2180896580e+02   1.2881803503e+01    0.3327749    0.2902048  17.26  0.001394352    1.405    0.288
        11 -11.7588    136.1812    196.7932   1.2189444378e+02   1.4275072291e+01    0.3972256    0.2594084  77.04  0.001779858    2.085    0.520
        12 -10.8932      5.0587    199.3488   1.4890220549e+02   3.2375503599e+01     0.179088    0.1156974  87.13 0.0002694641    1.138    0.121
        13 -12.1950    155.0450    196.8464   1.1785184995e+02   1.0638899628e+01    0.4159733    0.2876045 -84.24  0.001897389    2.109    0.526
        14 -10.9395    175.0876    193.7332   1.1303901348e+02   7.3003273891e+00    0.3488151     0.190891 -63.97   0.00132182    2.980    0.664
        15 -10.6803    180.0432    192.3436   1.1173972291e+02   6.5820805767e+00    0.2485923    0.2043776 -84.99 0.0007244312    1.567    0.362
        16 -12.1966    167.6865    190.7502   1.1404096873e+02   9.3585620043e+00    0.4052579     0.310156  33.00  0.001719345    1.329    0.248
        17 -12.6842    158.8500    235.6741   1.2334347008e+02   2.7349942153e+00    0.3938345    0.2782385  38.08  0.001041271    1.274    0.215
        18 -12.4062    168.0928    233.5092   1.2122346133e+02   1.4487833823e+00     0.393616    0.2523571  58.44 0.0009329775    1.704    0.413
        19 -10.9359    176.7825    188.0924   1.1160548480e+02   8.0566245951e+00    0.2193669    0.2009368  89.42 0.0008864931    1.225    0.183
        20 -11.0504    184.5064    186.5013   1.0967518269e+02   6.8082638649e+00    0.3042074    0.1369364  44.33  0.001151031    2.109    0.526
        21 -12.6226    207.1473    179.7459   1.0369277579e+02   3.5295447123e+00    0.7745446    0.4429131  29.28  0.003309184    2.062    0.515
        22 -11.6325    176.1879    233.7177   1.1968408285e+02  -3.2435418740e-02    0.2039204    0.1827243 -70.33 0.0008100793    1.369    0.270
        23 -12.5404    196.0970    171.7442   1.0425660946e+02   7.2865986836e+00    0.6859777    0.4038302 -49.17   0.00210996    1.834    0.455
        24 -13.6211    137.5280    171.7698   1.1708909334e+02   1.9409294443e+01    0.8268722    0.4911081  59.15  0.002737417    1.907    0.476
        25 -10.9142    194.5060    166.4722   1.0346094207e+02   8.6476324644e+00    0.2923495    0.2714824   2.41  0.001027654    1.108    0.097
        26 -12.0883    199.1066    222.2118   1.1334045041e+02  -2.2818831734e+00    0.3635651    0.2420261  22.99  0.001301925    1.600    0.375
        27 -10.7384     25.1088    165.6429   1.4204093211e+02   3.7786483281e+01    0.2205654    0.1947558  -2.30 0.0009464712    1.707    0.414
        28 -10.1562    201.0059    164.9795   1.0180709211e+02   7.5726397176e+00    0.2308481    0.1846751 -83.08 0.0006056856    1.705    0.413
        29 -11.0352    223.8364    163.8232   9.7085237261e+01   3.1048216215e+00    0.2536853     0.206425 -51.11 0.0006100376    1.339    0.253
        30 -11.5085    114.0653    160.6018   1.2046028097e+02   2.6460589573e+01    0.3661193    0.1995574  59.01  0.001335523    2.212    0.548
        31 -12.1265    103.0977    159.1772   1.2284716566e+02   2.8763817813e+01    0.4013607    0.2744986  63.14 0.0006536965    1.597    0.374
        32 -11.9242     24.6527    156.8309   1.4116905869e+02   3.9823089097e+01    0.5087584    0.2584294  52.93  0.002392063    2.120    0.528
        33 -11.1110    237.4357    159.2304   9.3594045415e+01   1.2482624102e+00    0.1995748    0.1263301 -46.81 0.0009455003    1.638    0.389
        34 -11.0516    140.1592    156.7744   1.1344804909e+02   2.2232643481e+01    0.2286101    0.2004544  79.33 0.0004221247    1.182    0.154
        35 -11.8813    142.3479    166.0524   1.1484950983e+02   1.9709513134e+01    0.3298168    0.2298505 -60.48  0.000970376    1.521    0.343
        36 -11.0912    162.1648    154.1400   1.0777699281e+02   1.8157999982e+01    0.2375091    0.2179149   0.68 0.0008859396    1.238    0.193
        37 -12.6371    134.2380    148.2340   1.1303544238e+02   2.5384348695e+01    0.7940992    0.3227024 -59.68  0.002453452    3.398    0.706
        38 -12.9614    134.0000    143.9800   1.1215688234e+02   2.6404179315e+01    0.9651817    0.3121963 -56.39  0.002632887    4.214    0.763
        39 -18.8625     53.9247     91.0129   1.2197219574e+02   5.1765013162e+01     17.27523    0.6741573 -55.15   0.02342775   22.008    0.955
        40 -10.0872     16.7913    150.1412   1.4219508766e+02   4.2041699622e+01    0.1798597    0.1325173  83.51 0.0004690728    1.228    0.186
        41 -10.6113    174.6941    149.1120   1.0384559992e+02   1.6488017106e+01    0.2720294    0.2144969  60.96 0.0006578271    1.352    0.260
        42 -12.3669    144.6858    145.9269   1.1001211608e+02   2.3728369323e+01    0.4589276    0.3441162  86.48  0.002053204    1.724    0.420
        43 -11.8211     33.3637    141.6072   1.3719871043e+02   4.2473707615e+01    0.4289839    0.2367995  14.98  0.002030508    2.916    0.657
        44 -12.8956    105.1147    138.5309   1.1823422452e+02   3.3260191418e+01    0.5523978    0.3540286  63.53  0.002417944    1.938    0.484
        45 -12.8663    114.9775    138.0952   1.1560748779e+02   3.1536679465e+01    0.6602849    0.3343897 -43.08  0.002595177    2.105    0.525
        46  -9.9644    171.4554    137.5165   1.0186505325e+02   1.9674643542e+01    0.1565707    0.1513731 -84.32 0.0001597228    1.039    0.038
        47 -12.5234    106.0373    130.7692   1.1629698136e+02   3.4908335987e+01    0.4301565     0.361629 -70.33  0.001303613    1.190    0.160
        48 -11.6147    108.3536    125.2094   1.1441200780e+02   3.5770730663e+01    0.3050801    0.2565125 -34.50 0.0007176644    1.276    0.216
        49 -12.7635    119.4206    129.4795   1.1251104329e+02   3.2670255626e+01    0.4840413    0.4083806 -36.32  0.001310542    1.261    0.207
        50 -12.9594    124.9272    126.9949   1.1050616057e+02   3.2137899198e+01    0.7319307    0.4495627  79.25  0.002518184    3.213    0.689
        51 -12.5704    135.4505    122.1390   1.0664717867e+02   3.1037417569e+01    0.6831671    0.2180063 -50.54  0.002021415    3.361    0.702
        52 -12.0011      8.9646    217.2144   1.4940580307e+02   2.8376149834e+01    0.3043513    0.1442262 -55.35  0.001634599    2.840    0.648
        53 -11.7565    128.1132    123.3882   1.0881593065e+02   3.2301354023e+01    0.2702793    0.2095893 -37.65 0.0006277018    1.348    0.258
        54 -11.5994    113.5439    118.5465   1.1143301588e+02   3.6310609086e+01     0.259296    0.2523142  63.57 0.0005846206    1.060    0.057
        55 -10.2163     25.7640    119.1864   1.3584489903e+02   4.8306006463e+01    0.1662985    0.1236408 -46.75 0.0005865407    1.318    0.241
        56 -11.0383    168.0783    113.3491   9.6625808017e+01   2.5546576632e+01    0.4047015    0.2977623  86.72  0.001391613    1.836    0.455
        57 -12.6235     85.6411    109.4977   1.1694443402e+02   4.3291494134e+01    0.4966229    0.2502819 -50.06  0.001902099    1.809    0.447
        58 -10.6819      8.8145    111.3407   1.3924340851e+02   5.1333378116e+01    0.2448288    0.1103834   1.97  0.001102879    4.224    0.763
        59 -10.7475    205.5050    110.1543   8.8108889701e+01   1.7300257352e+01    0.3345196    0.2238593  43.63  0.001012499    1.607    0.378
        60 -10.5481      4.7521    215.7478   1.5002038119e+02   2.9078435171e+01   0.09052433   0.06912313 -74.75 0.0002329317    1.414    0.293
        61 -11.2003    160.7772    128.2839   1.0205907494e+02   2.4079513471e+01    0.2872055    0.2377207 -45.81  0.001389208    1.204    0.170
        62 -10.8742    124.9956     81.3432   9.8229279087e+01   4.1815360919e+01     0.214246    0.1920756  42.87 0.0006605671    1.118    0.106
        63 -11.1406    163.4503    210.2526   1.1841326438e+02   6.4205172632e+00    0.2211915    0.2097036 -18.87 0.0006466988    1.195    0.163
        64 -12.8268     13.3693    245.0019   1.5034734177e+02   2.2598457246e+01    0.4367236    0.1173507 -68.73  0.002184811    3.212    0.689
        65 -10.7766      6.5432    247.5625   1.5151875663e+02   2.2850200357e+01    0.1040328    0.0710336  77.06 0.0003008032    1.042    0.041
        66 -12.7770    174.6647     29.9392   7.2262796742e+01   3.7982441733e+01    0.4264306    0.3898925   9.51  0.001124526    1.299    0.230
        67 -10.9050     14.2532     58.9518   1.2738200262e+02   6.1903782840e+01    0.2972876    0.1644365 -28.31  0.001560008    1.771    0.435
        68 -10.3700    131.4995     28.7603   7.9954155017e+01   4.8533668199e+01    0.2414154    0.1581607  67.94  0.000590488    1.650    0.394
