#   1 NUMBER                 Running object number                                     
#   2 MAG_AUTO               Kron-like elliptical aperture magnitude                    [mag]
#   3 X_IMAGE                Object position along x                                    [pixel]
#   4 Y_IMAGE                Object position along y                                    [pixel]
#   5 X_WORLD                Barycenter position along world x axis                     [deg]
#   6 Y_WORLD                Barycenter position along world y axis                     [deg]
#   7 A_WORLD                Profile RMS along major axis (world units)                 [deg]
#   8 B_WORLD                Profile RMS along minor axis (world units)                 [deg]
#   9 THETA_WORLD            Position angle (CCW/world-x)                               [deg]
#  10 FWHM_WORLD             FWHM assuming a gaussian core                              [deg]
#  11 ELONGATION             A_IMAGE/B_IMAGE                                           
#  12 ELLIPTICITY            1 - B_IMAGE/A_IMAGE                                       
         1 -14.4969    163.8689     53.2836   7.6240551378e+01   3.7605165402e+01     2.088705     1.500577  16.77  0.007130793    2.041    0.510
         2 -14.0102    177.1065     36.1870   6.9350159678e+01   3.6720168399e+01    0.9338704    0.7405092  74.21  0.002683989    1.134    0.118
         3 -13.6199    181.2600     29.5060   6.7000981261e+01   3.6541496832e+01     0.643743    0.5122462  62.63  0.001403425    1.177    0.151
         4 -13.1934    189.7194     14.8877   6.2258208350e+01   3.6176210194e+01    0.4932523    0.3496734  89.99  0.001860824    1.280    0.219
         5 -14.4119    196.1239      4.9541   5.9207103666e+01   3.5695287949e+01     1.139803    0.8408199  72.48  0.004469596    1.176    0.150
         6  -9.7887     70.5825      8.5223   8.3396821491e+01   6.2949988342e+01    0.1170578   0.09539217  21.19 4.458157e-05    1.026    0.025
         7 -10.5810    198.9165    222.6280   1.0858015807e+02  -2.6591184673e+00    0.2152483    0.1904588 -41.15 0.0003235987    1.267    0.211
         8 -18.5191     61.9028    241.3746   1.3876256279e+02   1.6702607883e+01     8.591296     6.471695 -83.60   0.05684469    1.248    0.199
         9 -11.6970    198.6456    204.5524   1.0532052160e+02   5.7194287133e-01    0.2602516    0.1975638 -38.10  0.001100595    1.351    0.260
        10 -12.4237    192.9394    192.9970   1.0425062957e+02   3.8080118901e+00     1.012981      0.51356 -56.58  0.003909125    2.744    0.636
        11 -10.7788    163.1422    203.6158   1.1257302471e+02   7.4281397872e+00    0.2537952    0.2075549 -40.10 0.0005568482    1.316    0.240
        12 -10.6922    205.5844    179.8027   9.9010943297e+01   3.9154141294e+00    0.2398761    0.2251943  43.04 0.0007908804    1.125    0.111
        13 -10.5359    209.5232    176.4949   9.7541396224e+01   3.7883833180e+00    0.3633637    0.2836515  -7.55  0.001246949    1.481    0.325
        14 -11.9938    135.4054    179.7294   1.1436951380e+02   1.7967841357e+01    0.3528022    0.2043369  46.84  0.001511892    1.686    0.407
        15 -10.6603      1.4519    177.2101   1.4506159930e+02   3.7467897314e+01    0.1384552   0.08927529 -79.46 0.0003347895    1.182    0.154
        16 -12.1270    195.7940    169.7817   9.8891306021e+01   7.8357856929e+00    0.5543206    0.4334365 -49.75  0.001604141    1.306    0.235
        17 -11.2063    193.7049    164.7020   9.8229284594e+01   9.2962986593e+00    0.4188533    0.3761263  67.60  0.001820007    1.232    0.188
        18 -13.4434    139.8583    200.1794   1.1707433845e+02   1.2577217094e+01    0.6369322    0.4045991 -43.89  0.002595361    1.753    0.429
        19 -10.1002    164.1989    170.5554   1.0588038795e+02   1.4197791442e+01    0.3049381    0.2001214 -66.55  0.001277255    1.959    0.490
        20 -11.8133    230.5573    167.1769   9.1596233755e+01   1.5388279673e+00    0.5578433    0.2107044 -50.84  0.001855287    3.508    0.715
        21  -9.3695     18.5930    167.7300   1.4044264776e+02   3.8156469171e+01    0.1186412    0.0837089 -43.73  0.000697209    1.759    0.431
        22 -10.7135    120.1777    163.7393   1.1491443371e+02   2.4648264658e+01    0.2899714    0.2331277  79.85 0.0006037108    1.371    0.271
        23  -9.9768    222.5255    161.6319   9.1893512859e+01   4.1014980385e+00    0.2702027    0.1246855 -50.96  0.001021921    2.483    0.597
        24  -9.7087    203.0010    171.7258   9.7837547138e+01   5.9970665185e+00    0.2025016    0.1938054  22.35 0.0005714368    1.054    0.051
        25 -11.1318    114.0095    161.0284   1.1591085650e+02   2.6462645127e+01    0.3752772    0.2760486  81.39  0.001013598    1.649    0.394
        26  -9.3644    188.9819    158.3243   9.7816589578e+01   1.1601481812e+01    0.2457657    0.1199438  26.67  0.000703446    4.195    0.762
        27 -10.7681    120.6344    156.4654   1.1331652680e+02   2.6292721252e+01    0.2999641     0.236018 -55.62 0.0009346973    1.243    0.196
        28 -12.4652    134.0560    146.2257   1.0772577634e+02   2.6023569436e+01      1.45436    0.3558823 -54.86  0.003178823    6.246    0.840
        29 -10.8980    174.2810    148.6292   9.8799056194e+01   1.6831570284e+01    0.3758369     0.284479 -73.03  0.001600093    1.631    0.387
        30 -12.2362    144.2334    145.9359   1.0515431254e+02   2.3955039519e+01     0.488929     0.343169 -77.14  0.002050605    1.901    0.474
        31 -13.0346    112.1663    139.6022   1.1185552601e+02   3.1949855598e+01    0.8330396    0.6192668   7.22  0.003564531    1.993    0.498
        32 -12.8786    101.4268    138.7509   1.1453218488e+02   3.4140671239e+01    0.4739257     0.325752  46.64 0.0006827249    1.515    0.340
        33 -11.1782     89.7109    137.0164   1.1734376335e+02   3.6584596298e+01     0.212666    0.1796068 -59.44 0.0003429892    1.103    0.093
        34 -12.1873    134.8647    121.5529   1.0161501559e+02   3.1519827600e+01    0.8214521    0.1877179 -47.26  0.002104244    4.357    0.770
        35 -12.0110    106.0308    130.7890   1.1148999654e+02   3.5199372682e+01    0.4360619     0.344101 -61.85   0.00117091    1.255    0.203
        36 -11.5059    106.2908    125.5936   1.1019412048e+02   3.6372954009e+01    0.3488304    0.2502414 -34.61 0.0005817813    1.545    0.353
        37 -11.5100    117.9587    129.8057   1.0805096601e+02   3.3136103079e+01    0.3474122    0.2892854 -33.28 0.0007080505    1.298    0.229
        38 -11.6973    160.5309    127.7813   9.6946924622e+01   2.4445863884e+01    0.4639308    0.3564881 -62.98  0.001668098    1.409    0.290
        39 -11.6117    121.9112    123.5632   1.0548176370e+02   3.3783705396e+01    0.4963049    0.3103025 -21.36  0.001831911    2.665    0.625
        40 -10.6714    156.5730    201.8608   1.1368205880e+02   9.0415182733e+00    0.3076251    0.2315651  80.36  0.001393101    1.743    0.426
        41 -10.6475    112.5554    118.9153   1.0683833274e+02   3.6716871842e+01    0.2794892    0.2273513  40.05 0.0005430428    1.280    0.219
        42 -12.2431    154.1186    195.8178   1.1312223741e+02   1.0775951955e+01     0.475444    0.3108872  74.57   0.00197657    2.355    0.575
        43 -10.9262    168.2731    113.1569   9.1519496636e+01   2.5777089060e+01    0.4252791    0.3003615 -77.72  0.001283361    1.927    0.481
        44 -11.0964    134.5724    105.8373   9.7585958799e+01   3.5012249463e+01     0.514237    0.1443564 -47.88  0.001436037    3.777    0.735
        45 -11.9992    208.0602    196.9106   1.0196350434e+02   2.4172566125e-01    0.6041849    0.2033737  41.50  0.002172771    2.936    0.659
        46 -10.9056    204.9709    110.4119   8.3467184327e+01   1.7790058324e+01    0.3958028    0.2656496  40.64  0.001179488    1.729    0.422
        47 -10.5533    130.1574    109.3731   9.9666345645e+01   3.5216441113e+01    0.2757563    0.2069218 -35.97  0.001040017    1.388    0.279
        48  99.0000     21.2650    214.2718   1.4410107778e+02   2.7403154703e+01    0.2005787    0.1447343 -18.94  0.001107957    3.112    0.679
        49  -9.4972    180.2908    192.6286   1.0682692225e+02   6.3252106880e+00    0.1460153    0.1162291 -89.51 0.0007023775    1.721    0.419
        50 -11.8307    166.0660    188.5343   1.0910292840e+02   9.9645220139e+00    0.4621303    0.3860269  31.97  0.001666325    1.213    0.176
        51 -10.5191    175.8295    186.8673   1.0664771607e+02   8.3709235062e+00    0.4637245    0.2447063 -61.23    0.0017171    2.790    0.642
        52 -10.2364    149.4757     79.9830   8.6785388193e+01   3.6695067513e+01    0.2233149    0.1486834 -39.19 0.0005342099    1.538    0.350
        53 -10.8415     85.3505     76.9519   1.0321212876e+02   5.0616332171e+01    0.2131694    0.1895696  46.16 0.0004843115    1.255    0.203
        54  -9.8713    177.1953     75.3611   7.9758598297e+01   3.0836684078e+01    0.2082893    0.1364661  70.11 0.0002911346    1.636    0.389
        55 -10.5773    102.4866     72.5300   9.6668015797e+01   4.8297434462e+01    0.4349585    0.2595359  63.59  0.001781745    2.612    0.617
        56  -9.9189     82.4762     70.5543   1.0214172484e+02   5.2304633455e+01     0.136672    0.1241011  -9.18 0.0001103547    1.011    0.011
        57 -11.3223     12.4817    205.9257   1.4512850972e+02   3.0112822108e+01    0.4433097    0.2315845  38.26   0.00260584    2.064    0.515
        58 -19.1387     40.9687    100.7848   1.2392136569e+02   5.1680100804e+01     16.75603     0.898402 -58.74    0.0267377   15.984    0.937
        59 -10.4496     25.4778    206.3575   1.4264669893e+02   2.8669116718e+01    0.1431873    0.1017709  67.66 0.0001767959    1.208    0.172
        60 -10.2207     13.4399     59.8824   1.2368030034e+02   6.2500103483e+01    0.1612234    0.1460745 -25.64 0.0004310459    1.206    0.171
        61 -10.8120     22.4061    205.1174   1.4314552264e+02   2.9272319024e+01    0.1207766    0.1121574  62.13  0.000498611    1.386    0.279
        62 -10.8961    168.8967    234.6935   1.1663501364e+02   5.0817662811e-01    0.2362317    0.1948114 -59.93  0.000407726    1.448    0.310
        63  -9.3173    220.3006    227.6418   1.0532952664e+02  -7.0509215558e+00    0.1167136     0.104641  86.93 0.0004955766    1.712    0.416
