#   1 NUMBER                 Running object number                                     
#   2 MAG_AUTO               Kron-like elliptical aperture magnitude                    [mag]
#   3 X_IMAGE                Object position along x                                    [pixel]
#   4 Y_IMAGE                Object position along y                                    [pixel]
#   5 X_WORLD                Barycenter position along world x axis                     [deg]
#   6 Y_WORLD                Barycenter position along world y axis                     [deg]
#   7 A_WORLD                Profile RMS along major axis (world units)                 [deg]
#   8 B_WORLD                Profile RMS along minor axis (world units)                 [deg]
#   9 THETA_WORLD            Position angle (CCW/world-x)                               [deg]
#  10 FWHM_WORLD             FWHM assuming a gaussian core                              [deg]
#  11 ELONGATION             A_IMAGE/B_IMAGE                                           
#  12 ELLIPTICITY            1 - B_IMAGE/A_IMAGE                                       
         1 -16.7061    197.1348    103.7026   4.7313457324e+01   2.1364973887e+01     5.456632     3.205809 -38.52   0.01769208    1.573    0.364
         2 -17.3325    231.9669    110.8118   4.3595675652e+01   1.3442714005e+01     3.766349     1.905117  66.05   0.01658616    3.069    0.674
         3 -17.3857    246.6296     94.3994   3.8266536081e+01   1.3432943788e+01     5.826133     2.570733 -36.84   0.01897796    1.894    0.472
         4 -11.2823    185.1845     50.2673   3.5789395900e+01   3.2770808827e+01    0.6373925    0.4879445  -7.58  0.001889375    1.849    0.459
         5 -10.2712    238.1443     26.7102   2.4806442346e+01   2.4421037242e+01    0.4333274    0.2973647 -19.69  0.001265336    1.969    0.492
         6 -10.0688    210.4399     13.0151   2.3875143401e+01   3.1766821002e+01    0.4162148    0.2253947 -35.60  0.001461419    1.749    0.428
         7  -9.4784    177.9653      5.5487   2.4769293403e+01   3.9917779441e+01     0.339058    0.1929691  31.49  0.001364446    3.118    0.679
         8  -7.8600     44.3230      5.3358   5.3382985328e+01   7.0460087188e+01    0.1296389   0.08229252  16.22 0.0004100096    1.712    0.416
         9  -8.6080    191.9477      3.3411   2.3008865649e+01   3.6899787785e+01    0.1939759    0.1725908 -35.79 0.0003977374    1.322    0.244
        10  -9.9135    173.6528    155.8270   6.3483686696e+01   1.6058800002e+01    0.2949989    0.2366013 -47.92  0.000678725    1.259    0.206
        11  -9.6341    244.9658    250.2967   6.6854412970e+01  -8.7514153698e+00    0.3813114    0.1128446  27.14  0.001801828    3.360    0.702
        12 -10.0931    187.6015    250.6141   7.6790430502e+01  -2.1873678199e+00    0.1987236   0.09645708  30.15 0.0003051738    1.732    0.423
        13  -8.8869    153.9897    249.7115   8.3097296521e+01   2.3247330457e+00     0.196148    0.1703903  37.17 0.0002835178    1.211    0.174
        14  -9.0397    155.8073    245.4454   8.2191790451e+01   2.7350328978e+00      0.20254    0.1756788  36.24 0.0006325116    1.199    0.166
        15  -8.3684    147.1724    155.7198   6.9339465282e+01   2.1021982962e+01    0.2525504    0.1965223 -62.46  0.000548473    1.433    0.302
        16  -9.5186    130.5118    133.4998   6.8635762924e+01   2.9177488769e+01     0.469811    0.2971594 -75.38  0.001646406    2.476    0.596
        17  -8.6414    134.9376    155.9471   7.2322864063e+01   2.3258348222e+01     0.293266    0.2180434 -62.13 0.0007803324    1.473    0.321
        18 -10.6422    133.6499    149.3823   7.1297468913e+01   2.4970306407e+01    0.5503431    0.4284316 -73.48  0.001197891    1.521    0.343
        19 -10.0174    131.6591    141.1668   7.0047749693e+01   2.7209749419e+01    0.5011069    0.3094952 -56.88 0.0009600401    1.717    0.418
        20  -9.8556    148.7338    143.8555   6.6468851019e+01   2.3281798080e+01    0.3407829    0.2546502 -58.07  0.001274785    1.429    0.300
        21 -10.1828    151.9959    150.8427   6.7205040356e+01   2.1152971627e+01    0.5803866    0.2536552 -55.38   0.00148287    2.780    0.640
        22  -9.6563    155.8051    151.0854   6.6384920166e+01   2.0375055687e+01    0.2938479    0.2678052 -68.58 0.0006763589    1.197    0.164
        23  -8.0217      7.1600    205.3669   1.1076212116e+02   2.9400765570e+01    0.1736729   0.08434411  42.62 0.0009046445    1.720    0.419
        24 -10.1853    171.3070    146.1494   6.1936277272e+01   1.8426393820e+01    0.3519253    0.2900824 -78.27  0.001820008    1.545    0.353
        25 -10.3569    162.7912    148.8022   6.4340321460e+01   1.9516284815e+01    0.4828672    0.2987072 -61.25  0.001581437    2.070    0.517
        26  -8.9974    164.1295    144.8715   6.3201861924e+01   2.0067788458e+01    0.2226206    0.2033201 -83.49 0.0006124037    1.249    0.199
        27  -9.3533    157.8172    154.6329   6.6672003884e+01   1.9251586136e+01    0.3146598    0.2014986  54.48   0.00112217    1.823    0.451
        28  -9.6436    143.5524    147.8838   6.8563654945e+01   2.3410751821e+01    0.5026709    0.2511101 -52.16  0.001830091    2.079    0.519
        29  -9.5084     64.9813    147.9657   9.0045563824e+01   3.6925039902e+01    0.2633584    0.2100001 -62.03 0.0004584627    1.218    0.179
        30 -10.2703     69.6983    146.4373   8.8393182899e+01   3.6647928782e+01    0.4523119    0.2408055  45.59  0.001932363    1.885    0.470
        31 -11.4691     66.3490    142.6742   8.8769273392e+01   3.8085867089e+01    0.7853071    0.5261666  -0.13  0.003412396    2.316    0.568
        32 -12.1591     30.7565    128.0039   9.7779584262e+01   4.6137076335e+01      1.06173    0.4633093 -56.13  0.004437657    2.061    0.515
        33 -12.1274     24.7489    126.7302   9.9586044985e+01   4.7022308241e+01     1.080758    0.4576635 -66.25  0.004657202    2.000    0.500
        34  -9.3159    115.7966    134.5766   7.2768076203e+01   3.1794074783e+01    0.3874861     0.144061  42.28  0.001302482    2.668    0.625
        35 -13.1679     64.6447    122.7724   8.5678737819e+01   4.3428995043e+01     1.939467      1.50267  23.11  0.008512303    1.447    0.309
        36  -8.8410    115.5723    123.9959   7.0413446555e+01   3.4328181662e+01    0.3144689    0.2649488 -76.87  0.001396779    1.296    0.229
        37  -9.2250      7.5952    127.8152   1.0528298548e+02   4.8076677316e+01    0.1960656    0.1074499  88.44 0.0009525655    1.734    0.423
        38  -8.2942    122.4766    119.4581   6.7439457642e+01   3.3998724681e+01    0.2704373    0.1469867 -60.12  0.000647511    2.185    0.542
        39  -7.7368    110.3229    118.6509   7.0609929210e+01   3.6612194182e+01    0.1622238    0.1217387  84.00 0.0007048994    1.746    0.427
        40  -7.8440    108.5273    135.4937   7.4974308270e+01   3.2941527631e+01    0.1512876    0.1481018 -84.21 7.441502e-05    1.012    0.012
        41  -9.1726    115.5010    130.0480   7.1834421678e+01   3.2919532589e+01    0.2400594    0.1498595 -51.10  0.001030877    1.585    0.369
        42  -9.5225    112.6081    106.2435   6.6827546360e+01   3.9027586408e+01    0.3298675     0.225851  34.11  0.001191925    1.600    0.375
        43  -9.1746    121.3958    110.1659   6.5401596358e+01   3.6328593777e+01    0.4292811    0.2353815 -57.56  0.001666863    2.056    0.514
        44  -9.8083    118.3019    105.0041   6.4901784168e+01   3.8129954171e+01    0.4141602    0.3007573 -57.81  0.001864949    1.432    0.302
        45 -10.3333    120.8235    100.0088   6.2868454787e+01   3.8699477769e+01    0.5273256    0.4628845  63.14  0.002153179    1.178    0.151
        46  -9.5667    117.4921    113.5198   6.7326161413e+01   3.6371566611e+01    0.3523931    0.2549812  40.30 0.0008923283    1.418    0.295
        47 -10.1219    115.5776    109.9578   6.6952784359e+01   3.7575612581e+01    0.4118448    0.4009287 -84.10  0.001061108    1.014    0.014
        48  -9.8445    122.5028    128.6780   6.9624815041e+01   3.1871340341e+01    0.3706973    0.2852922  57.78  0.000842928    1.394    0.283
        49 -11.8466     52.3147    124.0441   9.0000154718e+01   4.4763776947e+01    0.6560312    0.5663394 -65.86 0.0007218088    1.080    0.074
        50  -9.7675    141.1187    103.9663   5.8724463440e+01   3.3445413455e+01    0.3700469      0.22077 -43.21  0.001212293    1.652    0.395
        51  -8.5858     66.4511    104.7174   8.1170294831e+01   4.7717464883e+01    0.2091296    0.1306338 -47.66 0.0009395755    1.558    0.358
        52 -10.1128    149.7877    102.2354   5.6238476108e+01   3.1889008756e+01    0.4018872    0.2793444 -37.89  0.001857435    1.462    0.316
        53  -8.6262     36.7753    103.8929   9.1760080685e+01   5.1733176365e+01    0.2194525    0.1712901 -44.22 0.0005478786    1.267    0.210
        54 -10.0583    112.6158     95.8865   6.4022662694e+01   4.1339160111e+01    0.4198289    0.3084117 -48.15  0.001474326    1.348    0.258
        55 -16.1402    220.0041    121.4874   4.7637691977e+01   1.3822642020e+01     1.669701      1.20249 -58.48  0.009126599    1.539    0.350
        56  -8.1549    119.9662     92.9790   6.1152535949e+01   4.0397705172e+01    0.2486312     0.190613 -85.28 0.0009824944    1.682    0.405
        57  -8.6748    115.3227     90.0146   6.1591245017e+01   4.2030189664e+01    0.2700365    0.2192484  56.14 0.0003152315    1.263    0.208
        58  -7.7065    129.5271     86.9722   5.6919939912e+01   3.9527342224e+01      0.21467    0.1368969 -18.08 0.0008097974    2.534    0.605
        59  -9.7488    214.7937    170.8049   5.8585829317e+01   6.3012236514e+00    0.3733707    0.2737371  -6.91  0.001404675    1.454    0.312
        60  -8.0542    137.4976     79.1607   5.2703863819e+01   3.9233518166e+01    0.2280237     0.147112 -41.40  0.001017688    1.545    0.353
        61  -8.4606    202.3751    185.6745   6.3618737043e+01   5.7339069296e+00    0.2546622    0.1468909 -48.34 0.0009899602    1.945    0.486
        62 -10.2600    157.1905     73.4695   4.6809832574e+01   3.5658680854e+01    0.4650972    0.2400609 -51.62  0.001850882    2.071    0.517
        63 -14.8328    226.6834     90.7306   3.9948077823e+01   1.7655930053e+01     1.306905    0.6317243 -30.99  0.004873477    2.150    0.535
        64 -16.6234    233.3317    121.9772   4.5758056610e+01   1.1385515363e+01     1.931027     1.165254 -56.95  0.008990575    1.972    0.493
        65  -9.3979    158.1478    167.4254   6.9169902858e+01   1.6550840055e+01    0.3479315    0.2616147   8.63  0.001140836    1.611    0.379
        66  -8.8265    170.3056    173.2901   6.7664099149e+01   1.3236502585e+01    0.2385969    0.2376647 -75.54 0.0004499166    1.144    0.126
        67  -8.9429    139.9402     65.8709   4.8191661593e+01   4.1072417601e+01    0.4666367    0.2281299 -20.45  0.001408233    4.337    0.769
        68  -7.7651    127.8299     68.3635   5.1772261730e+01   4.3485824012e+01     0.204722    0.1791735 -57.53 0.0004856351    1.158    0.136
        69  -9.2038    150.2578     64.5010   4.5613772588e+01   3.8844219903e+01    0.2729113    0.1969264 -40.92 0.0009508779    1.379    0.275
        70  -8.2217    136.3763     62.8614   4.8062358513e+01   4.2438275132e+01    0.2389454    0.1994769  78.29 0.0005429644    1.239    0.193
        71 -11.5515    180.6521     52.8723   3.7119878418e+01   3.3446456270e+01     0.717579    0.6400495  65.04  0.002828557    1.190    0.160
        72  -8.8898    193.6862    199.2324   6.7677611054e+01   4.7845684887e+00    0.3673482    0.2656169  62.82  0.001919558    2.346    0.574
        73  -8.9600    188.7162    175.8100   6.4389291311e+01   9.6372655395e+00    0.3624971    0.2315726 -38.48  0.001871402    1.508    0.337
        74  -8.0484    150.1956     45.7831   4.0028288610e+01   4.1792771318e+01    0.1933164     0.166181  36.47  0.001062826    1.348    0.258
        75  -8.2259    178.5284     42.2793   3.4575781015e+01   3.5455961813e+01    0.1704341    0.1338808 -23.16 0.0004931863    1.507    0.336
        76  -8.8173    185.7675    168.8780   6.3635029313e+01   1.1404261404e+01    0.2994475    0.1895865  33.14  0.001142233    1.631    0.387
        77  -8.2791    159.4541    161.2131   6.7649478463e+01   1.7586077031e+01     0.272892    0.1359265 -41.81  0.000740128    2.029    0.507
        78  -9.2062    191.5284    191.8275   6.6791802216e+01   6.3630245434e+00    0.4866973     0.229519 -54.53  0.001957856    3.239    0.691
        79  -8.2385    156.9894     27.5072   3.3418822842e+01   4.2563613626e+01    0.1918789    0.1719194 -53.41 -7.606653e-05    1.137    0.120
        80  -7.4821     15.3002     18.2920   7.6632935936e+01   7.2669066649e+01    0.1220827   0.07734456 -17.55 0.0001767941    1.566    0.361
        81  -7.4425     56.2896    199.2836   9.8842892521e+01   2.5551466107e+01    0.1185208    0.1018566 -31.47 0.0002177754    1.531    0.347
        82 -10.7434    176.6702    172.0252   6.6090621902e+01   1.2377982922e+01     0.742999    0.5803723 -39.81  0.003182818    1.261    0.207
        83  -9.2309    227.3083     14.2344   2.2917743862e+01   2.8059784629e+01    0.3527517    0.1518173  81.36  0.001537294    2.355    0.575
        84  -7.7567    147.2674    219.9958   8.0451865299e+01   8.1891227213e+00    0.1671495    0.1495234  22.13 0.0002621969    1.025    0.024
        85  -9.2394    180.5687    168.2388   6.4555185562e+01   1.2421057064e+01    0.2770189    0.2278934 -86.74 0.0007472595    1.769    0.435
        86  -7.7347    178.5730    211.4420   7.2682491799e+01   4.9980636979e+00    0.1270897    0.1099128   7.28 6.870465e-05    1.014    0.014
