#   1 NUMBER                 Running object number                                     
#   2 MAG_AUTO               Kron-like elliptical aperture magnitude                    [mag]
#   3 X_IMAGE                Object position along x                                    [pixel]
#   4 Y_IMAGE                Object position along y                                    [pixel]
#   5 X_WORLD                Barycenter position along world x axis                     [deg]
#   6 Y_WORLD                Barycenter position along world y axis                     [deg]
#   7 A_WORLD                Profile RMS along major axis (world units)                 [deg]
#   8 B_WORLD                Profile RMS along minor axis (world units)                 [deg]
#   9 THETA_WORLD            Position angle (CCW/world-x)                               [deg]
#  10 FWHM_WORLD             FWHM assuming a gaussian core                              [deg]
#  11 ELONGATION             A_IMAGE/B_IMAGE                                           
#  12 ELLIPTICITY            1 - B_IMAGE/A_IMAGE                                       
         1 -15.0225     21.8732    156.9955   1.3914002011e+02   3.9593404050e+01     9.960745     3.645889  72.93   0.04538037    3.332    0.700
         2 -13.4614    197.5500     26.6528   6.7125773577e+01   3.2328851984e+01     1.862861     1.397725   9.78  0.008020633    1.455    0.313
         3 -13.4223    212.5326      8.4087   5.9706868281e+01   3.0319905541e+01     1.159229      0.92872  36.07  0.006338871    1.319    0.242
         4 -12.0253      3.4962     20.0158   1.2562931775e+02   7.0475967804e+01    0.6853644   0.08818503 -60.10  0.002489978    3.787    0.736
         5 -11.9327      2.7282      4.0445   1.2037815248e+02   7.3734331813e+01    0.4737127    0.3779824 -47.38  0.003528981    1.134    0.118
         6 -10.7401     46.3598    248.3558   1.3999672880e+02   2.1803817305e+01     0.240208     0.132777  63.55  0.001096964    1.381    0.276
         7 -11.7116    247.2444    248.8974   1.0874871440e+02  -4.2816775446e+00    0.4265332    0.1919832  38.25  0.002791729    1.676    0.403
         8 -12.1561    139.5059    247.8024   1.2540459258e+02   1.0623865878e+01    0.4213863    0.3068174 -89.64  0.003190595    2.048    0.512
         9 -11.6697    123.5734    250.0581   1.2814997873e+02   1.2473473207e+01    0.5672018    0.1127398  41.30  0.002470281    3.521    0.716
        10 -11.9841    127.7552    246.0219   1.2712551529e+02   1.2419232383e+01     0.355686    0.1755383  38.41  0.002317811    1.591    0.371
        11 -11.4712     98.5796    248.9049   1.3200778138e+02   1.5802593036e+01    0.3175553    0.2216099  17.34  0.002250799    2.362    0.577
        12 -10.4395     28.7066    249.9862   1.4265634708e+02   2.3325253072e+01    0.2135533    0.1159684  50.79  0.001201349    1.276    0.216
        13 -12.3982     34.0548    245.0943   1.4168188951e+02   2.3496159952e+01    0.4966169    0.3580879  64.03  0.004619528    1.089    0.081
        14 -12.3145     12.5095    241.1115   1.4469368730e+02   2.6070327464e+01    0.4878456    0.2414742 -71.81  0.003862628    2.248    0.555
        15 -10.4023      2.6833    246.3247   1.4623894041e+02   2.6174381702e+01    0.1775491   0.08928809  48.66  0.001078114    1.406    0.289
        16 -10.9212     51.2644    245.4112   1.3911643076e+02   2.1705357418e+01    0.2448473    0.1445867  34.46  0.001869559    1.814    0.449
        17  -9.7068    198.0000    246.9665   1.1600263008e+02   2.5822510612e+00    0.1332424   0.05950912 -36.04 0.0008075711    2.978    0.664
        18 -11.4935     19.8382    242.1528   1.4366190984e+02   2.5261548942e+01     0.257159    0.1371559 -79.41  0.002105941    1.908    0.476
        19 -10.5906    152.5297    248.5101   1.2339027376e+02   8.7637117603e+00    0.1969062   0.06925093  47.42  0.001038726    2.348    0.574
        20  -9.4551    186.6719    240.6758   1.1703784846e+02   4.8164791765e+00    0.1083159   0.06658027  20.15 0.0004339857    1.696    0.410
        21 -10.5037    225.8506    248.6734   1.1191864373e+02  -1.4151625869e+00     0.172762     0.117929   8.16  0.001343554    1.388    0.279
        22 -10.0470     54.3824    229.3709   1.3776467268e+02   2.3706964063e+01    0.2135693    0.1181655  60.44  0.001030606    1.410    0.291
        23  -8.7717     60.0376    227.2265   1.3671751987e+02   2.3411758950e+01    0.1761976   0.07200418  57.11   0.00106798    2.050    0.512
        24  -9.1992     17.2923    227.3448   1.4351215164e+02   2.7687210883e+01   0.07526273   0.06624464 -71.97  7.39994e-05    1.661    0.398
        25 -11.7121     21.9100    126.5489   1.3671622044e+02   4.5858620972e+01    0.3721369    0.2002793  53.95   0.00109596    1.824    0.452
        26 -12.5800     47.9002    216.0124   1.3805049251e+02   2.6474130278e+01    0.5499483    0.4999513  58.52   0.00380538    1.378    0.274
        27 -10.4436    173.9951    223.0121   1.1692946237e+02   8.6547074296e+00    0.3446506    0.1940664  45.63  0.002148027    1.495    0.331
        28 -12.7905     32.9571    233.8503   1.4136854847e+02   2.5236728085e+01    0.2307559    0.1962613  83.10 0.0007706732    1.374    0.272
        29 -12.3713      9.7559    207.2110   1.4395104744e+02   3.1540505885e+01    0.5493678    0.3580003  26.97  0.002941292    2.056    0.514
        30  -8.6198    152.5272    213.0620   1.1939068184e+02   1.3176049149e+01    0.1296825    0.1148427 -46.94 0.0002038245    1.427    0.299
        31 -11.5885     59.9018    199.6304   1.3485239392e+02   2.7869625088e+01    0.2092624    0.1875586 -86.94  0.000512165    1.301    0.231
        32 -10.3587     14.2164    196.8969   1.4278400191e+02   3.2891579251e+01    0.2972104    0.1147592  51.77  0.001906832    1.936    0.484
        33  -9.4321    191.9579    192.9384   1.0945045977e+02   9.5512926174e+00    0.2685579    0.1563264 -60.88  0.001139556    4.415    0.773
        34 -13.8329     37.9376    227.0605   1.4027489093e+02   2.5769175292e+01    0.6278884    0.4150223  61.55  0.002348909    1.080    0.074
        35 -11.8424     66.3565    191.1662   1.3297314025e+02   2.8590495454e+01    0.2167727    0.1943525  81.94 0.0004822518    1.203    0.169
        36 -11.2939      2.2752    182.7507   1.4427289330e+02   3.6343809881e+01    0.2794374    0.2584614  67.99  0.002607006    1.424    0.298
        37 -10.6365     76.7371    178.1702   1.2971930441e+02   2.9663547764e+01    0.1912948    0.1633716  63.42  0.000338452    1.058    0.055
        38 -13.1608     63.3522    176.2986   1.3222894387e+02   3.1642561762e+01    0.3983765    0.2447096 -47.13  0.001624604    2.243    0.554
        39 -10.3922      6.2579    188.3947   1.4380014428e+02   3.5030626703e+01     0.177628   0.09350976  50.11  0.001298915    1.526    0.345
        40  -9.7814     97.5269    174.5804   1.2507541550e+02   2.7535933143e+01    0.2338315    0.1681944  66.83 0.0007404911    1.373    0.271
        41 -11.8125     84.9758    168.7854   1.2698203719e+02   3.0344137768e+01    0.6714405    0.4942992  27.77  0.004231518    1.619    0.382
        42  -9.9841     97.2836    152.8404   1.2219572565e+02   3.1700105138e+01    0.2769345    0.2320461 -39.83 0.0008067185    1.439    0.305
        43  -9.2050    100.1255    148.7752   1.2094143867e+02   3.2081458655e+01    0.1840936    0.1713386   0.11 0.0004193367    1.326    0.246
        44 -11.9842     85.7138    151.9797   1.2467454478e+02   3.3519744981e+01    0.2470844    0.2188413 -51.83  0.000645832    1.292    0.226
        45  -8.8239    134.0000    148.0023   1.1321289126e+02   2.6688620640e+01    0.2088719   0.07603847 -48.91 0.0008021054    2.940    0.660
        46 -12.1223     67.3562    143.6571   1.2777775735e+02   3.7614541414e+01    0.6135923    0.3580335  61.54  0.002808328    1.809    0.447
        47  -9.7455    109.1183    137.6761   1.1701730049e+02   3.2900686727e+01     0.381393    0.2462106 -20.34  0.001613106    2.882    0.653
        48 -10.3821     96.2307    134.9786   1.1961903036e+02   3.5470719269e+01     0.207458    0.2005813 -18.82 0.0004081489    1.210    0.173
        49  -8.2395    192.2913    144.2821   1.0036678379e+02   1.6347755430e+01    0.1376264   0.09779508  13.56 0.0002692456    1.531    0.347
        50 -10.8497     30.9176    131.4198   1.3501102159e+02   4.4059345251e+01    0.2463515    0.1724846  59.89 0.0005249097    1.357    0.263
        51  -8.3370     79.5357    131.6050   1.2313798997e+02   3.8578060227e+01    0.1263355    0.1111057  79.04 0.0001475121    1.065    0.061
        52 -10.9214     12.5071    250.5036   1.4497910317e+02   2.4741181037e+01    0.2307675   0.09982107  42.45  0.001614624    1.752    0.429
        53  -8.8206    106.3672    124.0930   1.1514658334e+02   3.6135264707e+01    0.1747106    0.1559671 -62.66 0.0003448665    1.105    0.095
        54 -10.4060      2.7665    249.4171   1.4630564344e+02   2.5734224243e+01    0.1834112    0.1352464  44.27  0.001681642    1.493    0.330
        55  -9.4999    168.0525    113.2337   9.8208735850e+01   2.6414539913e+01    0.2813979    0.2407668 -78.69 0.0008870187    1.550    0.355
        56  -9.0099    203.4797    111.5095   9.0667931432e+01   1.9062867229e+01     0.149309    0.1290266   9.20 5.891127e-05    1.067    0.063
        57 -10.7017    134.5250    231.4948   1.2460846071e+02   1.3345065993e+01    0.2363515   0.08222055  40.74  0.001218824    2.193    0.544
        58  -9.6694    157.9781     76.6740   9.0405455872e+01   3.5121156601e+01    0.2201664    0.1970867  33.49 0.0007953593    1.109    0.099
        59 -10.8622      1.8897     60.8569   1.3499207297e+02   6.1656563749e+01    0.3088754    0.1171755 -73.77  0.001540574    2.033    0.508
        60 -11.7998     10.9611     53.9703   1.3047858691e+02   6.2738840677e+01    0.3739401    0.2481203  -5.60  0.001645907    1.999    0.500
        61 -11.3711    172.0564    247.6416   1.2018279904e+02   6.1493221788e+00    0.3249727    0.1454705  49.48  0.001649558    2.116    0.527
        62 -10.9441    162.4917    248.8485   1.2183618344e+02   7.3504783188e+00    0.2309599    0.1460953  32.73  0.001687632    1.289    0.224
        63 -10.5557     80.8668    248.4776   1.3474640970e+02   1.7990152920e+01    0.2026995     0.125853  84.25  0.001572778    1.790    0.441
