#   1 NUMBER                 Running object number                                     
#   2 MAG_AUTO               Kron-like elliptical aperture magnitude                    [mag]
#   3 X_IMAGE                Object position along x                                    [pixel]
#   4 Y_IMAGE                Object position along y                                    [pixel]
#   5 X_WORLD                Barycenter position along world x axis                     [deg]
#   6 Y_WORLD                Barycenter position along world y axis                     [deg]
#   7 A_WORLD                Profile RMS along major axis (world units)                 [deg]
#   8 B_WORLD                Profile RMS along minor axis (world units)                 [deg]
#   9 THETA_WORLD            Position angle (CCW/world-x)                               [deg]
#  10 FWHM_WORLD             FWHM assuming a gaussian core                              [deg]
#  11 ELONGATION             A_IMAGE/B_IMAGE                                           
#  12 ELLIPTICITY            1 - B_IMAGE/A_IMAGE                                       
         1 -11.5465     10.8776     25.2826   9.4884276753e+01   7.0262898021e+01    0.5194189    0.2355178 -17.27  0.002537013    2.603    0.616
         2 -13.0911    245.0737      7.5904   3.1825105723e+01   2.4760302465e+01     1.295112    0.7216881 -56.85  0.007680977    1.508    0.337
         3 -10.5303     18.8473     14.6395   8.5842060711e+01   7.1338219310e+01    0.2818748    0.1597254  -7.88  0.001623293    1.804    0.446
         4 -11.7228      5.5025     11.7230   9.2197748369e+01   7.2921723509e+01    0.5833957    0.3187557 -17.90  0.003586632    1.642    0.391
         5 -10.4097     12.7207     13.1872   8.8622126838e+01   7.2121051652e+01    0.2801649    0.1550202  -2.82  0.001641148    1.850    0.460
         6 -10.9885     15.1661      7.2269   8.4260301683e+01   7.2786701596e+01    0.3793299    0.1880583  10.34  0.002087494    2.186    0.543
         7 -11.9840     24.0534      4.2992   7.7684095064e+01   7.2230297183e+01    0.6014414    0.2637208  25.92  0.003205369    2.227    0.551
         8 -11.0297    175.2818      3.5757   3.6902307622e+01   4.0928596567e+01    0.2596622    0.1138818  77.40  0.001152948    2.152    0.535
         9 -10.1597     40.3374      3.0614   6.8798138835e+01   7.0203734240e+01    0.2816687    0.1358339  26.61  0.001476235    2.010    0.502
        10 -10.9589    152.9874      2.3353   3.9249706574e+01   4.6438529945e+01    0.3020444    0.1331491  62.12  0.001401782    1.867    0.464
        11  -9.9748    129.2268      2.2234   4.2768718358e+01   5.2180806886e+01     0.208796   0.09902983  79.21  0.000882589    2.463    0.594
        12  -9.6839     46.6576      5.6921   6.7355185288e+01   6.8950842586e+01    0.1283613   0.07596405  13.52 0.0004698939    1.691    0.409
        13 -10.9752      9.4216      1.9326   8.4912994270e+01   7.4068769209e+01    0.4770567    0.1497483  23.77  0.002242188    3.303    0.697
        14  -9.0572     53.9995      1.7624   6.2273896698e+01   6.8147417535e+01    0.1568657   0.08765352  43.30 0.0007858677    1.614    0.380
        15  -9.6252     29.3625    240.1068   1.2213176146e+02   2.0751958159e+01    0.3428375   0.08565655  56.11  0.001358561    3.827    0.739
        16 -10.2041    249.3614    250.0841   8.0877397765e+01  -1.1258319056e+01    0.3250553    0.1860614  23.13  0.002078656    1.459    0.315
        17 -10.1037    248.9770    245.0244   8.0123642261e+01  -1.0613721307e+01    0.2659021    0.1761163  -0.14  0.001438619    1.244    0.196
        18  -9.8828     50.7204    249.8915   1.1883068454e+02   1.6491471376e+01    0.3096814   0.06989758  42.50   0.00133358    2.989    0.665
        19 -10.5368     20.2727    249.0712   1.2423649146e+02   2.0017809284e+01    0.2961072    0.1414147  53.77  0.001852832    1.592    0.372
        20  -9.3333      3.2132    250.5480   1.2719372653e+02   2.1419951625e+01    0.2180683   0.09108118  32.85  0.001277551    2.474    0.596
        21  -9.9294     44.7222    244.8300   1.1959691808e+02   1.8140218703e+01    0.2311249   0.09837277  46.79  0.001264682    1.838    0.456
        22 -10.3008      6.4609    236.4664   1.2604930870e+02   2.3744188118e+01    0.2798154      0.14514  76.81  0.001782182    1.581    0.368
        23 -10.9060    226.0923    241.2546   8.3549361606e+01  -7.1851006814e+00    0.2729911    0.1552404  -5.69  0.001466302    2.036    0.509
        24 -10.8656    225.6328    248.0051   8.4716576483e+01  -7.9940647958e+00    0.2532931    0.1885642 -19.85  0.001738079    1.330    0.248
        25 -10.0259    231.4995    234.4547   8.1446940271e+01  -7.0203551577e+00    0.2113651   0.09757287 -24.27  0.000992497    2.360    0.576
        26  -9.6002     14.1725    231.7503   1.2444379392e+02   2.3925402068e+01    0.2773116    0.1123997  53.70  0.001548604    1.956    0.489
        27 -10.3739      4.7541    228.4967   1.2598904276e+02   2.5449814706e+01    0.3127618    0.1408382  66.30   0.00182373    1.842    0.457
        28  -9.5043     10.8351    225.4666   1.2473240173e+02   2.5489441648e+01    0.2388103    0.1272093  66.24  0.001482066    1.530    0.346
        29 -10.2153      2.0873    220.8786   1.2611909630e+02   2.7204676068e+01    0.2798609    0.1180583  85.05  0.001524279    2.093    0.522
        30 -10.4034     11.7991    216.5190   1.2407295350e+02   2.7217669525e+01     0.337524    0.1417767  55.20  0.001841857    1.993    0.498
        31 -10.4494    248.9076    214.2078   7.4839174309e+01  -6.6405786430e+00    0.2948455    0.1347942 -25.04  0.001445519    2.165    0.538
        32 -10.1129      2.2103    212.3139   1.2568206379e+02   2.8942230657e+01    0.2397335    0.1202938  84.20  0.001418246    1.665    0.399
        33 -10.2327     12.8627    204.6753   1.2317332128e+02   2.9611473424e+01    0.2653705   0.07740977  52.29  0.001163413    2.985    0.665
        34 -10.5620      3.4987    196.9892   1.2461290753e+02   3.2079031224e+01    0.3173069    0.1428612  70.31  0.001679271    2.038    0.509
        35  -9.8842      4.2176    188.3908   1.2395625459e+02   3.3903959512e+01    0.1599738   0.08876928  46.36 0.0009558411    1.694    0.410
        36  -9.9819      2.0000    178.4915   1.2381104586e+02   3.6290859928e+01    0.2653188   0.05450518 -77.59 0.0009390735    3.970    0.748
        37  -9.9359    248.1488    129.8940   5.8063078290e+01   6.5856130083e+00    0.2105808    0.1719034 -49.06  0.001239345    1.262    0.208
        38 -10.3613    248.9669    118.7827   5.5523186779e+01   8.2712712407e+00    0.3340277    0.1528064 -49.14  0.001405076    2.332    0.571
        39 -10.4289    248.0028    112.9694   5.4387436271e+01   9.4022034523e+00    0.2152806    0.1506069 -60.64 0.0009211476    1.688    0.408
        40 -10.2949    248.3325    106.6752   5.2953950922e+01   1.0367401306e+01    0.2146979    0.1464999 -61.79  0.001024236    1.738    0.425
        41 -10.9039    249.3327     98.1931   5.0946026085e+01   1.1544069090e+01    0.3224873    0.1368019 -40.28  0.001405207    1.972    0.493
        42 -10.9773    244.1448     98.7283   5.1766377014e+01   1.2456014324e+01    0.2620242    0.1755057 -10.69  0.001256724    2.120    0.528
        43 -10.4966    249.4918     87.9573   4.8666185552e+01   1.3128713451e+01    0.2119788    0.1135747 -38.05  0.001033572    1.593    0.372
        44  -9.2809    237.6543     90.3232   5.0755314954e+01   1.5100972962e+01    0.1435674   0.09649249 -64.80 0.0007050022    1.738    0.425
        45  -9.7683    244.6709     87.6904   4.9223067452e+01   1.4114779062e+01    0.1279638      0.10344   5.15 0.0007040755    1.664    0.399
        46 -10.0357    243.5029     82.5120   4.8211144173e+01   1.5157216318e+01    0.1345359    0.1159134 -48.39 0.0003053754    1.002    0.002
        47 -11.1415    248.9413     74.7690   4.5824729146e+01   1.5255428613e+01    0.5240173     0.115589 -44.25  0.001707869    3.789    0.736
        48  -9.8764      2.3997     51.8248   1.0751902961e+02   6.5612168094e+01    0.1829409   0.07677796 -52.20 0.0009062584    1.697    0.411
        49 -10.2153     17.4934     31.8498   9.3919504305e+01   6.8591127794e+01    0.3038691    0.1041236 -28.00  0.001094422    4.205    0.762
        50 -11.2778    249.0506    225.3347   7.6787150238e+01  -8.1537776428e+00    0.4027391    0.1588865 -34.25  0.001985184    2.389    0.581
        51 -11.5993    242.9913    245.9754   8.1312412517e+01  -9.9850848161e+00    0.5325147    0.2762828  -5.42  0.002800756    2.318    0.569
        52  -9.4437     34.2577     16.4428   7.8606852848e+01   6.9358232220e+01    0.2214311    0.1035672  27.27  0.001140422    2.110    0.526
        53 -10.5362      1.4810     25.5212   1.0014333030e+02   7.0812047077e+01    0.3574796   0.08818777 -55.76  0.001495971    3.287    0.696
        54 -11.5504    247.5943    239.2318   7.9406213369e+01  -9.7372788660e+00    0.4320161    0.2342437  -3.00  0.002366598    2.048    0.512
        55 -10.9340    249.5871    233.2081   7.8049646627e+01  -9.2363263855e+00    0.3338403    0.1712442 -25.14  0.001900488    1.806    0.446
        56 -11.4658    212.6632    247.8292   8.7062021109e+01  -6.2126367932e+00    0.4208298    0.2377891  17.43  0.002357741    1.703    0.413
        57 -10.1421     65.8636    249.3383   1.1595776307e+02   1.4731638218e+01    0.2432988   0.07009671  42.71  0.001085462    2.568    0.611
        58 -10.1795     36.7210    248.5460   1.2129729282e+02   1.8354537460e+01    0.3307448    0.1405733  53.77  0.001854317    1.870    0.465
        59 -10.0138     11.9407    248.9717   1.2566332046e+02   2.0871771521e+01    0.2888621    0.1331532  57.67  0.001476028    1.645    0.392
        60 -11.6571    234.5571    244.5215   8.2559412240e+01  -8.7277594786e+00    0.3230202    0.2040135   3.36  0.002007314    1.458    0.314
        61 -10.7259      3.0760    242.7900   1.2690559857e+02   2.2861544641e+01    0.3473345    0.1664878  68.76  0.002201604    1.652    0.395
        62  -9.3065    195.6622    244.6722   8.9779114839e+01  -3.3634318175e+00    0.1288987   0.08244142   5.38 0.0007051796    1.729    0.422
        63 -10.4876     56.7584    242.1892   1.1713707900e+02   1.7205050851e+01    0.3596683    0.1323221  58.51  0.001589963    2.876    0.652
        64 -10.7630     15.6248    239.9597   1.2459852380e+02   2.2195153752e+01    0.4479931    0.1586101  49.61  0.002449363    2.120    0.528
