#   1 NUMBER                 Running object number                                     
#   2 MAG_AUTO               Kron-like elliptical aperture magnitude                    [mag]
#   3 X_IMAGE                Object position along x                                    [pixel]
#   4 Y_IMAGE                Object position along y                                    [pixel]
#   5 X_WORLD                Barycenter position along world x axis                     [deg]
#   6 Y_WORLD                Barycenter position along world y axis                     [deg]
#   7 A_WORLD                Profile RMS along major axis (world units)                 [deg]
#   8 B_WORLD                Profile RMS along minor axis (world units)                 [deg]
#   9 THETA_WORLD            Position angle (CCW/world-x)                               [deg]
#  10 FWHM_WORLD             FWHM assuming a gaussian core                              [deg]
#  11 ELONGATION             A_IMAGE/B_IMAGE                                           
#  12 ELLIPTICITY            1 - B_IMAGE/A_IMAGE                                       
         1 -13.7016    226.9606     51.3853   5.5438781602e+01   2.2213529287e+01     3.636194     0.920871 -26.94    0.0120155    3.243    0.692
         2 -13.0235    243.7777    136.3420   7.3860204633e+01   8.4402938465e+00     5.303436     1.152018 -39.79   0.01313975    8.913    0.888
         3 -13.1525    234.5016     33.7846   4.9859399340e+01   2.2511756801e+01     2.140948     0.647104 -25.07  0.007898576    2.753    0.637
         4 -13.8622    247.6988     66.4425   5.7008388659e+01   1.6070436384e+01     4.977014    0.9474286 -22.90   0.01258379    6.176    0.838
         5 -14.5731    245.8193     30.9242   4.8094306609e+01   2.0352354781e+01     5.756271     1.721896 -21.29   0.02090636    3.067    0.674
         6 -10.7645    192.5277     55.1998   6.1149722682e+01   2.9776218447e+01     0.548979    0.2540244 -30.35  0.002192419    1.961    0.490
         7  -8.7047     79.7661     11.9810   6.9150346096e+01   6.3695198214e+01    0.1882598    0.1119567 -26.31 0.0005731707    1.594    0.373
         8  -9.9344      6.6522     11.8718   1.0824815069e+02   7.4515088490e+01    0.2248011     0.165084 -26.42 0.0005613497    1.340    0.254
         9  -8.4264     38.9675     10.9326   8.6779573554e+01   7.1346459331e+01    0.1592647    0.1309224 -26.76 0.0003628936    1.028    0.027
        10  -8.6410     18.8303      9.2007   9.8399907631e+01   7.4107265667e+01    0.1687914    0.1198066 -28.69 0.0002300398    1.284    0.221
        11  -9.9095    116.6437      5.4396   5.5926164096e+01   5.5561750089e+01    0.2618829    0.2358696 -48.81 0.0001974452    1.204    0.169
        12 -10.3624    110.7441      4.5713   5.6747007979e+01   5.7165490011e+01    0.3810495     0.219837 -38.45 7.901068e-06    1.808    0.447
        13  -8.1980     64.6832      4.7221   7.0524103124e+01   6.7836171862e+01    0.1398469   0.09652139  15.92 0.0001992728    1.572    0.364
        14  -9.7350     50.9530      3.4197   7.5749690933e+01   7.0631792953e+01    0.2384111       0.1728 -23.60 0.0003080555    1.229    0.187
        15  -8.4687    121.5682      1.9755   5.3367420438e+01   5.4603078118e+01    0.2082672    0.1406441 -13.81 0.0003158164    1.500    0.333
        16  -9.4678     14.9043      1.9537   9.7059902616e+01   7.5910240573e+01    0.1847317    0.1441787 -34.22 -0.0006383859    1.022    0.021
        17  -9.8583    207.0722    237.2005   9.6916915264e+01   2.9027426736e+00     0.274589    0.1767008  51.54   0.00179755    2.393    0.582
        18  -9.7144    229.3357    207.1555   8.9112869078e+01   2.8695290348e+00     0.225815    0.1748575 -34.48  0.001332439    1.839    0.456
        19 -10.3029    232.9114    213.1549   8.9478057410e+01   1.8068405583e+00    0.4041317    0.2494199 -45.79  0.002385963    3.254    0.693
        20 -10.2710    235.3987    229.0011   9.1420826334e+01   4.4014227574e-02    0.4154262    0.2003281 -35.42  0.002625252    2.758    0.637
        21  -9.8265    243.8623    236.2924   9.1181071404e+01  -1.6070645554e+00    0.2838014     0.188947 -35.47  0.002119687    2.368    0.578
        22  -9.5750    240.2312    231.7356   9.1082294000e+01  -7.8973671891e-01    0.1926646    0.1730938 -16.94  0.001131063    1.826    0.452
        23 -10.2070    246.6139    232.5559   9.0256173669e+01  -1.6341050759e+00    0.3844503    0.3298147 -59.26  0.002715993    3.439    0.709
        24  -9.6281    242.1773    247.5494   9.2942035302e+01  -2.2999855461e+00    0.2509737    0.1443096 -20.54  0.001944762    1.875    0.467
        25 -10.1343    240.7488    240.9534   9.2274214883e+01  -1.6111813992e+00    0.5197433    0.3706376  55.36  0.003317548    3.539    0.717
        26 -10.7665    250.2678    244.9124   9.1426503391e+01  -3.0345735843e+00    0.4152906    0.1730921 -16.11  0.002607509    2.690    0.628
        27 -10.0384    248.4065    239.7145   9.0990129062e+01  -2.4187309503e+00    0.2541528    0.1592323 -22.46  0.001569216    1.798    0.444
        28 -10.8148    246.4271    225.6149   8.9289294524e+01  -1.0360413540e+00    0.3987252    0.3619799  43.08  0.003272681    2.112    0.526
        29 -10.6891    239.8941    219.0321   8.9295057863e+01   3.5564946994e-01    0.4978645    0.2651909 -26.38  0.003356495    2.008    0.502
        30  -9.8305    232.5946    247.6098   9.4354534416e+01  -1.1765787098e+00    0.2573671    0.1420574 -29.00  0.001606181    2.207    0.547
        31 -10.2597    225.2380    248.9879   9.5626154157e+01  -4.0916238922e-01    0.2747502    0.1842911  38.72   0.00215833    1.615    0.381
        32 -10.0473    210.3018    249.1450   9.7914271045e+01   1.3980971994e+00    0.3134599    0.1751783  23.35  0.002271908    1.363    0.266
        33 -10.3631    193.3696    248.8707   1.0052405199e+02   3.5376541686e+00     0.252692    0.2402209  77.10  0.002240266    1.878    0.468
        34  -9.2964    168.0386    249.6345   1.0468309976e+02   6.6825048892e+00    0.1485393   0.09292548  32.77 0.0003961287    1.138    0.121
        35  -9.4302    170.6979    235.5363   1.0265870035e+02   7.8656442374e+00    0.1495836    0.1314988  77.11  0.001186379    1.818    0.450
        36  -8.8304    202.1444    232.2102   9.7054704156e+01   4.0315329941e+00    0.1363825    0.1068256  35.61 0.0008954241    1.368    0.269
        37  -9.0811    158.4671    231.9527   1.0432797192e+02   9.9239476259e+00    0.1255433   0.09362165  88.33  0.000809558    2.646    0.622
        38  -8.3532    207.4887    231.4645   9.6098493077e+01   3.4021887541e+00    0.1084918   0.07559481  21.01 6.027653e-05    1.054    0.051
        39  -9.7332    229.5949    228.3176   9.2206707946e+01   8.3734198153e-01    0.1812624    0.1624462  -8.51 0.0008873424    1.625    0.385
        40  -8.6120    216.5649    228.4397   9.4248292013e+01   2.5060498886e+00    0.1342283   0.08511327  -8.61 1.876742e-05    1.635    0.388
        41  -9.4405    217.4650    223.9971   9.3486973663e+01   2.8145313935e+00    0.2149597       0.1963 -75.61  0.001447754    2.361    0.576
        42  -9.2426    211.9062    226.8977   9.4774857840e+01   3.2672013111e+00     0.235417    0.1376052 -35.80  0.001597512    2.203    0.546
        43  -9.7292    198.9976    226.9803   9.6873387490e+01   4.9828756090e+00    0.2176974    0.1812792 -49.56  0.001511061    1.999    0.500
        44  -9.0131    223.4713    226.6068   9.2911414251e+01   1.7802326528e+00    0.1561922    0.1498493 -74.30  0.001220705    2.160    0.537
        45  -9.7052    206.1700    225.7835   9.5543740581e+01   4.1417133511e+00    0.2044015    0.1712271 -52.20  0.001332926    2.145    0.534
        46  -8.9430    190.5034    226.4786   9.8209947277e+01   6.1867319121e+00    0.1468038    0.1042827 -47.19 0.0008907949    2.154    0.536
        47  -9.9325    228.4743    221.9277   9.1466740719e+01   1.5657869010e+00    0.3262318    0.1741994  43.68  0.002038007    2.081    0.519
        48 -11.3036    247.8839    216.5393   8.7725616007e+01  -4.3944688025e-01    0.4999203    0.2507322 -26.11  0.002737639    2.076    0.518
        49 -10.2528    246.8664    206.7331   8.6357620629e+01   5.6750256125e-01    0.3072429    0.1984148 -37.55  0.002046963    2.338    0.572
        50  -9.6129    243.0109    200.7811   8.5985429280e+01   1.6352375818e+00    0.2982352    0.2273261 -20.02  0.002036257    1.488    0.328
        51  -9.2223    210.9907    218.5390   9.3748097656e+01   4.2271321684e+00    0.1737879    0.1529672 -32.44  0.001373369    1.688    0.408
        52 -10.1714    218.5965    214.6437   9.1954905248e+01   3.5863319678e+00    0.4605355    0.2721579 -47.61  0.002632144    3.328    0.699
        53  -9.1360    201.6304    217.1177   9.5080116217e+01   5.6638439011e+00    0.1838665   0.09927679 -42.81  0.001097534    2.635    0.621
        54  -9.9269    193.9975    219.9232   9.6744947481e+01   6.4191348472e+00    0.2885641    0.2189794  66.37  0.001836537    2.604    0.616
        55  -9.6220    185.9534    215.6777   9.7525384038e+01   8.0263195992e+00    0.1978472    0.1554661 -44.10  0.001201679    1.783    0.439
        56  -8.8726    170.7772    217.0142   1.0034544223e+02   1.0023951958e+01    0.1267912   0.09181531 -35.86 0.0008844828    1.704    0.413
        57  -8.7777    205.0792    212.9503   9.3908258172e+01   5.6311754933e+00    0.1928859    0.1454758 -46.86  0.001331109    2.116    0.527
        58 -10.3409    224.9159    193.6874   8.7655203903e+01   4.8774172311e+00    0.5085037    0.2668255 -44.96  0.002607482    3.346    0.701
        59  -8.7336    218.1375    183.1566   8.6982552692e+01   7.0519651265e+00    0.1926456    0.1636503 -12.03  0.001073826    1.286    0.222
        60  -9.7885    219.1874    178.1695   8.5933972776e+01   7.4699029886e+00    0.3380746     0.194497 -28.74  0.001979516    1.783    0.439
        61  -9.8603    230.3437    187.7336   8.5784676914e+01   4.7277915092e+00    0.3039782    0.1985453 -42.18  0.001847808    2.298    0.565
        62 -10.4956    240.6494    208.5857   8.7586822844e+01   1.2126865090e+00    0.3322136     0.260351 -49.55  0.002236951    2.735    0.634
        63 -10.0997    235.2554    203.4210   8.7600312338e+01   2.4301456659e+00    0.2597849    0.2242354 -38.09  0.001322678    1.930    0.482
        64  -8.8840    193.5059    210.9926   9.5570888136e+01   7.4891511844e+00    0.1243748     0.101585 -69.78 0.0008090452    2.433    0.589
        65  -9.2278    177.2943    211.0525   9.8393298622e+01   9.8192637566e+00    0.1561929     0.130277  20.58 0.0008185462    1.095    0.087
        66  -9.1053    224.7081    207.6195   8.9916431048e+01   3.4575250316e+00    0.1855578    0.1216853 -37.81   0.00109831    2.103    0.525
        67  -9.3537    206.3767    207.5278   9.2888252952e+01   6.0379645954e+00    0.2457791    0.1783551 -24.23   0.00174596    1.532    0.347
        68  -9.2963    212.8829    204.5995   9.1363425320e+01   5.4297957527e+00    0.3075491    0.1698023 -42.38  0.001788319    2.615    0.618
        69  -9.1467    210.1320    200.4078   9.1165931803e+01   6.2854592700e+00    0.1753576    0.1407298 -33.39 0.0008887628    1.624    0.384
        70  -9.5828    188.1005    204.4562   9.5550425075e+01   9.0431763394e+00    0.2425425    0.1799707 -77.16   0.00130269    3.524    0.716
        71  -9.1586    217.1128    204.7351   9.0691784290e+01   4.8152659208e+00    0.1661725    0.1423707  -7.10 0.0007964578    1.335    0.251
        72  -9.1843    202.3569    204.3628   9.3084040933e+01   6.9692616019e+00    0.1907988    0.1290481 -30.20   0.00127842    1.690    0.408
        73  -9.1329    197.2659    204.1815   9.3923127986e+01   7.7310077533e+00    0.2427384    0.1468719 -28.92     0.001533    1.854    0.461
        74 -10.0396    173.0894    203.4465   9.8073408684e+01   1.1395014657e+01    0.1851487    0.1700785 -32.30 0.0006756089    1.387    0.279
        75  -9.5271    223.9366    183.7532   8.6131950801e+01   6.1089660842e+00     0.341052    0.2697288  22.12  0.002401168    1.145    0.127
        76  -9.0757    226.7750    177.3041   8.4534888787e+01   6.4060090365e+00     0.439399    0.2959793 -20.60  0.002825455    1.439    0.305
        77  -9.2074    241.4875    191.5452   8.4690293511e+01   2.7465835956e+00    0.2315317    0.1477643 -38.40 0.0007605559    2.223    0.550
        78  -9.2811    232.4933    174.5460   8.3119956212e+01   5.8472390336e+00    0.2307395    0.1688575 -13.03  0.001034339    1.254    0.203
        79 -10.3559    250.0500    200.4990   8.4881680954e+01   7.2338318984e-01     0.318568    0.1567991 -27.10  0.001977764    2.053    0.513
        80 -10.5515    237.0768    186.8611   8.4574254657e+01   3.8474366927e+00    0.3831954    0.2014105 -28.93  0.001683712    1.946    0.486
        81  -9.5429    235.5926    180.8453   8.3758022061e+01   4.6975188708e+00    0.2411237    0.1839876 -18.18  0.001679553    1.341    0.254
        82  -9.8785    231.7514    178.6132   8.3969402880e+01   5.5091561258e+00    0.3428316    0.2199783  -5.00  0.002141592    1.463    0.316
        83 -10.5483    246.7328    193.4746   8.4217454345e+01   1.8335766304e+00    0.3163268    0.2983435   2.67  0.001695332    1.695    0.410
        84  -9.3582    243.9687    188.0085   8.3709317500e+01   2.7538567580e+00    0.2364739    0.1984172 -17.52  0.001139223    1.473    0.321
        85  -9.1189    220.5036    187.3861   8.7317048739e+01   6.2150187820e+00    0.2379638    0.1056148 -32.93  0.001051205    2.405    0.584
        86  -9.7501    223.3108    201.0504   8.9109003550e+01   4.3274739086e+00    0.2081421     0.148066  44.25   0.00139804    1.715    0.417
        87 -10.1114    231.1135    197.2742   8.7256448972e+01   3.6189838320e+00    0.5164118    0.1680594 -33.14  0.002484613    3.289    0.696
        88  -8.8890    215.5320    198.5298   8.9972813917e+01   5.7098547076e+00    0.1626625    0.1032334 -38.92 0.0007754313    2.072    0.517
        89  -9.3579    202.2709    197.6298   9.2055785651e+01   7.7573453478e+00    0.2082831    0.1829681  53.87  0.001015213    1.668    0.401
        90  -9.2991    176.4480    197.7525   9.6631374845e+01   1.1630068715e+01    0.1833804    0.1153208 -44.63 0.0009765723    2.019    0.505
        91  -9.1358    170.4781    197.4700   9.7681959905e+01   1.2575530124e+01      0.18338    0.1144456 -54.57  0.001038799    2.420    0.587
        92 -10.1706    184.7607    195.6768   9.4815871731e+01   1.0632897704e+01    0.3669716    0.1362386 -35.25  0.001713734    3.173    0.685
        93  -8.9701    219.3766    194.6945   8.8720754258e+01   5.5715890723e+00    0.1448394    0.1393672  51.93  0.001084488    1.720    0.419
        94  -9.0601    209.2064    194.8973   9.0442587545e+01   7.0440136374e+00    0.1634716    0.1437327  22.07 0.0008521235    1.290    0.225
        95  -9.4806    167.5779    192.7442   9.7516986555e+01   1.3665508578e+01    0.2019544    0.1141308 -35.10  0.001133387    2.081    0.519
        96  -8.7966    215.0701    192.0000   8.8987995108e+01   6.5037757924e+00    0.1533109    0.1420266  50.91 0.0008073818    1.674    0.403
        97  -9.0603    172.6539    191.1053   9.6320198469e+01   1.3102840305e+01     0.225468    0.1505726 -53.27  0.001322286    2.146    0.534
        98  -8.7179    161.6354    192.2447   9.8563003439e+01   1.4656139962e+01    0.1501705    0.1095284 -25.97 0.0006337383    1.606    0.377
        99  -8.8647    199.0050    191.0883   9.1572007279e+01   9.0303671537e+00    0.1626549    0.1461717  64.93  0.001067698    1.740    0.425
       100  -9.5492    210.3195    187.8357   8.9091549986e+01   7.6958698000e+00    0.2827561    0.1334037 -36.69  0.001503951    2.415    0.586
       101  -9.2606    215.3289    187.1017   8.8125660590e+01   7.0231047219e+00    0.1771575       0.1727 -22.36 0.0007138291    1.583    0.368
       102  -9.3580    190.8729    179.5803   9.1097461336e+01   1.1768937042e+01    0.2405358    0.1682913 -43.22  0.001189646    1.802    0.445
       103  -8.5362    193.3089    187.6954   9.2019741779e+01   1.0330939605e+01    0.1834984    0.1580029  41.64 0.0007726767    1.366    0.268
       104  -9.0291    189.8182    184.7546   9.2159283962e+01   1.1256684834e+01    0.2231736    0.1708436 -45.84  0.001148198    1.749    0.428
       105 -12.4589    242.7634    173.9054   8.1400163191e+01   4.3824275420e+00     2.340281     1.164259 -44.33   0.01086053    3.771    0.735
       106 -11.8227    235.2853    135.3808   7.4942023137e+01   9.9933906334e+00     2.150815    0.7182974 -40.70  0.007903077    3.941    0.746
       107  -9.0908    218.9905    248.5491   9.6512884801e+01   3.8427134407e-01    0.1557986    0.1187704  42.05   0.00114297    1.754    0.430
       108 -13.1042    233.9161     91.0139   6.4891415877e+01   1.5835856496e+01      2.00141     1.424231 -27.38   0.01114058    1.246    0.197
       109 -10.3542    176.5657    247.9170   1.0310752739e+02   5.7701725371e+00    0.2695425    0.1854237  50.76  0.001999736    1.774    0.436
       110 -11.3746    248.9404    132.8518   7.2365456456e+01   7.9893422771e+00     1.063523    0.2412087 -33.72  0.003808019    3.908    0.744
       111 -12.3525    248.1061    118.5968   6.9383396144e+01   9.7996780711e+00     2.070133    0.4061407 -32.51  0.006917711    4.090    0.756
       112  -8.8594    187.1249    247.5102   1.0135927307e+02   4.4615567469e+00    0.1524414    0.1219808  38.03  0.001268184    1.373    0.272
       113  -8.7368    224.5181    237.0338   9.4180227735e+01   7.0182778460e-01    0.1043564   0.09090371 -51.70 0.0007028969    2.408    0.585
       114  -9.1492    237.7513    244.6474   9.3207247875e+01  -1.5511281298e+00    0.1386328    0.1247255 -32.06  0.001196675    2.137    0.532
       115  -8.1219    162.3318    183.2954   9.7061962780e+01   1.5842422478e+01    0.1245876    0.0866616  12.30 0.0003479873    1.638    0.390
       116  -9.8272    176.8808    181.3565   9.3975747393e+01   1.3781827121e+01    0.2487675    0.1611089 -47.63  0.001423643    1.990    0.498
       117  -9.8577    210.6034    175.8405   8.6966741220e+01   9.0919969351e+00    0.3124208    0.1763155 -42.33  0.001025817    2.315    0.568
       118  -9.0768    182.5048    176.1385   9.2044507591e+01   1.3595943994e+01    0.1939151    0.1629818  45.68  0.001258936    1.336    0.252
       119  -9.6954    223.5643    173.2663   8.4329566867e+01   7.3636545802e+00    0.2498661    0.1903389 -41.59  0.001169768    1.834    0.455
       120 -10.1341    218.8865    168.3536   8.4200027041e+01   8.6857334065e+00    0.3142214    0.2404677 -29.60  0.001383075    1.459    0.314
       121 -10.0154    188.2781    172.2659   9.0297210815e+01   1.3181085008e+01    0.3530451    0.1872427 -38.47   0.00144983    2.095    0.523
       122  -9.9536    191.0000    166.1147   8.8682485485e+01   1.3577431489e+01    0.3166428    0.2178022 -16.35  0.001620293    1.547    0.354
       123  -9.4379    228.1066    171.3552   8.3240010604e+01   6.8795734733e+00    0.2529722    0.1928742 -42.53  0.001270757    1.890    0.471
       124  -9.7342    205.6071    169.6445   8.6709923978e+01   1.0674506581e+01    0.3366544    0.2403903 -47.62  0.001965025    2.004    0.501
       125  -8.9539    200.9488    171.5172   8.7871532017e+01   1.1194203889e+01    0.1838435    0.1072418  38.09 0.0006413722    1.531    0.347
       126  -8.5841    212.0706    169.3741   8.5541976971e+01   9.6572491414e+00    0.1697483    0.1372717  22.92 0.0007115584    1.108    0.098
       127  -9.7428    179.4846    168.5288   9.1278240903e+01   1.5181552782e+01    0.2452192    0.1233492 -38.34   0.00121347    2.179    0.541
       128  -9.0747    150.2265    168.9597   9.7154618402e+01   2.0049820986e+01    0.1576117    0.1068544 -44.85 0.0008798401    1.669    0.401
       129  -8.6127    165.2826    167.6386   9.3882592911e+01   1.7722290291e+01    0.1189434    0.1014204  79.82 0.0002650559    1.678    0.404
       130  -9.5504    228.5880    165.3945   8.2050675255e+01   7.4947980750e+00    0.2997263    0.2675245  42.30  0.002072839    1.528    0.346
       131  -9.5972    199.6619    165.0423   8.6909587888e+01   1.2264117307e+01    0.2731811    0.1563858 -34.44  0.001034188    1.851    0.460
       132 -10.3262    212.7961    161.5042   8.3936504532e+01   1.0531203949e+01    0.7006848     0.220645 -38.51  0.002785221    3.530    0.717
       133  -9.3511    216.0581    156.2112   8.2351270028e+01   1.0661013659e+01    0.2783518    0.2240642 -24.67  0.001182911    1.307    0.235
       134  -9.4504    184.5543    160.2548   8.8792164979e+01   1.5517994946e+01    0.2918459    0.1192023 -42.60   0.00124917    2.816    0.645
       135  -9.9400    205.5294    161.6210   8.5220628421e+01   1.1732396874e+01    0.3667735    0.2109702 -35.02  0.001978932    1.844    0.458
       136  -8.8585    172.2185    163.2678   9.1731679798e+01   1.7206525160e+01     0.187608    0.1015672 -49.51 0.0006951601    2.400    0.583
       137  -9.7081    226.6403    157.3161   8.0811536383e+01   8.7683664970e+00      0.32017    0.2284472 -18.03   0.00181083    1.299    0.230
       138  -9.1807    221.7465    161.7018   8.2466105365e+01   9.0334898517e+00     0.264098    0.1932597 -26.97  0.001497969    1.412    0.292
       139  -9.1433    222.3989    156.7554   8.1396936181e+01   9.5343442211e+00    0.2609351    0.1436561 -34.14 0.0006348181    1.890    0.471
       140  -9.1850    221.4819    152.4962   8.0703628785e+01   1.0218378991e+01    0.2102638     0.168448 -17.97 0.0007843944    1.217    0.178
       141  -9.3446    197.7706    176.9245   8.9399154719e+01   1.1006792517e+01    0.2348859     0.156037 -38.22 0.0008642978    1.758    0.431
       142  -9.0785    176.6606    158.5332   8.9983371342e+01   1.7154263642e+01    0.2150731     0.120027 -37.90   0.00107758    1.926    0.481
       143  -9.8633    197.3470    156.4465   8.5683793877e+01   1.3835464532e+01    0.3339378    0.2207489 -24.63  0.001649534    1.535    0.349
       144  -9.4892    187.5573    155.5869   8.7328399708e+01   1.5674114365e+01    0.3509003    0.1247041 -34.94  0.001403207    3.011    0.668
       145  -9.3068    205.5299    153.9437   8.3723852039e+01   1.2757643437e+01    0.2491902    0.2148798 -23.96  0.001166524    1.268    0.211
       146  -9.0097    202.4169    151.2584   8.3740040044e+01   1.3668126733e+01    0.2392506    0.1813276 -27.17  0.001225155    1.338    0.253
       147  -9.8344    191.2809    148.4194   8.5202350966e+01   1.6058769637e+01    0.3558781    0.1411584 -44.06  0.001411809    3.112    0.679
       148  -9.4511    145.3928    154.2189   9.5602535967e+01   2.3370832809e+01    0.1797057    0.1273874 -58.79 0.0009532222    1.749    0.428
       149  -9.5808    157.3140    153.0327   9.2848570503e+01   2.1465435263e+01    0.1801003    0.1724455 -17.57 0.0006036019    1.132    0.116
       150  -9.4663    214.2042    142.3534   7.9846207248e+01   1.2792160052e+01    0.3076572    0.1564976 -38.24 0.0008399953    2.110    0.526
       151  -9.4619    211.8868    151.0992   8.2044989847e+01   1.2036672171e+01    0.2864875    0.1707306 -21.36 0.0009926878    1.676    0.403
       152  -9.5996    215.3887    148.8035   8.0979994563e+01   1.1732223240e+01     0.314218    0.2037119 -41.82  0.001398406    1.884    0.469
       153  -9.9431    207.9731    145.0117   8.1478589037e+01   1.3542224791e+01    0.4211167    0.2245089 -24.85  0.002065828    1.907    0.475
       154  -8.9292    196.5028    150.0987   8.4576483175e+01   1.4878694571e+01    0.1885366    0.1228339 -28.72  0.000842083    1.549    0.354
       155  -9.4178    224.3425    140.1756   7.7696984182e+01   1.1290223265e+01    0.3129196    0.1893165 -30.13  0.001147373    1.594    0.373
       156  -9.7259    223.6997    146.5795   7.9136750264e+01   1.0587572208e+01    0.2971682    0.2551503 -24.64  0.001580968    1.308    0.235
       157  -8.7309    219.0333    144.3426   7.9446893651e+01   1.1680026764e+01    0.1997857     0.174484 -41.02 0.0009319289    1.495    0.331
       158  -9.9720    200.1702    126.7825   7.8904850855e+01   1.7579511691e+01    0.5246073    0.2118394 -43.80  0.001995244    3.042    0.671
       159  -9.0768    200.4445    144.7574   8.2764682552e+01   1.4929879690e+01      0.26695    0.1586396 -37.55  0.001161298    1.784    0.439
       160  -9.5853    198.0460    131.7783   8.0411888981e+01   1.7252057614e+01    0.3209711    0.2110402 -23.02 0.0007278944    1.508    0.337
       161  -7.4719    197.9815    139.9815   8.2207045441e+01   1.6064979954e+01    0.2829816    0.2064972 -63.61  0.001402572    2.398    0.583
       162  -9.3653    198.6852    136.4756   8.1325526756e+01   1.6443562346e+01     0.303258    0.1942647 -31.74  0.001022677    1.550    0.355
       163  -8.5731    171.5005    144.0486   8.8156390699e+01   2.0362958164e+01    0.1987351     0.131609 -36.97  0.001029936    1.583    0.368
       164  -9.1033    155.6233    143.7994   9.1408333647e+01   2.3347366943e+01    0.1875365    0.1283728 -52.56 0.0009534154    1.733    0.423
       165  -8.5655    194.3800    142.7681   8.3458377560e+01   1.6322558987e+01    0.1854173    0.1182365 -19.66 0.0006293061    1.657    0.397
       166  -9.7895    181.7104    141.8029   8.5663504539e+01   1.8817454644e+01    0.3552538    0.2151222 -50.90  0.001679171    2.211    0.548
       167  -8.6571    203.4942    141.0268   8.1434180384e+01   1.4903231953e+01    0.1885193     0.122624 -31.79  0.001004082    1.537    0.349
       168  -9.6991    187.6033    135.7559   8.3235354669e+01   1.8642089611e+01    0.3213047    0.1732869 -36.59  0.000922717    1.887    0.470
       169  -8.9547    166.1626    140.1659   8.8446021095e+01   2.2001128109e+01    0.1787734    0.1668866 -88.21  0.000597789    1.358    0.263
       170  -9.7120    218.7254    138.1495   7.8192465751e+01   1.2544838698e+01    0.2950335    0.2219868 -15.57  0.001112796    1.213    0.176
       171  -9.7476    208.2758    137.4549   7.9827050453e+01   1.4528722442e+01    0.4032011    0.2026074 -39.97  0.001838581    2.179    0.541
       172  -9.7276    205.9720    130.8155   7.8778083343e+01   1.5889345161e+01    0.5291976    0.1607568 -42.04  0.001749443    4.106    0.756
       173 -10.2928    171.9745    137.3712   8.6663646792e+01   2.1363599087e+01    0.4420161    0.3260157 -89.89  0.002041455    2.599    0.615
       174  -9.0342    192.8405    136.5156   8.2411641278e+01   1.7535225646e+01    0.2192508    0.1512471 -33.92  0.001148387    1.475    0.322
       175  -8.8164    162.9950    135.7518   8.8176364399e+01   2.3349896455e+01    0.1923307    0.1732496  26.04 0.0005347292    1.034    0.033
       176  -8.2320    155.6557    135.3221   8.9653797086e+01   2.4825672948e+01    0.1372826    0.1115603  82.34 0.0007050144    1.731    0.422
       177  -9.1751    219.6324    114.8604   7.2815665937e+01   1.5499012446e+01    0.3282002    0.1352938 -41.83  0.001023474    2.805    0.644
       178  -9.6996    220.8005    121.6959   7.4210932860e+01   1.4354835609e+01    0.5758131    0.2391942 -43.23  0.002252609    3.075    0.675
       179 -10.1603    216.7569    117.0809   7.3804537118e+01   1.5750764301e+01    0.5019681    0.1671327 -37.11  0.001882609    2.918    0.657
       180  -9.6908    212.5747    121.7637   7.5588900803e+01   1.5907704414e+01    0.5113161    0.2178245 -22.74  0.002024294    2.632    0.620
       181  -9.1913    212.2986    115.6499   7.4208592064e+01   1.6816353767e+01    0.2347461    0.2020806 -61.26 0.0008677598    1.603    0.376
       182  -9.8401    224.4962    133.4218   7.6225025299e+01   1.2131886016e+01    0.3269281    0.2945211  77.39  0.002031585    1.705    0.413
       183  -9.7814    220.6950    129.1240   7.5900788882e+01   1.3383223905e+01    0.2832517    0.2235469 -22.57  0.001071384    1.204    0.170
       184  -9.7677    179.4237    132.2598   8.4058762521e+01   2.0761792677e+01    0.3284068    0.2310401 -42.17  0.001370934    1.544    0.352
       185  -9.2162    142.7619    131.0113   9.1608286374e+01   2.8064702128e+01    0.1861009    0.1178971 -44.05 0.0008906378    1.648    0.393
       186  -9.7471    171.7266    129.0040   8.4883187234e+01   2.2797882970e+01     0.304404    0.1667931 -44.10  0.001369141    1.982    0.495
       187  -9.2917    211.9909    128.5125   7.7220993803e+01   1.5080488853e+01    0.2566754    0.1705199 -41.63  0.001156675    1.718    0.418
       188  -9.1258    186.1919    128.4906   8.1895881260e+01   2.0040932168e+01    0.2490992    0.1871276 -30.88 0.0008082689    1.328    0.247
       189  -9.4028    165.0869    126.3146   8.5656537035e+01   2.4566113169e+01    0.4510273    0.1668026 -49.73  0.001455696    3.925    0.745
       190  -8.6407    217.3186    124.9602   7.5524593436e+01   1.4568168189e+01    0.1946744    0.1539219 -15.33 0.0008344896    1.143    0.125
       191  -9.6265    179.4775    124.2139   8.2229620475e+01   2.2050323908e+01    0.3253287    0.2333781 -39.41  0.001200208    1.452    0.311
       192  -9.2430    169.9736    124.4398   8.4206782896e+01   2.3913252993e+01    0.2217967    0.1827874 -30.31 0.0005927648    1.220    0.181
       193  -9.0471    188.1190    122.7456   8.0209448844e+01   2.0558965811e+01    0.2399473    0.1824173 -39.36  0.001094662    1.396    0.284
       194  -9.4183    202.6852    121.0968   7.7146881408e+01   1.7922971167e+01    0.3346696    0.2934279  76.05  0.001624912    1.594    0.373
       195  -9.0230    194.1206    120.7455   7.8615730344e+01   1.9670542410e+01    0.2395799     0.177004 -38.33 0.0008041026    1.419    0.295
       196  -8.5286    184.3629    118.8336   8.0010479765e+01   2.1932780138e+01    0.1980592    0.1269982 -21.53 0.0009353036    1.655    0.396
       197  -8.5610    157.3461    119.6917   8.5791717618e+01   2.7284436987e+01    0.1415664    0.1161623  88.64 0.0003906324    1.701    0.412
       198  -9.2333    140.7411    118.7388   8.9345837542e+01   3.0788532930e+01    0.2278134     0.117987 -54.98 0.0008952504    2.429    0.588
       199  -9.2846     19.0402    119.0402   1.2295530419e+02   4.8310867691e+01    0.1841772    0.1525316  80.85 0.0005416612    1.033    0.032
       200  -9.0133    191.5053    114.0468   7.7502899331e+01   2.1228360241e+01    0.3322043    0.1619663 -39.41  0.001108646    2.077    0.519
       201  -8.9785    194.5868    112.8052   7.6631712977e+01   2.0787808362e+01    0.2717511    0.1797353 -44.82  0.001212482    1.706    0.414
       202  -8.4841    146.2863    193.6310   1.0171472237e+02   1.6814198706e+01    0.1148228   0.08802997  66.86 0.0006104194    1.704    0.413
       203  -8.6630    203.3764    115.1957   7.5632245819e+01   1.8649375549e+01    0.1976532    0.1191867 -39.27 0.0009414625    1.717    0.417
       204  -9.5961    185.9864    114.4832   7.8651912089e+01   2.2293809167e+01    0.2742639    0.1888646 -44.66  0.001355876    1.607    0.378
       205  -8.9471    173.5035    113.9973   8.1001741409e+01   2.4957742996e+01    0.2169024    0.1382073 -34.50 0.0008186614    1.558    0.358
       206  -8.5979    208.4516    113.0269   7.4234551304e+01   1.7948901104e+01    0.2076115    0.1261345 -28.49  0.000628531    1.545    0.353
       207  -8.8445    168.4807    111.9918   8.1544985015e+01   2.6347058835e+01    0.2189477    0.1395103 -36.19 0.0007659332    1.563    0.360
       208  -8.3476    213.2956    111.6610   7.3092336808e+01   1.7178868422e+01    0.1321296    0.1056427 -54.35 0.0004261198    1.655    0.396
       209  -9.1472    177.1498    110.1058   7.9303665123e+01   2.4844929371e+01    0.2746626    0.1995878 -51.05  0.001350449    1.630    0.386
       210  -9.0231    218.4927    109.2389   7.1662760374e+01   1.6486742713e+01    0.2460077    0.1249416 -23.53  0.001097856    1.899    0.473
       211  -8.6173    201.4422    108.9926   7.4467526245e+01   1.9955010624e+01    0.2178001    0.1290934 -30.52 0.0006409796    1.597    0.374
       212  -9.1024    183.0981    108.2355   7.7664822300e+01   2.3896579396e+01     0.337127      0.16371 -42.07  0.001379678    2.156    0.536
       213  -8.6392    133.6840    109.3482   8.8802654491e+01   3.4032752013e+01    0.1487334    0.1172583 -87.71 0.0007047696    1.726    0.420
       214  -9.3510    189.5301    108.0834   7.6402501294e+01   2.2566879301e+01    0.2784873    0.1355365 -29.08  0.000810802    2.063    0.515
       215  -9.2807    160.5764    107.7092   8.2155991585e+01   2.8763621058e+01     0.277914    0.1410613 -33.64  0.001128248    2.042    0.510
       216  -9.2134    205.6819    105.1921   7.2792861767e+01   1.9640300216e+01    0.2443376    0.1984457 -37.58 0.0008348458    1.293    0.227
       217  -8.9546    218.4373    104.3843   7.0494028973e+01   1.7161722201e+01    0.2397145    0.1099497 -38.38  0.001013491    2.167    0.539
       218  -9.1248    213.5538    104.2932   7.1257153184e+01   1.8158532360e+01    0.2611169    0.1202215 -33.75  0.000869925    2.009    0.502
       219  -9.2119    200.5655    102.5912   7.3023462999e+01   2.1086809799e+01    0.2833985    0.1304257 -31.09  0.001050605    2.050    0.512
       220  -9.2640    166.8832    100.0621   7.8823965147e+01   2.8750264233e+01    0.3102981    0.1855381 -38.86  0.001366578    1.654    0.395
       221  -9.0089    160.2621    100.3601   8.0317578738e+01   3.0141686670e+01    0.2614953    0.1719415 -52.71   0.00116623    1.803    0.445
       222  -8.9416    209.3292     99.4834   7.0748810838e+01   1.9705988083e+01    0.2789043    0.1601555 -24.88 0.0009157863    1.647    0.393
       223  -8.8253    216.3204     99.3048   6.9573313759e+01   1.8288090220e+01    0.2206561    0.1830063   4.72 0.0007665185    1.139    0.122
       224  -9.8099    212.4827     95.9817   6.9346833143e+01   1.9543305333e+01    0.4364764    0.2321357 -48.47   0.00182002    2.454    0.593
       225  -9.6834    210.6879     91.3586   6.8445593468e+01   2.0570480448e+01    0.3566511    0.2303329 -47.65  0.001199998    1.810    0.447
       226  -9.4042    202.8994     97.3487   7.1281987835e+01   2.1367307119e+01    0.3276794    0.1941719 -29.32  0.001025961    1.575    0.365
       227  -9.2465    195.0088     97.1854   7.2614642215e+01   2.3082637929e+01    0.3208476    0.1937242 -34.50  0.001493116    1.579    0.367
       228  -8.6317    188.7946     98.0486   7.3969144891e+01   2.4295573915e+01     0.199734     0.110031 -32.21 0.0008641984    1.733    0.423
       229  -9.0600    215.2646     93.9980   6.8399622324e+01   1.9238811592e+01    0.3584484    0.2053865 -18.18  0.001492417    1.759    0.431
       230  -8.7282    183.4804     95.9889   7.4421557235e+01   2.5783511565e+01    0.2281389    0.1378817 -32.95 0.0007325566    1.587    0.370
       231  -8.7645    207.0752     94.1311   6.9751149078e+01   2.0945429032e+01    0.1906213    0.1627058 -44.97 0.0007355955    1.309    0.236
       232  -8.9982    164.4848     93.5461   7.7570369300e+01   3.0409774150e+01    0.3193349    0.1438714 -35.40  0.001213894    2.177    0.541
       233  -8.4847    177.0000     93.0081   7.4870949613e+01   2.7703431497e+01    0.2465874    0.0814367 -33.89 0.0008009149    2.932    0.659
       234  -8.7285    203.3581     89.7987   6.9232422809e+01   2.2369711651e+01    0.2109939    0.1273282 -17.93 0.0009475251    1.710    0.415
       235  -8.9176    157.6089     89.7575   7.7995453467e+01   3.2618004974e+01    0.2174306    0.1363404 -44.72 0.0009496998    1.647    0.393
       236  -9.0597    214.1607     88.1499   6.7064075353e+01   2.0278512117e+01    0.1942074    0.1546181 -42.72 0.0005322238    1.344    0.256
       237  -9.0058    150.6843     87.5510   7.8915727356e+01   3.4575510467e+01    0.2808722    0.1355608 -37.82  0.001085011    2.027    0.507
       238  -9.1319    188.2395     86.6090   7.0994279434e+01   2.6198053899e+01    0.2746841    0.1900221 -30.10 0.0008213586    1.367    0.269
       239  -8.7944    197.5746     86.2576   6.9257763616e+01   2.4160160159e+01    0.2053839    0.1333356 -16.88 0.0009465879    1.586    0.370
       240  -8.2974     30.7015     86.6753   1.1530935040e+02   5.5075458848e+01    0.1325501   0.08604367 -45.63 0.0004431574    1.629    0.386
       241  -8.2259    212.0000     84.9631   6.6562698002e+01   2.1181977716e+01    0.2312767   0.07464591 -28.87 0.0007666561    2.835    0.647
       242  -9.2045    206.0329     84.3871   6.7351893180e+01   2.2562050978e+01    0.3155278    0.1678248 -32.29  0.001201575    1.720    0.418
       243  -8.5709    200.4959     82.9655   6.7870856111e+01   2.3991830108e+01    0.2187016    0.1323974 -31.02 0.0006513298    1.527    0.345
       244  -8.6365    185.4769     82.9894   7.0488464896e+01   2.7385614906e+01    0.2303808    0.1382593 -32.06 0.0007135248    1.574    0.365
       245  -8.5277    170.5092     83.4809   7.3493238176e+01   3.0751056847e+01    0.1495238    0.1427767 -17.83 0.0003334754    1.039    0.038
       246  -9.2378    159.1200     81.4268   7.5260649823e+01   3.3736278417e+01    0.3140357    0.2125815 -41.82  0.001253148    1.476    0.323
       247  -8.3818    209.8397     80.8003   6.5787122090e+01   2.2229452792e+01    0.3334277    0.1969543 -24.23  0.001545251    1.579    0.367
       248  -9.3390    211.2680     76.0305   6.4278593486e+01   2.2570240605e+01    0.3356656    0.1809436 -23.76  0.000916076    1.749    0.428
       249  -8.6099    210.6026     71.2452   6.3066591733e+01   2.3367729817e+01     0.272233     0.122553 -31.45  0.001093268    1.969    0.492
       250  -8.3902    206.4964     77.9859   6.5543644417e+01   2.3361603600e+01    0.2256522    0.1316275 -28.04 0.0006956753    1.570    0.363
       251  -9.1910    201.0042     77.5151   6.6287459269e+01   2.4662704995e+01     0.294657    0.1769266 -41.00  0.001165466    1.667    0.400
       252  -8.6932    188.8405     77.5409   6.8343450792e+01   2.7444525849e+01    0.2897512     0.106069 -27.56  0.000972982    2.773    0.639
       253  -8.7610    174.5332     77.2768   7.0896468234e+01   3.0825248954e+01    0.2903993    0.1358147 -36.58  0.001122726    2.025    0.506
       254  -8.6974    183.5162     77.0825   6.9161027090e+01   2.8751625388e+01    0.2299838     0.138798 -32.56 0.0007427519    1.562    0.360
       255  -8.6164    157.2959     75.6405   7.3915891707e+01   3.5161081884e+01    0.1574514    0.1180593 -64.01 0.0007032705    1.704    0.413
       256  -8.6995    206.4335     73.9634   6.4446159540e+01   2.3935129463e+01    0.2265779    0.1302213 -28.53 0.0009672223    1.586    0.370
       257  -9.1336    163.4108     72.1097   7.1550687575e+01   3.4303257645e+01    0.3747139    0.1142093 -40.94  0.001138248    3.247    0.692
       258  -9.2666    166.7347     77.3881   7.2470999565e+01   3.2641601074e+01    0.2920929    0.1722231 -41.05  0.001045296    1.685    0.406
       259  -8.8418    170.5436     70.2529   6.9561752978e+01   3.2894403629e+01    0.2950442    0.1364903 -36.08  0.001125442    2.036    0.509
       260  -8.7316    214.4208     69.5071   6.2034454229e+01   2.2744651129e+01    0.2699214    0.1540973 -37.26 0.0009118915    1.635    0.388
       261  -9.6940    212.5451     65.6902   6.1246097246e+01   2.3669487903e+01    0.7167518    0.2257048 -19.08   0.00195421    4.783    0.791
       262  -8.8343    193.6699     67.4909   6.4625077479e+01   2.7790796863e+01    0.2599183    0.1300099 -27.79 0.0008962136    1.877    0.467
       263  -8.4965    187.4309     67.9541   6.5800196742e+01   2.9201692826e+01    0.2352973    0.1384955 -28.57 0.0006008883    1.599    0.375
       264  -8.7062    182.4531     68.0164   6.6682029808e+01   3.0380802640e+01    0.2328407    0.1395664 -30.86 0.0008170693    1.568    0.362
       265 -10.1305    192.0657     60.6977   6.2876698746e+01   2.9131645405e+01    0.4119379    0.2138857 -37.96  0.001724216    1.818    0.450
       266  -9.4993    202.9444    243.3556   9.8347252034e+01   2.8479417631e+00    0.1997554    0.1462213  46.72  0.001522908    1.780    0.438
       267  -9.1865    153.3164     59.4471   6.9598358293e+01   3.8829820574e+01    0.2711918    0.1365576 -32.56  0.001051729    1.907    0.476
       268  -8.6867     25.9658     60.0048   1.1212138159e+02   6.1984386975e+01    0.1546014    0.1338099 -64.75 0.0003396236    1.035    0.034
       269  -9.5703     77.7718    185.6570   1.1482416276e+02   2.7918759322e+01    0.2041629    0.1728453  46.40 0.0005646739    1.117    0.105
       270  -9.1823    157.9502     61.7253   6.9383247503e+01   3.7321684556e+01    0.2951815    0.1869635 -45.08  0.001277142    1.640    0.390
       271  -9.1280    153.0000     51.9850   6.7135245628e+01   4.0091046323e+01    0.2582675   0.08540834 -30.38 0.0008004526    2.929    0.659
       272  -8.1028    178.3126     49.6589   6.1685689340e+01   3.4049408705e+01    0.1594645    0.1103284 -57.29 0.0007046493    1.699    0.412
       273  -8.2133    208.0000     47.9644   5.6804027750e+01   2.6990407125e+01    0.2394203   0.07614122 -25.38 0.0007474438    2.878    0.653
       274  -8.1484      1.2733     43.7294   1.2032666562e+02   6.7446110306e+01    0.1131388   0.08244764  74.07 0.0006876804    1.481    0.325
       275  -9.6715    197.9016    183.2313   9.0462117324e+01   1.0177717339e+01    0.2869022    0.1674126 -45.58  0.001505815    2.367    0.578
       276  -8.8982    216.6991     62.4699   5.9778238589e+01   2.3148940405e+01    0.3306503    0.1197448 -23.65  0.001175402    2.680    0.627
       277  -8.7708    149.4522     34.0449   6.1401293890e+01   4.3602857111e+01    0.2296139    0.1455992 -27.24 0.0004223817    1.529    0.346
       278  -8.3659     26.7212     33.6800   1.0431836230e+02   6.8112901932e+01     0.135358   0.08248993 -37.33 0.0002166728    1.580    0.367
       279  -8.6011      1.4804     31.4416   1.1771830315e+02   7.0344011310e+01    0.1237118   0.09657469 -61.72 8.327964e-05    1.012    0.012
       280 -11.3005    244.3705    154.2929   7.7435341478e+01   6.2811729422e+00     1.170282    0.4044802 -36.34  0.005080452    3.146    0.682
       281 -11.3030    235.3100    147.1277   7.7390534075e+01   8.5681142556e+00     0.839372    0.5756485 -55.60   0.00427345    2.889    0.654
       282  -9.2495     42.1732     27.8160   9.3794300240e+01   6.7635100719e+01    0.1881727    0.1702418 -52.59 0.0004128472    1.175    0.149
       283  -8.4083      1.2711     27.2974   1.1683764743e+02   7.1318047405e+01    0.1259881    0.0688828 -47.62 0.0002112793    1.523    0.344
       284  -8.7783    173.5539    184.9948   9.5191908771e+01   1.3806076890e+01    0.1632637    0.1187808 -35.63 0.0008885502    1.569    0.362
       285  -9.3020    136.8519     24.7801   6.0263479062e+01   4.8102477902e+01    0.2500573    0.1987491  -6.05 0.0002509045    1.311    0.237
       286  -9.6149    118.2187     24.3838   6.4180056593e+01   5.2936738779e+01    0.2507706    0.1950468  -9.53 0.0005454699    1.324    0.245
       287 -10.6517    208.3926     20.9557   4.8748050507e+01   2.9954648470e+01     0.437478    0.2173302  13.61  0.001537542    3.491    0.714
       288  -9.1782     85.0137     21.4839   7.2334456663e+01   6.1176954533e+01    0.2313917    0.1804376 -27.92 0.0006108381    1.209    0.173
       289  -8.3447     74.3076     20.3300   7.5598468771e+01   6.3599641220e+01    0.1474618    0.1052698   5.48 0.0004248037    1.661    0.398
       290  -8.9138    203.2601    183.5933   8.9585196571e+01   9.2928255171e+00    0.1928444    0.1421632 -38.17  0.001232059    1.684    0.406
       291  -8.5636      2.5308     15.9717   1.1268870967e+02   7.3841914462e+01    0.1764529    0.0601059 -47.43 0.0003539132    2.210    0.547
       292  -8.3547     23.5059     15.4731   9.8555921995e+01   7.2368612274e+01    0.1285338    0.1060243 -39.62 0.0008099582    1.021    0.021
       293  -8.6244    161.6565     14.1838   5.2004044362e+01   4.2717921757e+01    0.2127693    0.1370438  -5.95 0.0008885332    1.715    0.417
       294  -9.5476     29.9172     12.9533   9.3256222735e+01   7.2162971705e+01    0.1940085     0.159055 -30.64 0.0003551592    1.024    0.023
       295  -9.1281    185.2641    241.4845   1.0095146862e+02   5.3067329352e+00    0.2476452    0.1375902  54.27  0.001391655    3.052    0.672
       296  -9.5430    177.2394    241.4668   1.0226257960e+02   6.3555357422e+00    0.1862503    0.1396016 -62.76 0.0007995096    2.499    0.600
       297  -8.8618    214.1353    240.8082   9.6275404251e+01   1.6675406577e+00     0.142756     0.110065  29.41 0.0005935548    1.313    0.238
       298  -8.9074    219.8532    239.8427   9.5267120745e+01   1.0365871885e+00    0.1488969    0.1360084  -7.27  0.001310066    1.650    0.394
       299 -10.0707    216.6215    234.1182   9.5010252381e+01   1.9651853604e+00     0.321637    0.2173155  46.66  0.002279027    1.971    0.493
       300  -9.6963    193.5205    238.5110   9.9250790045e+01   4.5323094484e+00    0.2801325    0.1461511  45.07  0.001766463    1.961    0.490
       301  -9.8891    189.5118    235.0032   9.9466523914e+01   5.4175555478e+00    0.2148526    0.1840493  87.17   0.00160049    2.357    0.576
       302 -10.0600    229.9382    236.3657   9.3265780002e+01   8.5344363446e-02    0.2468659    0.2036765 -41.57  0.001288568    2.260    0.558
       303  -9.7962    183.4865    182.4933   9.2936814176e+01   1.2563993903e+01    0.2202672    0.1185224 -37.69  0.001126734    2.094    0.522
       304  -9.2685    225.8425    231.8898   9.3279329394e+01   9.9300205670e-01    0.1712218    0.1628156  53.50 0.0008625649    2.041    0.510
