#   1 NUMBER                 Running object number                                     
#   2 MAG_AUTO               Kron-like elliptical aperture magnitude                    [mag]
#   3 X_IMAGE                Object position along x                                    [pixel]
#   4 Y_IMAGE                Object position along y                                    [pixel]
#   5 X_WORLD                Barycenter position along world x axis                     [deg]
#   6 Y_WORLD                Barycenter position along world y axis                     [deg]
#   7 A_WORLD                Profile RMS along major axis (world units)                 [deg]
#   8 B_WORLD                Profile RMS along minor axis (world units)                 [deg]
#   9 THETA_WORLD            Position angle (CCW/world-x)                               [deg]
#  10 FWHM_WORLD             FWHM assuming a gaussian core                              [deg]
#  11 ELONGATION             A_IMAGE/B_IMAGE                                           
#  12 ELLIPTICITY            1 - B_IMAGE/A_IMAGE                                       
         1 -14.7344    231.4856     46.9332   3.9979079847e+01   2.2482110682e+01     4.072379    0.5897653 -35.40   0.01181835    5.466    0.817
         2 -12.6860    237.9990     40.9724   3.8039165332e+01   2.1918746896e+01     1.696972    0.2341555 -35.89  0.005158839    5.241    0.809
         3 -14.0916    246.7882     75.7309   4.4511523351e+01   1.5225685778e+01     2.147469     0.898795 -37.40  0.009709021    2.088    0.521
         4 -14.4912    248.3247     24.6631   3.3794335564e+01   2.1871660820e+01     4.877168    0.9855267 -31.09   0.01462657    6.587    0.848
         5 -13.6429    243.1074     24.3041   3.4132476128e+01   2.2960867560e+01     2.283744    0.3764369 -43.91  0.008359538    3.877    0.742
         6  -9.0390    160.6561      8.6824   3.8780438804e+01   4.3247174314e+01    0.1344468   0.08604584  43.08 0.0007048911    1.719    0.418
         7  -9.6820    189.7976      7.0717   3.5051946644e+01   3.6514726518e+01    0.1909624    0.1430161 -67.96 0.0005568777    1.240    0.194
         8  -9.5303    139.5422      9.4246   4.2023492596e+01   4.8239359248e+01     0.129747    0.1120918  68.74 5.807454e-05    1.022    0.021
         9  -9.2582    110.8609      5.1465   4.5721668787e+01   5.5321926360e+01    0.1752766    0.1263593  38.38 -0.000430966    1.292    0.226
        10  -9.5858    153.5043      3.9792   3.8379006548e+01   4.5378213227e+01    0.1735476    0.1268073 -27.75   0.00102647    1.573    0.364
        11  -9.3452    206.8249     94.3321   5.4304857769e+01   2.0478802999e+01    0.2032264    0.1655202 -54.34 0.0007055364    1.180    0.153
        12 -10.6831    193.7765    249.2544   8.8347567595e+01  -4.4848359238e+00    0.2782034    0.2389909  31.40  0.001917101    1.285    0.222
        13  -9.2894    240.3557    240.7045   7.8393219958e+01  -9.5963298677e+00   0.09953047   0.09065348  33.46 0.0005057061    1.694    0.410
        14  -9.4590    220.1500    240.2177   8.1946150569e+01  -6.8915047694e+00    0.1485611    0.1343612  13.39 0.0007328165    1.350    0.259
        15 -10.5409    230.9137    237.3022   7.9504257301e+01  -7.9337606433e+00     0.272741    0.2433003  89.05  0.001376967    2.393    0.582
        16 -10.1916    206.8841    237.2602   8.3948240252e+01  -4.6261289099e+00    0.2817919    0.1884738  50.19   0.00138301    2.141    0.533
        17 -10.5507    203.5016    232.8550   8.3872785414e+01  -3.4874238573e+00    0.2530291    0.2138962  56.96 0.0003801319    1.779    0.438
        18 -10.1136    193.2180    238.3914   8.6767127261e+01  -2.8092449937e+00    0.1924289    0.1857534 -22.87  0.001339513    1.372    0.271
        19 -10.2141    189.5036    234.5512   8.6883311004e+01  -1.6681866704e+00    0.3081705    0.1890953 -58.03  0.001516111    2.734    0.634
        20  -9.4720    244.4659    236.5046   7.6976242823e+01  -9.5679809647e+00    0.1186254   0.08987125  -0.48 7.396069e-05    1.004    0.004
        21  -9.2193    237.3113    235.6711   7.8089760097e+01  -8.5494593973e+00   0.09849211   0.09569778  16.73 0.0003647576    1.667    0.400
        22 -10.6396    216.4782    234.0817   8.1613786452e+01  -5.5250244197e+00    0.2845574    0.2623052 -42.79  0.001964591    1.579    0.367
        23  -9.6008    225.7085    231.5639   7.9483769068e+01  -6.4455446884e+00    0.1786878    0.1478563 -47.02 0.0008500734    1.764    0.433
        24 -10.2118    235.7425    229.6816   7.7351934034e+01  -7.5343698465e+00    0.2274683    0.1516628 -37.57  0.001266506    1.661    0.398
        25  -9.8898    229.8275    228.6803   7.8242449855e+01  -6.6017864047e+00    0.1931843    0.1608668 -57.31 0.0009647401    2.065    0.516
        26  -9.5824    211.8223    227.5790   8.1394936893e+01  -3.9104104256e+00    0.1933925    0.1421652 -33.97  0.001182384    1.439    0.305
        27 -10.0324    199.1592    226.9297   8.3727634723e+01  -1.9367519551e+00    0.2307992    0.1797286 -50.28   0.00137797    1.708    0.415
        28  -9.9589    184.9495    227.9475   8.6719820551e+01   7.6220109092e-02    0.1870088    0.1591202  63.40  0.001056197    1.682    0.406
        29 -10.0627    247.4823    226.6149   7.4768088094e+01  -8.6425555314e+00     0.247546    0.1472358  32.03  0.001491656    1.680    0.405
        30 -10.7779    241.4427    222.3560   7.5074665904e+01  -7.2758992570e+00    0.3275121    0.2860959  66.84  0.002088055    2.237    0.553
        31 -10.2533    206.0253    225.2308   8.2104408488e+01  -2.7023668303e+00    0.2634782     0.174613 -41.20   0.00149805    1.684    0.406
        32  -9.8598    190.5124    225.9774   8.5277899314e+01  -4.6631227488e-01    0.1857869    0.1238766 -37.70  0.001034338    1.596    0.373
        33 -10.1452    217.3573    223.7545   7.9692305899e+01  -4.1405668553e+00    0.2623587    0.1889759 -56.13  0.001146355    2.280    0.561
        34 -10.6767    248.3293    218.1162   7.3133330565e+01  -7.5916505354e+00     0.289063     0.278592  28.86  0.002093731    1.646    0.392
        35 -10.1969    193.3961    219.0324   8.3521479486e+01   2.1406557267e-01    0.2926067    0.2274829 -70.78  0.001571251    2.234    0.552
        36  -9.5645    220.0075    217.0664   7.8021255758e+01  -3.5176485574e+00    0.1726796     0.164022 -84.23  0.001127627    1.704    0.413
        37 -10.7391    226.6407    213.4171   7.6139148145e+01  -3.9289978287e+00    0.5175978    0.2606755 -52.17  0.002157817    3.606    0.723
        38  -8.7834    239.2833    214.6543   7.4087718349e+01  -5.8922423683e+00     0.106144   0.09758674 -46.31    0.0007016    1.643    0.391
        39 -10.0566    233.0365    213.3206   7.4959999703e+01  -4.8282850065e+00    0.2388395    0.1714495 -35.78  0.001357688    1.453    0.312
        40  -9.0993    138.3130    214.7007   9.4463686189e+01   1.0009700991e+01    0.1357162    0.1022931  64.14  0.000352653    1.606    0.377
        41 -10.5815    217.6113    212.0768   7.7576852140e+01  -2.3931950983e+00    0.2688533    0.1534028 -46.50  0.001351343    2.124    0.529
        42 -10.7365    240.8427    208.6790   7.2732081626e+01  -5.2359421757e+00    0.4060554    0.2426664 -53.42  0.001943703    2.988    0.665
        43  -9.2510    193.3504    210.6835   8.2063471729e+01   1.6159157842e+00    0.1254371    0.1074638  68.07 0.0007047328    1.733    0.423
        44 -10.1369    247.6853    207.3018   7.1296820701e+01  -5.9734511783e+00    0.2852815    0.1750553 -43.68  0.001468154    1.914    0.478
        45  -9.4520    206.4753    207.9594   7.8965336353e+01  -2.1228243700e-02    0.1683312    0.1176159 -62.70 0.0008096352    2.528    0.604
        46  -8.7333    183.0000    207.0013   8.3523606501e+01   3.9535615425e+00    0.2094998    0.0761467 -43.85 0.0007933855    2.880    0.653
        47  -9.8918    217.3461    204.5811   7.6254915189e+01  -1.1639669192e+00    0.2503494    0.1485426 -32.79  0.001208861    1.605    0.377
        48  -9.0741    202.4890    204.5246   7.9118105467e+01   1.1856536100e+00    0.1347665    0.1164057   2.49 0.0002418142    1.004    0.004
        49  -9.7420    197.4749    203.9742   8.0015389821e+01   2.0925063216e+00    0.2020347    0.1271033 -38.10  0.001035323    1.601    0.375
        50  -9.5898    187.4146    203.2283   8.1925436476e+01   3.8871143714e+00    0.1857596    0.1298625 -52.21  0.000951776    1.753    0.429
        51  -9.3599    172.8589    203.3827   8.5011077598e+01   6.3239731968e+00    0.1802627    0.1730058 -30.65 0.0006036555    1.173    0.147
        52  -9.8623    250.2311    201.5993   6.9816004170e+01  -5.4892934269e+00     0.222517    0.1473125 -29.67 0.0007850094    1.321    0.243
        53 -10.2050    243.5866    201.6346   7.0957078993e+01  -4.5743761933e+00    0.2339376    0.2050527 -11.33  0.001542378    1.196    0.164
        54 -10.4699    228.6289    201.4796   7.3582734483e+01  -2.3824295013e+00    0.2370054     0.157565 -32.34 0.0008651636    1.398    0.285
        55 -11.5315    231.4712    194.0696   7.1667599830e+01  -1.6389354099e+00    0.5558949    0.2265472 -33.76  0.002426926    2.317    0.568
        56 -10.6368    237.3690    198.0180   7.1366041729e+01  -3.1346479005e+00    0.2589923    0.1852088 -46.86  0.001487332    1.739    0.425
        57  -9.1448    215.5166    198.4942   7.5462133451e+01   1.1370672248e-01    0.1330667    0.1147298  -3.70 0.0008102899    1.026    0.026
        58 -10.1967    226.8140    196.7803   7.3028561589e+01  -1.3634248752e+00    0.2110472    0.1714266 -37.21 0.0008474656    1.341    0.254
        59 -10.1894    224.5720    192.3706   7.2597369963e+01  -3.0308991261e-01    0.2991788    0.1501766 -42.01  0.001356177    1.997    0.499
        60  -9.8492    201.8496    197.0329   7.7843739246e+01   2.5718974286e+00    0.2041491    0.1607093 -65.42 0.0008920013    1.943    0.485
        61  -9.3286    176.3742    197.2463   8.3139519120e+01   6.8639101508e+00    0.1870977    0.1324134 -52.94 0.0008151866    1.666    0.400
        62 -10.6264    246.6749    193.2197   6.8849046264e+01  -3.7423251886e+00    0.3040686    0.2354598 -61.97  0.001721313    2.254    0.556
        63  -9.2249    219.4682    194.4753   7.3950436738e+01   1.5319630963e-01    0.1314299     0.115714  -7.37 0.0001927731    1.075    0.070
        64 -10.5106    241.6574    191.5683   6.9394190850e+01  -2.7633995874e+00    0.1956027    0.1430212 -46.41 0.0006971153    1.658    0.397
        65  -9.7178    198.6409    190.5736   7.7246901871e+01   4.2479245524e+00    0.2322204    0.1252328 -41.30  0.001066746    1.848    0.459
        66 -10.1402    210.3223    187.8724   7.4414217059e+01   2.7555005745e+00    0.3591605    0.1125445 -45.35  0.001230052    3.526    0.716
        67 -10.2195    236.9366    186.7154   6.9281510441e+01  -1.2947399025e+00    0.2524186    0.1746726 -36.93  0.001190244    1.378    0.274
        68  -9.6079    215.1579    186.8740   7.3290751883e+01   2.1273661639e+00    0.1959157    0.1766437 -41.88 0.0006416354    1.311    0.237
        69  -9.6679    249.7391    186.0018   6.6957515789e+01  -3.0774883876e+00    0.1821295     0.142072 -21.05 0.0008396503    1.065    0.061
        70  -9.9728     77.8482    185.8322   1.0435073911e+02   2.5911751939e+01    0.1982944    0.1921428 -24.41 0.0006768586    1.216    0.177
        71 -10.0553    223.9023    183.8902   7.1068025666e+01   1.2088777800e+00    0.2942375    0.1772555 -47.84  0.001308365    1.916    0.478
        72 -10.3144    241.7263    181.4734   6.7431239256e+01  -1.1841529201e+00    0.3093214     0.240365 -57.30  0.001773873    1.863    0.463
        73  -9.4933    218.3729    183.2039   7.1959262315e+01   2.2265400422e+00    0.1916557     0.118606 -45.44 0.0009490926    1.733    0.423
        74 -10.3297    230.0000    181.9951   6.9586929553e+01   5.4947391194e-01      0.21625   0.06810696 -39.01 0.0007975308    2.909    0.656
        75  -9.7055    183.5675    182.2449   7.8722461158e+01   8.4373792310e+00     0.205866    0.1301095 -30.69 0.0007464861    1.657    0.396
        76  -9.6988    235.8284    181.1188   6.8381750546e+01  -2.2194036318e-01     0.190859    0.1678998 -34.37 0.0007825504    1.260    0.206
        77  -9.8644    191.0000    179.9598   7.6709043728e+01   7.5330822565e+00    0.2301351    0.0781683 -42.65 0.0005559315    2.909    0.656
        78 -10.4514    247.7727    178.5199   6.5834854523e+01  -1.6241189923e+00    0.3151073    0.1571279 -44.44  0.001510903    2.089    0.521
        79 -10.2315    205.3224    176.8262   7.3185002432e+01   5.5696297846e+00    0.2658335    0.2306398 -30.37 0.0008362801    1.129    0.114
        80  -9.6791    197.7253    176.5551   7.4643942520e+01   6.9646689565e+00    0.2810639    0.1620254 -51.51 0.0009878105    2.072    0.517
        81  -9.5697    210.5853    175.3192   7.1854552437e+01   4.9233427240e+00    0.2620188    0.1258583 -43.55  0.001122648    2.066    0.516
        82  -9.2105    182.6866    176.3158   7.7716329871e+01   9.7438643019e+00    0.1379882    0.1180785  86.95 0.0004717652    1.642    0.391
        83  -9.8358    219.4732    178.4989   7.0814583135e+01   2.8528371076e+00    0.2354654    0.1200361 -48.17  0.001022048    2.268    0.559
        84 -10.1694    223.7682    173.2435   6.8961297475e+01   3.0416308128e+00    0.3142669    0.1600884 -49.44  0.001353663    2.372    0.579
        85  -9.7717    227.9041    171.5151   6.7863287993e+01   2.6498042510e+00    0.2646276    0.1639878 -51.05  0.001192754    1.968    0.492
        86  -9.3486    187.7054    172.3335   7.5838704214e+01   9.5894630906e+00    0.1378004    0.1177029 -83.20 0.0003851611    1.640    0.390
        87 -10.0966    233.5488    153.9201   6.3245494875e+01   4.7152067986e+00    0.3984371     0.227169 -55.23  0.001756032    2.433    0.589
        88 -10.8728    245.1162    168.6547   6.4323744657e+01   3.5953245076e-01    0.3557165    0.3121369  55.08  0.002247835    1.557    0.358
        89 -10.3474    240.6118    163.9835   6.4131138892e+01   1.8401003879e+00    0.3524888    0.2037639 -49.54  0.001188218    2.009    0.502
        90 -10.2144    237.7367    158.6828   6.3528151348e+01   3.1976437395e+00    0.2935438     0.215995 -47.08  0.001266279    1.438    0.305
        91  -9.5779    212.0083    169.0213   7.0287196702e+01   5.8051302143e+00    0.2077815    0.1720575 -67.46 0.0009616098    1.681    0.405
        92  -9.6566    205.3872    168.6204   7.1482694282e+01   7.0577265167e+00    0.2714727    0.1189115 -52.35 0.0009461255    3.267    0.694
        93 -10.1083    191.4935    165.5415   7.3628428335e+01   1.0196184191e+01    0.3026676    0.1376987 -42.10  0.001101947    2.132    0.531
        94  -9.8729    199.4765    164.4951   7.1784745885e+01   8.9064731244e+00    0.2543274    0.1303393 -50.22  0.001032085    2.243    0.554
        95 -10.2126    213.0676    163.2129   6.8872534948e+01   6.6668206590e+00    0.3208023    0.1875392 -42.15   0.00146223    1.636    0.389
        96 -10.0866    246.8527    162.1013   6.2721704192e+01   1.1543422442e+00    0.2887121    0.1586296 -42.94  0.001145876    1.717    0.418
        97 -10.2634    245.7681    157.5188   6.1967096278e+01   2.0791256379e+00    0.3099194    0.1642336 -40.24  0.001274473    1.667    0.400
        98 -10.0144    205.2422    161.4755   7.0005192738e+01   8.4076135362e+00     0.287648    0.1871163 -37.97  0.001403965    1.444    0.307
        99 -10.1429    218.8237    168.2965   6.8856628243e+01   4.7445916218e+00    0.3445138    0.1845314 -43.94  0.001425846    1.846    0.458
       100  -9.9435    159.0000    160.0181   7.9574318646e+01   1.7611115553e+01    0.2537299   0.08541291 -46.03 0.0008063749    2.970    0.663
       101  -9.9032    197.0127    157.4710   7.0773015342e+01   1.0706968606e+01    0.2419385    0.1856248 -36.99 0.0009930904    1.237    0.192
       102  -9.4918    226.4928    156.9825   6.5109110767e+01   5.4035017217e+00    0.2160182    0.1226125 -38.83  0.001029691    1.589    0.371
       103  -9.2517    222.2509    156.9500   6.5857533837e+01   6.1546833653e+00    0.1858743     0.108203 -38.65 0.0007464972    1.561    0.359
       104  -9.6350    216.3544    156.4510   6.6825437965e+01   7.2998942372e+00    0.2406207    0.1624628 -53.98  0.001153682    1.770    0.435
       105  -9.6160    187.5981    155.6293   7.2300429202e+01   1.2882134562e+01    0.2912123    0.1361105 -37.54  0.001129017    2.134    0.531
       106  -9.4206    212.3370    155.6970   6.7411589235e+01   8.1698785847e+00    0.1352571    0.1137194 -77.54 0.0002682615    1.667    0.400
       107  -9.5819    205.5249    153.4934   6.8231444855e+01   9.8474677553e+00    0.2046183     0.179675 -73.35 0.0007751305    1.457    0.314
       108  -9.3939    202.6018    151.2553   6.8309028434e+01   1.0825368807e+01    0.2076034     0.184664 -41.38  0.001154398    1.133    0.118
       109  -9.8699    241.8053    153.1298   6.1708251220e+01   3.4568082463e+00    0.2749514    0.1944975 -37.48 0.0008884554    1.246    0.197
       110 -10.4320    244.4819    149.5600   6.0538259509e+01   3.6100399975e+00    0.3769431    0.2347387 -52.42  0.001684029    1.888    0.470
       111  -8.9835    179.3450    153.7063   7.3628765557e+01   1.4893805691e+01    0.1468427    0.1214103  87.28 0.0004398116    1.664    0.399
       112  -9.7541    249.8499    151.5529   6.0101149271e+01   2.4030047689e+00    0.2691895    0.1489604 -47.87  0.001316187    1.897    0.473
       113 -10.2246    229.5044    148.0238   6.2688693117e+01   6.4427407389e+00     0.258531    0.1594925 -31.52 0.0008402886    1.489    0.329
       114  -9.6425    221.2525    151.9803   6.4978698851e+01   7.2189467419e+00    0.2024269    0.1672169 -32.85 0.0008811974    1.096    0.088
       115  -9.3986    211.6575    151.2066   6.6568493285e+01   9.1215038041e+00    0.2077041    0.1220658 -31.13 0.0007751599    1.674    0.403
       116  -9.6359    215.5292    148.5753   6.5279779625e+01   8.8828939329e+00    0.2604554    0.1214972 -48.48  0.001031365    2.330    0.571
       117 -10.9477    234.9677    146.6873   6.1484738937e+01   5.7147810419e+00    0.4284703    0.2740061 -41.92  0.001569043    1.426    0.299
       118 -10.1463    223.7274    146.5749   6.3377891068e+01   7.7357829156e+00    0.3307041    0.2055479 -41.23    0.0016337    1.473    0.321
       119 -10.2695    207.6808    144.8938   6.5929457298e+01   1.1048778922e+01    0.2916335    0.1230085 -34.07  0.001079187    2.452    0.592
       120  -9.7140    247.4914    144.4760   5.9012002690e+01   3.9566944632e+00    0.2402828    0.1727804 -67.08  0.001246398    2.106    0.525
       121 -10.7100    243.4522    140.7263   5.8859449741e+01   5.2647808384e+00    0.4562746    0.1682737 -42.32  0.001838048    2.397    0.583
       122 -10.6411    242.2199    133.9140   5.7613149196e+01   6.6276403322e+00    0.4388202    0.2065183 -46.94  0.001863096    2.086    0.521
       123  -9.2879    155.5166    143.4877   7.6709424092e+01   2.1884589962e+01    0.1524429    0.1503318 -28.68 0.0008101414    1.030    0.030
       124 -10.3773    230.4893    141.0920   6.1037059312e+01   7.4794836522e+00    0.3435748    0.1409606 -47.47  0.001326507    2.584    0.613
       125  -9.7019    182.0097    142.0202   7.0418946855e+01   1.6724670367e+01    0.2411162    0.1882658 -74.46  0.001130641    1.736    0.424
       126  -9.6348    147.5254    142.4957   7.8404816044e+01   2.3745213502e+01      0.15396    0.1504596 -15.46 0.0008101228    1.006    0.006
       127 -10.1874    238.8990    140.3956   5.9510909893e+01   6.1077590738e+00    0.2361759    0.1653824 -44.01 0.0008223839    1.330    0.248
       128  -9.6058    224.2721    139.9926   6.1854845716e+01   8.8091241274e+00    0.2072373    0.1617144 -35.43 0.0007706648    1.144    0.126
       129  -9.0291    166.0000    139.9727   7.3458095215e+01   2.0462828646e+01    0.2504202   0.08588782 -43.79 0.0006684204    2.854    0.650
       130  -9.8322    218.5468    137.8082   6.2373247399e+01   1.0275332194e+01    0.2527002    0.1926498 -29.15  0.001345327    1.226    0.184
       131  -9.0306    200.6505    145.3088   6.7371712057e+01   1.2335885074e+01    0.1439644    0.1171747 -80.67 0.0006433354    1.711    0.415
       132  -9.3346    172.5011    137.9949   7.1539270802e+01   1.9518180232e+01     0.220349    0.1317953 -63.90 0.0008105619    2.567    0.610
       133 -10.7838    234.6438    135.5379   5.9157650963e+01   7.6967599411e+00    0.4060687    0.2137201 -51.45  0.001788325    2.158    0.537
       134  -9.8094    249.0620    135.6171   5.6930073441e+01   5.1631484318e+00    0.2375595    0.1551873 -43.37  0.001105891    1.369    0.269
       135  -9.0356    192.7165    136.6396   6.6969999594e+01   1.5601354625e+01    0.1530641    0.1142404  -6.93 0.0007018566    1.677    0.404
       136  -9.3870    187.6511    135.7815   6.7797313918e+01   1.6811804977e+01    0.2199461    0.1325131 -48.73 0.0009444371    1.696    0.411
       137 -10.5667    224.6383    133.3363   6.0332252205e+01   9.9262014530e+00    0.3419016    0.2619285  63.92  0.001825872    1.658    0.397
       138 -10.9527    248.6695    129.7190   5.5753696581e+01   6.2083211130e+00    0.4221226    0.3236485 -49.24  0.002485812    1.281    0.220
       139 -10.3438    249.1121    124.0831   5.4503443145e+01   7.0647366550e+00    0.2260122    0.1850091 -79.72  0.001279501    1.598    0.374
       140 -10.7078    248.0716    119.1074   5.3600771711e+01   8.0702695559e+00    0.3726818    0.1690654 -40.36  0.001390049    1.854    0.461
       141  -9.9842    205.5959    130.3066   6.3024425831e+01   1.4196950111e+01    0.2851074    0.1294238 -43.31  0.001124175    2.064    0.516
       142 -10.9260    240.5739    125.8038   5.6133426901e+01   8.2934547031e+00    0.5190578    0.2301609 -36.62  0.002137404    1.981    0.495
       143 -10.4515    238.9924    121.4830   5.5441009380e+01   9.3138402713e+00    0.2370649    0.1964443 -74.75 0.0008159676    1.482    0.325
       144  -9.7182    234.0182    128.8651   5.7814146774e+01   8.9641778429e+00    0.2652483    0.1525911 -48.07  0.001261843    1.703    0.413
       145 -10.0896    198.4676    131.9147   6.4744903369e+01   1.5340051617e+01    0.2298979     0.137368 -40.95 0.0007978505    1.568    0.362
       146  -9.6338    192.4395    129.0556   6.5255389541e+01   1.7137704619e+01    0.2357856    0.1392371 -41.34  0.001004674    1.600    0.375
       147  -9.3234    172.0000    129.0398   6.9515310807e+01   2.1473472881e+01    0.2581946   0.08529225 -42.35  0.000801419    2.935    0.659
       148  -9.0399    186.2818    128.6731   6.6403231678e+01   1.8505781269e+01     0.149169    0.1180693 -72.17  0.000700111    1.600    0.375
       149 -10.1933    227.8130    123.9916   5.7739455047e+01   1.0975023561e+01    0.4992431    0.1577996 -39.13  0.001772103    2.790    0.642
       150  -9.9043    179.5830    124.0126   6.6668178763e+01   2.0862700437e+01     0.341814    0.1433245 -41.41  0.001228863    2.291    0.563
       151  -9.3128    170.0000    123.9823   6.8720512221e+01   2.2943752777e+01    0.2509591   0.08565608 -42.09  0.000648473    2.845    0.648
       152  -9.0889    164.5518    124.4696   7.0057136569e+01   2.4026510249e+01    0.1537285    0.1483186 -59.12 0.0002719091    1.067    0.063
       153 -10.1463    235.1812    122.7242   5.6293674410e+01   9.8066414438e+00    0.2476548    0.1641104 -46.05 0.0009675167    1.388    0.280
       154  -9.2233    188.2830    122.6583   6.4558493833e+01   1.9261787029e+01    0.1513368    0.1166134 -70.31 0.0003847912    1.634    0.388
       155 -10.2874    143.0000    131.0005   7.6801484976e+01   2.7234943497e+01    0.2637117   0.08812431 -45.76 0.0008040189    2.953    0.661
       156  -9.4862    194.3884    121.2024   6.3010221763e+01   1.8243068653e+01    0.2206101    0.1309584 -48.75 0.0008446724    1.699    0.411
       157 -10.4567    231.5041    119.9963   5.6267327646e+01   1.0967652046e+01    0.3039925    0.1212527 -39.09 0.0008493327    2.194    0.544
       158  -9.6482    242.9769    119.0155   5.4316496872e+01   9.0014363266e+00    0.2151451    0.1472261 -59.72  0.001119721    1.701    0.412
       159 -10.1805    218.2407    119.2038   5.8242095245e+01   1.3692146488e+01     0.279706    0.2023967  64.74  0.001052199    1.693    0.409
       160  -9.4326    209.1807    118.1936   5.9569488307e+01   1.5712459914e+01    0.1983943    0.1595652 -58.15 0.0005043684    1.318    0.241
       161 -11.7312    230.9678    109.7151   5.4067422379e+01   1.2836937911e+01    0.4012401    0.3041198 -79.88  0.002132154    1.715    0.417
       162 -10.9171    218.7854    110.8148   5.6229771896e+01   1.5072519895e+01     0.583023    0.1841848 -43.91  0.002005935    2.916    0.657
       163  -9.1875    173.6073    113.8072   6.5401970634e+01   2.4207052489e+01    0.2194361    0.1390917 -49.88 0.0009430347    1.618    0.382
       164 -10.0662    247.6478    112.5820   5.2273814301e+01   9.2210335544e+00    0.2581842    0.1381681 -40.61 0.0007514027    1.576    0.365
       165 -11.1076    243.2028    108.5254   5.2024407076e+01   1.0704700997e+01     0.410078     0.189018 -56.39  0.001581205    3.049    0.672
       166  -9.3240    201.3846    109.2119   5.8829022487e+01   1.8998067455e+01    0.2122228    0.1271375 -47.43 0.0007238546    1.619    0.382
       167  -9.5643    189.6177    108.2376   6.0773144195e+01   2.1738507247e+01    0.2109568    0.1381033 -31.04 0.0008659188    1.590    0.371
       168  -9.6294    160.8211    107.6552   6.6620526064e+01   2.8301351293e+01    0.3095403    0.1161404 -39.18  0.001013861    2.689    0.628
       169 -10.5305    247.8280    105.3945   5.0716889948e+01   1.0362139714e+01    0.5222553    0.1096288 -45.57  0.001509887    4.768    0.790
       170  -9.7590    222.5372    105.2789   5.4360388454e+01   1.5275963240e+01    0.2820912    0.1197076 -42.40  0.001140566    2.097    0.523
       171  -9.6474    205.5603    105.0013   5.7083257285e+01   1.8867568660e+01     0.226725    0.1329035 -39.78  0.001020883    1.579    0.367
       172  -9.1796      7.4988    105.4704   1.1271721371e+02   5.3062080197e+01    0.1265167    0.1034981 -65.58  6.89937e-05    1.025    0.024
       173 -11.2632    229.6238    102.4528   5.2641705203e+01   1.4333655306e+01     0.353039    0.2006299 -42.91  0.001102785    1.551    0.355
       174  -9.2132    218.4361    104.2424   5.4768581753e+01   1.6294651500e+01    0.2048019    0.1190441 -48.34 0.0009387654    1.644    0.392
       175  -9.4803    200.5741    102.9957   5.7469707486e+01   2.0305018973e+01    0.2231718     0.134754 -39.45 0.0006526805    1.550    0.355
       176 -10.3249    141.1821    102.2061   6.9819706467e+01   3.3824700976e+01    0.3530389    0.1167737 -36.89  0.001017109    3.532    0.717
       177  -9.3774    176.0000    101.9215   6.1867977316e+01   2.5984521511e+01    0.2521183   0.08412167 -39.53 0.0007975127    2.908    0.656
       178 -14.1178    236.1078     87.5339   4.8401100911e+01   1.5493327449e+01     2.171165    0.7612834 -49.21  0.008066255    2.943    0.660
       179 -13.0503    226.6325     55.0846   4.2324665688e+01   2.2380369586e+01    0.7838921     0.308409 -36.09  0.003361756    2.356    0.575
       180  -9.7324    224.4721    248.4532   8.2485962000e+01  -8.5686414356e+00    0.1716341    0.1078146 -43.56 0.0009462865    2.108    0.526
       181  -9.3486    164.5893     93.7754   6.2101906625e+01   3.0149839013e+01    0.2241631     0.138435 -49.35 0.0009551674    1.676    0.403
       182 -11.7640    226.2013     87.7138   4.9795853575e+01   1.7476182564e+01    0.6174668    0.2336146 -34.21  0.002358621    2.630    0.620
       183  -8.9627    135.6818     97.3224   6.9856304384e+01   3.6049797184e+01    0.1569626    0.1243986 -83.75 0.0005740298    1.668    0.401
       184  -9.0276    188.6846     92.3551   5.6960126515e+01   2.4865892983e+01     0.156365    0.1112615 -69.89 0.0007045393    1.742    0.426
       185  -9.3700    168.1444    249.6277   9.3414019246e+01  -8.0127445947e-01    0.1796633   0.09929336  26.18 0.0004116101    1.681    0.405
       186  -8.7672    210.3128     91.3019   5.3013558601e+01   2.0242829569e+01    0.1366245    0.1119257   9.60 0.0007018723    1.611    0.379
       187 -10.1700    171.5535     90.6861   5.9823852776e+01   2.9109796283e+01    0.2730017    0.1469974 -35.21 0.0008868999    1.901    0.474
       188  -9.3474    157.7690     89.9696   6.2545585493e+01   3.2450440655e+01    0.2058344    0.1256938 -38.60 0.0008765194    1.634    0.388
       189 -10.1765     25.0496     90.0635   1.0385358764e+02   5.5466155627e+01    0.1984784    0.1634272 -45.09 0.0004024535    1.048    0.046
       190  -8.9392    203.2929     89.6662   5.3752685481e+01   2.2058987264e+01    0.1488693    0.1052997 -66.55 0.0007024556    1.638    0.389
       191  -9.3639    197.6189     86.8130   5.3994114549e+01   2.3815237836e+01    0.2165519    0.1228067 -47.41 0.0009500196    1.709    0.415
       192  -9.3824    150.5247     87.5048   6.3488383108e+01   3.4598166960e+01    0.1501978    0.1485931 -76.94 0.0008101068    1.016    0.015
       193  -9.4127     30.2473     86.9996   1.0125583136e+02   5.5727253829e+01    0.1742725   0.09814505 -58.31 0.0003954907    1.534    0.348
       194  -9.3702    206.0000     84.0616   5.1948667434e+01   2.2409528994e+01     0.237388   0.07623871 -37.05 0.0008009137    2.932    0.659
       195  -9.3507    200.4645     82.9386   5.2559695089e+01   2.3832872595e+01    0.2170433    0.1327222 -40.10 0.0007190227    1.539    0.350
       196  -9.4589    170.4855     83.4852   5.8103870471e+01   3.0659973574e+01    0.1496239    0.1417799 -73.12 1.426699e-05    1.050    0.048
       197 -12.4494    229.9397     80.4842   4.7643648985e+01   1.7865133905e+01    0.7287674    0.2493784 -41.07  0.002852563    2.494    0.599
       198  -9.7402    159.3935     81.7226   5.9901880763e+01   3.3585505942e+01    0.2973157    0.1375125 -42.45  0.001131296    2.146    0.534
       199  -9.5620    143.0000     81.0001   6.3377689960e+01   3.7556424643e+01    0.2525731   0.08606926 -38.63 0.0008051401    2.961    0.662
       200  -9.6520    214.8585     79.8566   4.9595203392e+01   2.1158259838e+01    0.2014759    0.1847691 -23.27 0.0006087092    1.215    0.177
       201  -9.5385    150.4905     79.5001   6.1217050737e+01   3.6080036501e+01    0.1487833    0.1463165  86.55 -8.450302e-05    1.019    0.019
       202  -9.6186    201.1674     77.9974   5.1222705088e+01   2.4494729584e+01    0.2441134     0.141315 -57.25  0.000907872    1.937    0.484
       203  -8.9057    189.0000     77.9688   5.3219511337e+01   2.7283860164e+01    0.2412698   0.07979237 -36.57 0.0008029203    2.946    0.661
       204  -9.9287    174.5482     77.2881   5.5641652165e+01   3.0781291039e+01    0.2820312    0.1360446 -41.33 0.0009133702    2.017    0.504
       205  -9.8802    166.7150     77.7605   5.7291273788e+01   3.2553098514e+01    0.2679164    0.1818405 -34.83 0.0009476166    1.505    0.336
       206  -9.2947    218.8100    248.2323   8.3483457335e+01  -7.7946107170e+00    0.1612091    0.1313964  69.17 0.0009407183    2.721    0.633
       207  -9.7963    211.5193     75.7538   4.9104531139e+01   2.2548043452e+01    0.2587261    0.1330092 -32.41  0.001122526    2.009    0.502
       208 -10.0830    157.4265     75.7142   5.8624962979e+01   3.5110739323e+01    0.2912595     0.137099 -42.42  0.001127918    2.125    0.529
       209  -9.7845    216.7768     73.2677   4.7766557796e+01   2.1790847440e+01    0.2037206    0.1579254  13.95  0.001049924    1.920    0.479
       210  -9.1912    206.4421     73.4998   4.9307939345e+01   2.4035334257e+01    0.1402637    0.1263716 -62.14  0.000439741    1.019    0.019
       211 -11.0068    195.7634     72.0779   5.0598377858e+01   2.6687376151e+01     0.317902    0.2093578 -38.56 0.0009891016    1.469    0.319
       212  -9.5672    185.1896     72.7933   5.2529876892e+01   2.9027310997e+01    0.1889613    0.1715369   6.11 0.0005180635    1.310    0.237
       213  -9.7472    221.9603     71.0023   4.6536018793e+01   2.1023928879e+01    0.2186446    0.1418625 -62.01  0.000702251    1.613    0.380
       214  -9.7222    163.4534     70.9981   5.6057501161e+01   3.4477921152e+01    0.2307707    0.1437715 -36.90  0.001039171    1.622    0.384
       215  -9.2166    135.6386     71.2984   6.2251471833e+01   4.1004783037e+01    0.1527667    0.1184628 -84.03 0.0007034328    1.715    0.417
       216  -9.3406    214.4667     69.9917   4.7312854859e+01   2.2806178801e+01    0.2114106    0.1218381 -41.79  0.001014933    1.583    0.368
       217  -9.8525    218.5154     68.2679   4.6357907052e+01   2.2186884532e+01    0.2554907    0.1139895 -42.13 0.0006429726    1.998    0.499
       218 -10.0306    203.5353     66.2631   4.7964202790e+01   2.5824849129e+01    0.2693465    0.1207848 -41.07  0.001128982    2.056    0.514
       219  -9.3568    212.4368     66.0014   4.6643450059e+01   2.3867016679e+01    0.2064354    0.1254206 -37.89 0.0009372075    1.562    0.360
       220  -9.3166    197.4444     63.9409   4.8287442760e+01   2.7575722807e+01    0.2058029   0.09956498 -55.46 0.0008066798    2.434    0.589
       221  -9.3170    208.3864     63.2671   4.6544456301e+01   2.5185479063e+01    0.1920376    0.1157655 -46.29 0.0005795798    1.540    0.351
       222  -9.5631    157.8583     61.5514   5.4472359636e+01   3.7348943964e+01    0.2484571    0.1699828 -41.78  0.001197512    1.484    0.326
       223  -9.6696    221.3824     59.7284   4.4009106347e+01   2.2841018911e+01    0.1770439    0.1220725 -30.19 0.0007572329    1.558    0.358
       224  -9.8603    206.4734     58.8152   4.5728525562e+01   2.6280532683e+01    0.3174335    0.1339655 -31.93  0.001231655    2.515    0.602
       225  -9.5166    138.5447     66.4951   6.0098054334e+01   4.1148741967e+01    0.1456368    0.1423878  53.99  0.000808917    1.016    0.015
       226  -8.8443    175.3178     55.3236   4.9538770266e+01   3.4091558483e+01    0.1421236    0.1091293  26.96 0.0005667263    1.670    0.401
       227  -9.4980    139.6579     55.3226   5.6406824039e+01   4.2672858565e+01    0.1496378    0.1123099 -76.46 0.0007050555    1.727    0.421
       228  -9.3705    157.5590     54.4950   5.2482032921e+01   3.8498384999e+01    0.1413746    0.1356126  68.42 9.921027e-05    1.021    0.021
       229  -9.7115    131.0000     54.0024   5.7959854428e+01   4.4915949753e+01    0.2297209   0.08273786 -33.88 0.0007930312    2.913    0.657
       230  -9.2585    162.7657     45.0144   4.8795378118e+01   3.8585880623e+01    0.1836146    0.1170234 -33.54 0.0008860028    1.650    0.394
       231 -10.1512    221.3756     97.6445   5.2784386838e+01   1.6821238124e+01    0.2698655    0.1539164 -37.15 0.0007265171    1.611    0.379
       232  -9.4110    169.0000     44.0572   4.7476520126e+01   3.7205324806e+01    0.2201865   0.07907674 -31.82 0.0008004754    2.929    0.659
       233  -8.7816    200.6620     42.6851   4.2552382556e+01   2.9874752074e+01    0.1308416    0.1014732  34.26 0.0007047493    1.697    0.411
       234  -9.7678    210.1871    247.7595   8.5005809835e+01  -6.5679710066e+00    0.2673543    0.1329278  46.61  0.001273059    2.812    0.644
       235  -9.0000    208.6525     39.2914   4.0762675740e+01   2.8495301023e+01    0.1396127   0.08809048 -69.69  0.000491879    1.665    0.399
       236  -9.1498    233.3283    247.6665   8.0770474867e+01  -9.6034994460e+00   0.09873127   0.09165787  35.28  0.000705183    1.720    0.419
       237 -10.6927    217.6049     34.2225   3.8598240262e+01   2.7143696161e+01    0.1656817    0.1208313 -26.23 0.0009481663    1.618    0.382
       238  -9.4963    194.7620     32.9878   4.0891120575e+01   3.2490293209e+01    0.1686451    0.1075711 -34.88 0.0008819165    1.618    0.382
       239  -9.7627    125.7198     29.8887   5.1231241982e+01   4.9412815502e+01    0.2475589     0.165703 -31.98  0.001071331    1.618    0.382
       240  -9.5521    176.0228     96.9809   6.0581386494e+01   2.6911825545e+01    0.1810209    0.1716457 -47.57 0.0004486323    1.024    0.023
       241 -10.2099     30.5689     28.1439   8.2577609543e+01   6.7356828701e+01    0.2167306    0.1490792   7.83 0.0007281023    1.355    0.262
       242  -8.8658     42.2958     27.7015   7.6966233440e+01   6.5942882942e+01    0.1023739    0.1019217 -70.86 0.0002623781    1.570    0.363
       243 -10.6100    209.9596     25.9827   3.7501190397e+01   2.9853951924e+01    0.1968802    0.1599611 -75.15 0.0004356765    1.072    0.067
       244 -11.3043    235.4387     95.3802   5.0229830704e+01   1.4356491930e+01    0.2454427     0.190866 -54.84 0.0008731507    1.205    0.170
       245  -9.2060     68.3110     24.6543   6.5226900842e+01   6.2204526528e+01    0.1161025    0.1041739 -70.36  0.000618302    1.707    0.414
       246  -9.4626    147.5119     19.9999   4.3990018767e+01   4.5299077106e+01    0.1875057    0.1333593 -27.12 0.0008535221    1.580    0.367
       247  -9.2656    155.6799     16.3324   4.1644902302e+01   4.3703854707e+01    0.1373129   0.09220047 -69.10 0.0007049039    1.696    0.411
       248  -8.9732     23.4766     15.5062   8.0486745786e+01   7.0063890281e+01    0.1189627   0.09055158  -7.54 0.0008101828    1.009    0.009
       249  -9.3278    202.6245     97.8486   5.5861267096e+01   2.0778579420e+01     0.215862    0.1228647 -47.54 0.0009458667    1.699    0.411
       250 -10.3643    175.9951    247.0126   9.1478914102e+01  -1.5669844402e+00    0.1875384    0.1486933  57.91  0.001146149    1.721    0.419
       251  -9.8379    225.1137    243.6420   8.1595830727e+01  -8.0187403149e+00    0.1821532    0.1536287 -18.46  0.000838426    1.318    0.241
       252  -9.9885    202.1177    242.4329   8.5689695267e+01  -4.6943895491e+00    0.2132719    0.1668876 -55.39  0.001265597    1.976    0.494
       253  -9.5649    177.5410    242.4709   9.0494014548e+01  -1.0991750800e+00    0.1271792    0.1044413  17.86 1.518593e-05    1.026    0.025
       254  -9.9764    183.9722    240.5937   8.8930614143e+01  -1.7722068458e+00    0.3156816    0.1929681  53.45  0.001580477    2.392    0.582
       255  -9.7809    194.9361     97.0220   5.7003037410e+01   2.2622963641e+01    0.2313217    0.2130113 -39.69  0.001075436    1.055    0.052
