#   1 NUMBER                 Running object number                                     
#   2 MAG_AUTO               Kron-like elliptical aperture magnitude                    [mag]
#   3 X_IMAGE                Object position along x                                    [pixel]
#   4 Y_IMAGE                Object position along y                                    [pixel]
#   5 X_WORLD                Barycenter position along world x axis                     [deg]
#   6 Y_WORLD                Barycenter position along world y axis                     [deg]
#   7 A_WORLD                Profile RMS along major axis (world units)                 [deg]
#   8 B_WORLD                Profile RMS along minor axis (world units)                 [deg]
#   9 THETA_WORLD            Position angle (CCW/world-x)                               [deg]
#  10 FWHM_WORLD             FWHM assuming a gaussian core                              [deg]
#  11 ELONGATION             A_IMAGE/B_IMAGE                                           
#  12 ELLIPTICITY            1 - B_IMAGE/A_IMAGE                                       
         1 -13.7855     68.7490    144.3337   9.6551200217e+01   3.7495850840e+01     3.594078     1.875132  87.21  0.003164554    4.778    0.791
         2 -13.5730    203.3911     42.5880   3.9656578277e+01   2.9221795923e+01     1.377876      1.20943  21.82  0.005918075    1.624    0.384
         3 -13.4664    215.2542     31.9953   3.6026659445e+01   2.7990513155e+01    0.8824986    0.7477317  47.88  0.002711465    1.552    0.356
         4 -11.4334      1.9526     13.3620   8.7583885632e+01   7.2524559782e+01    0.7402363    0.1455344 -48.63   0.00277447    4.895    0.796
         5 -12.8320    241.3518      6.6297   2.8857866496e+01   2.5573881292e+01    0.7803032    0.5677994 -77.23  0.005247965    1.074    0.069
         6  -9.4844     60.6085      2.8422   5.4897988019e+01   6.5653994165e+01    0.1526305    0.1052374 -32.15  0.000947452    1.737    0.424
         7 -10.6051    191.7112    192.4280   7.5051570683e+01   4.8862373494e+00    0.6705809    0.4075851 -72.30  0.002180226    5.147    0.806
         8 -10.0063    139.4866    250.1306   9.5521734729e+01   2.7644909729e+00    0.2795904     0.139116  46.55  0.001338068    1.986    0.496
         9 -10.4289    102.0000    248.5065   1.0321765804e+02   8.6349750758e+00    0.3348128    0.1706983 -59.33  0.001307899    2.260    0.558
        10 -11.5126    101.3286    242.9900   1.0273052614e+02   9.7844928206e+00    0.6421075    0.2677088 -54.69  0.001966984    2.689    0.628
        11 -15.0723      4.7698    157.0845   1.1661946035e+02   4.1155556039e+01     7.256009     1.034956 -73.12   0.02079637    5.272    0.810
        12  -9.9791    122.5458    199.0870   9.1768433439e+01   1.5534901731e+01    0.3464361    0.2482649 -80.68  0.001303079    1.839    0.456
        13  -8.5877     66.7918    196.8069   1.0510325533e+02   2.4778605371e+01    0.1947146    0.1439711  68.24 0.0005066243    1.345    0.256
        14  -9.3987    149.1106    190.9318   8.4063503733e+01   1.2644358210e+01     0.514236    0.2918848 -69.31  0.001900706    3.122    0.680
        15 -14.7752      9.0912    207.7308   1.1953193514e+02   2.8868273361e+01     1.429113     1.105358 -37.73  0.004751845    1.842    0.457
        16  -9.6411     80.9284    182.0248   9.9476833362e+01   2.6284206336e+01    0.3506498    0.2956107 -81.58  0.001514812    1.180    0.153
        17  -9.5971     99.3728    180.7106   9.4478680298e+01   2.3673286482e+01     0.259974     0.244597  11.53 0.0006249084    1.170    0.145
        18 -10.8842    239.0009    176.7206   6.3238057876e+01   8.3927642778e-02     0.240762    0.2115144  72.36  0.001504962    1.701    0.412
        19  -9.1341     86.5232    176.4814   9.7138810937e+01   2.6771931628e+01    0.2083996    0.1768819 -18.32 0.0005419911    1.457    0.313
        20 -10.0899     89.5232    174.0478   9.5942194091e+01   2.6890647475e+01    0.2594039    0.2313676  19.45 0.0008271948    1.244    0.196
        21  -9.8008    186.2096    174.0779   7.2580915789e+01   9.3672078236e+00    0.3432305    0.3216075 -63.33  0.001977752    1.237    0.192
        22 -12.2365     78.9886    158.7273   9.6189353753e+01   3.2343542827e+01     1.105461    0.5694351  55.60 0.0004499468    2.453    0.592
        23 -12.7610     66.7533    154.1673   9.8881779416e+01   3.5296432050e+01    0.6107395    0.4665403 -48.82 0.0008963946    1.320    0.243
        24 -11.3751    115.4546    246.1179   1.0008206502e+02   7.0928565394e+00    0.4003912    0.3005628 -38.17  0.002368677    1.643    0.391
        25 -11.4397     70.0640    167.1394   1.0007651971e+02   3.1561703313e+01    0.4662352    0.3044738 -46.33  0.001074799    1.641    0.390
        26 -11.0827    241.1066    169.4722   6.1492292518e+01   9.7530236423e-01    0.3097704    0.2191177  56.40  0.001385843    2.014    0.503
        27  -8.2994    110.5358    167.4951   8.9199629306e+01   2.4922372047e+01    0.1512338    0.1444983  72.74 0.0002333686    1.044    0.042
        28  -8.3722    102.8085    164.8188   9.0747096598e+01   2.6926501558e+01    0.2020168    0.1703594  74.32 0.0003256676    1.293    0.226
        29  -9.9042     34.8458    160.9147   1.0890805628e+02   3.7520874234e+01    0.3310554    0.1911077  46.51  0.001535648    1.779    0.438
        30 -10.5807     31.2866    155.3925   1.0919934440e+02   3.9272478788e+01    0.4280198    0.3327442  53.73  0.001928797    1.325    0.245
        31 -11.4794     86.2638    152.3528   9.2958204915e+01   3.2787925407e+01    0.6394631    0.4584653 -19.11  0.001582411    1.946    0.486
        32 -10.4516    133.5952    144.5561   7.8400480409e+01   2.5963872158e+01     1.280944    0.2901744 -53.56  0.002738466    6.644    0.849
        33  -9.0102    174.8308    149.2473   6.9736682226e+01   1.6578912558e+01    0.2364705     0.194804  68.12 0.0008339021    1.461    0.315
        34  -7.9922    112.0206    150.0000   8.5294834483e+01   2.8862967040e+01    0.2485846   0.08756839  38.16 0.0006272494    2.851    0.649
        35 -10.6174     54.2670    147.8741   1.0146964745e+02   3.8564119506e+01    0.4099208    0.3775705 -16.72  0.002376872    1.242    0.195
        36  -9.3858     32.3194    144.1156   1.0739111597e+02   4.2004720055e+01    0.3724007    0.1401304  45.69   0.00143124    2.994    0.666
        37 -10.2968    101.0034    138.3705   8.5860418535e+01   3.3705298225e+01    0.5492233     0.363515 -21.79  0.002219431    2.223    0.550
        38 -11.6053     88.0578    137.7675   8.9499198447e+01   3.6117463376e+01    0.3013401    0.2705764 -37.55 0.0003873422    1.146    0.127
        39 -10.0133    105.8795    130.8431   8.2758503812e+01   3.4617015102e+01    0.3652699    0.3231292 -58.14  0.001261268    1.130    0.115
        40  -9.6022    110.2258    129.5767   8.1225742974e+01   3.4088264232e+01    0.3520347    0.2597561   9.83  0.001038593    1.815    0.449
        41  -9.7599    133.3032    128.3084   7.4679522901e+01   2.9729320697e+01    0.2211949     0.189351  88.92 0.0005055283    1.368    0.269
        42 -10.0065     44.0132    129.6574   1.0150660407e+02   4.4398702150e+01    0.1897618    0.1866606 -21.65 0.0007899997    1.112    0.101
        43 -14.8118     36.7228    193.1046   1.1203161260e+02   2.9426818088e+01     4.637094     1.879993  71.27   0.01283307    4.228    0.763
        44 -10.0828     97.8069    124.8982   8.3712619315e+01   3.7536623821e+01    0.3317325    0.2649629  10.99   0.00112884    1.496    0.332
        45 -11.2544    102.8461    171.7477   9.2012526954e+01   2.5241337673e+01    0.6593952      0.37326  47.39  0.002681253    1.800    0.444
        46 -10.3181     45.5430    124.4874   1.0007458532e+02   4.5515591231e+01    0.2532288    0.2312373 -58.94 0.0008042455    1.006    0.006
        47  -9.6811    116.4350    123.7577   7.8083595776e+01   3.4225134600e+01     0.274194    0.2015345  13.15  0.001193933    1.800    0.444
        48  -9.0097    135.0000    120.0143   7.2198440390e+01   3.1217801903e+01    0.2617762   0.08810604 -45.83 0.0008039481    2.953    0.661
        49 -10.2879     23.3415    119.5735   1.0649278409e+02   4.8962645553e+01    0.3344481    0.1669354  40.45  0.001560369    2.248    0.555
        50  -9.0053    107.1083    118.2387   7.9358764686e+01   3.7343932917e+01    0.2174719    0.2012443  -1.41 0.0003516131    1.156    0.135
        51  -8.2565     81.7816    116.5660   8.6634788091e+01   4.2334878073e+01    0.2072072    0.1391769  47.52 0.0005850143    1.613    0.380
        52  -9.8858    231.2684    113.6946   5.1678708653e+01   1.2253450724e+01    0.2531857    0.2363998 -62.55 0.0007361409    1.098    0.089
        53  -9.5612     39.7237    113.1966   9.9844271144e+01   4.8951549780e+01    0.2223529     0.179836  41.36 0.0006443644    1.373    0.272
        54  -9.1503    205.4992    110.2028   5.4954109131e+01   1.7943420385e+01    0.2371184    0.2010354  54.77 0.0006370801    1.276    0.216
        55 -10.0206     32.5166    108.7801   1.0146775761e+02   5.0764066970e+01    0.4137945    0.2527766  64.91   0.00145406    2.391    0.582
        56  -9.0798    135.0000    107.0302   6.8857309409e+01   3.4014021272e+01     0.259876   0.08755217 -44.06   0.00080605    2.968    0.663
        57  -9.6548    248.3306    106.6624   4.7888324769e+01   1.0331654233e+01    0.1336856   0.08745708 -64.66 0.0007052005    1.736    0.424
        58 -13.5261     49.7211    186.4202   1.0809575749e+02   2.9503463088e+01     1.607126     1.137437  74.10  0.008217358    1.416    0.294
        59  -8.9422    119.3313    103.6478   7.2090299024e+01   3.8110843956e+01    0.1603516    0.1234724 -89.40 0.0007046763    1.778    0.437
        60 -10.1898     38.5495    101.6010   9.7851025681e+01   5.1868465874e+01    0.3939518    0.1803936  43.86  0.001578065    2.689    0.628
        61  -9.4917     33.0840     97.2895   9.8902524385e+01   5.3446747074e+01    0.2633762    0.1746777 -81.38 0.0008562568    1.891    0.471
        62 -11.4404     65.3967    171.9588   1.0208267761e+02   3.1016366627e+01    0.4580643    0.3127187 -30.08  0.002144926    2.006    0.502
        63  -9.3986     52.8239     91.1758   9.0153700724e+01   5.2585401870e+01    0.2001274    0.1514994 -27.71 0.0002975689    1.332    0.249
        64 -10.2481    243.4026     94.2132   4.5980126155e+01   1.3236454415e+01    0.1939861   0.09889389 -48.56 0.0009521426    1.695    0.410
        65  -8.3236    152.3608     84.1972   5.8616304049e+01   3.4562463885e+01    0.2113745    0.1316178 -51.65 0.0003723202    1.705    0.414
        66  -9.7714     72.1486     83.1119   8.0945350648e+01   5.1480691514e+01     0.438768    0.2597621  57.59  0.001798312    2.600    0.615
        67  -9.1090     92.8270     67.1413   6.9059211422e+01   5.0819735925e+01    0.2124886    0.1961095 -82.74 0.0006675044    1.318    0.241
        68 -10.9505      1.8223     63.2935   1.0384470055e+02   6.3392376734e+01    0.5144495    0.1269629 -64.05  0.001908499    3.663    0.727
        69  -8.8151     50.7014     63.7098   8.2973579245e+01   5.8641784783e+01    0.1578387    0.1553691  81.78 0.0003392242    1.306    0.234
        70 -12.6893    193.6979     49.6975   4.2533088192e+01   3.0434756197e+01    0.8484366    0.5887756  52.43  0.001005482    1.575    0.365
        71  -7.9951     88.2752    209.3158   1.0151343793e+02   1.8778954477e+01    0.1297119    0.1074403 -24.53 0.0002119498    1.565    0.361
        72 -10.0602     13.4597     59.8842   9.7789346050e+01   6.3357901234e+01     0.208941    0.1822642  -9.64 0.0004415849    1.160    0.138
        73  -8.5995     73.5080     55.5630   7.1573945977e+01   5.6498955178e+01    0.1361164     0.123376  10.59 8.857607e-05    1.018    0.018
        74 -16.9121     14.2422    242.0562   1.2056467964e+02   2.1049273617e+01     6.594701     2.466075  23.72   0.02800924    4.069    0.754
        75 -13.4309     15.7606    216.0233   1.1866586164e+02   2.6385591720e+01    0.8319937    0.4593204  29.42  0.002960621    1.984    0.496
        76 -10.5235      2.1163     24.6015   9.2112291173e+01   7.0726512723e+01    0.3218012    0.1208924 -46.68   0.00113398    2.179    0.541
        77 -11.0995    197.1313    203.5474   7.6033986342e+01   1.9771791000e+00    0.3204125    0.2278174 -25.37  0.001750905    1.384    0.277
        78  -8.7751    189.4998     15.0488   3.4818712137e+01   3.5666535627e+01     0.169344    0.1185405 -37.44 0.0005128478    1.544    0.353
        79 -10.1086    111.0736    203.8779   9.5282198784e+01   1.6396416256e+01    0.2147301    0.1956215  52.30 0.0005185741    1.036    0.034
        80  -9.0282    198.1814     23.7944   3.5938700804e+01   3.2731922833e+01    0.1523254     0.148247  51.38 0.0006515497    1.348    0.258
