#   1 NUMBER                 Running object number                                     
#   2 MAG_AUTO               Kron-like elliptical aperture magnitude                    [mag]
#   3 X_IMAGE                Object position along x                                    [pixel]
#   4 Y_IMAGE                Object position along y                                    [pixel]
#   5 X_WORLD                Barycenter position along world x axis                     [deg]
#   6 Y_WORLD                Barycenter position along world y axis                     [deg]
#   7 A_WORLD                Profile RMS along major axis (world units)                 [deg]
#   8 B_WORLD                Profile RMS along minor axis (world units)                 [deg]
#   9 THETA_WORLD            Position angle (CCW/world-x)                               [deg]
#  10 FWHM_WORLD             FWHM assuming a gaussian core                              [deg]
#  11 ELONGATION             A_IMAGE/B_IMAGE                                           
#  12 ELLIPTICITY            1 - B_IMAGE/A_IMAGE                                       
         1 -12.4315    245.0807      5.8980   3.5579002033e+02   2.3980681015e+01    0.9839333    0.5743151 -73.27  0.006259308    1.524    0.344
         2 -11.4603    236.8015      9.1955   3.5691170855e+02   2.5265065458e+01    0.3733597    0.2477754 -26.47   0.00237282    1.670    0.401
         3 -10.7482      5.1159      9.7145   5.8435446233e+01   7.5666558499e+01    0.5052527    0.2230205 -11.49  0.002154159    3.189    0.686
         4  -8.6275     91.4534      8.9893   1.4661614130e+01   6.0229911100e+01    0.1827547    0.1014217 -50.50 0.0004663668    2.412    0.585
         5  -8.4553     55.9237      9.9781   2.6971049315e+01   6.8139416929e+01    0.1848553    0.1619278 -80.22 0.0005464715    1.678    0.404
         6  -8.8341     70.6466      6.3183   1.9431588711e+01   6.5375345647e+01    0.1912883    0.1551394 -71.48  0.001084909    1.700    0.412
         7  -8.9095     33.4344      5.2434   3.5535740469e+01   7.2849444833e+01    0.1648449    0.1139234 -39.16 0.0009529847    1.730    0.422
         8  -8.6314     79.4276      3.7949   1.5468136852e+01   6.3584662458e+01    0.2303953    0.1218115 -29.09  0.001113347    2.100    0.524
         9  -8.5184     44.6625      3.2976   2.8262310181e+01   7.1098290717e+01    0.1132899    0.1026809  87.98 0.0006996305    1.656    0.396
        10  -8.3796     62.5367      1.4522   1.9650110647e+01   6.7631019726e+01     0.129668    0.1118852  40.06 0.0008068948    1.059    0.055
        11  -9.5623     34.6967    247.6628   8.4248280487e+01   1.8720911323e+01    0.2534646   0.09941699  37.14  0.001333674    1.843    0.457
        12 -10.1061    241.8831    237.5563   4.1362706832e+01  -6.0069512180e+00     0.527715    0.2246492 -12.44   0.00245111    3.345    0.701
        13  -9.3314    247.9794    234.0235   3.9830451084e+01  -6.2678736890e+00    0.2496326    0.1436453 -11.28  0.001216232    1.470    0.320
        14 -10.2052    246.9872    227.7105   3.9000527629e+01  -5.4388688919e+00    0.5067452    0.1844883 -26.64  0.002471903    2.651    0.623
        15 -10.3042    243.2367    245.5598   4.2352625666e+01  -7.0412050393e+00    0.4579641    0.1995551 -16.72  0.002493887    2.496    0.599
        16  -9.8146    248.9796    249.3353   4.1987403220e+01  -8.0401620471e+00    0.2799642    0.1634358  -3.14   0.00196885    1.375    0.273
        17 -10.4843    248.7001    241.6900   4.0889592181e+01  -7.1929753604e+00    0.4716828    0.1902739 -31.66  0.002150719    2.309    0.567
        18  -9.4478    234.0254    250.5076   4.4603563388e+01  -6.6006629928e+00    0.2248603   0.08452873  29.84  0.001236293    2.257    0.557
        19 -10.1042    233.7839    245.1213   4.3849034580e+01  -5.9751430214e+00     0.473586    0.2321588 -11.13  0.002683009    2.211    0.548
        20  -9.9016    210.9080    246.1256   4.7968883509e+01  -3.4730700148e+00    0.2736887    0.1542258 -42.99  0.001186184    2.441    0.590
        21  -9.4530    201.1532    249.1249   5.0171786860e+01  -2.6665694471e+00    0.4253871    0.1844675  11.22  0.001769138    3.642    0.725
        22  -8.6481    134.5153    250.3361   6.3456975887e+01   5.8340020562e+00    0.2254091   0.09005712  32.29  0.001078365    1.936    0.483
        23  -8.8111     27.6883    250.4313   8.5800661517e+01   1.8946564758e+01    0.2231208   0.07363808  35.62  0.001130856    2.128    0.530
        24  -8.6618      2.7238    250.3931   9.0679618985e+01   2.1328113800e+01    0.1340497   0.08939241  26.90 0.0005183319    1.559    0.358
        25  -9.2794    168.7262    247.4080   5.6130297647e+01   1.6800096094e+00    0.2407036   0.08991275  35.28  0.001142163    2.164    0.538
        26  -9.4777    144.0055    247.7614   6.1182663556e+01   4.9416913166e+00    0.3332138     0.106663  32.65  0.001430525    2.442    0.591
        27  -9.9916    146.4618    245.4793   6.0390554170e+01   4.9512671106e+00    0.1941587    0.1730195  23.07 0.0006629344    1.198    0.165
        28  -8.7095    131.8354    247.5654   6.3691682209e+01   6.6232822655e+00     0.169701   0.09065674  39.17 0.0003586979    1.552    0.356
        29  -9.3688    103.4527    246.2553   6.9579317769e+01   1.0664018806e+01     0.263631    0.1287171 -66.53  0.001325932    2.908    0.656
        30  -9.3639     89.7315    246.9522   7.2592109843e+01   1.2344695343e+01    0.2373606    0.1143443  42.21 0.0008619128    1.638    0.389
        31  -9.0962     76.0550    247.4926   7.5566145359e+01   1.3984632983e+01    0.1930448   0.09596887  32.52 0.0007634805    1.601    0.375
        32  -9.7633    120.0264    245.3167   6.5931093358e+01   8.5874579123e+00    0.2845654    0.1836313  76.85  0.001445414    2.909    0.656
        33  -9.1336    193.5573    243.4839   5.0777297243e+01  -1.0088513521e+00    0.2755803    0.1452343   1.84  0.001382645    2.449    0.592
        34  -9.0044     45.4570    244.3735   8.1833426037e+01   1.8157052574e+01    0.2908319   0.07033961  34.64  0.001233047    2.757    0.637
        35  -9.0779    201.8721    242.4377   4.9074161340e+01  -1.9169721694e+00     0.226111    0.1512763 -32.88  0.001091116    1.671    0.402
        36  -8.6076    168.8435    243.0828   5.5520829840e+01   2.2718896228e+00    0.1737445    0.1444133  28.62 0.0005764284    1.254    0.203
        37 -10.1153      3.8195    241.1298   9.0190819544e+01   2.2915708159e+01    0.3348615    0.1283482  58.15  0.001847633    2.032    0.508
        38  -9.3411    182.8985    239.7460   5.2280329470e+01   8.6878013288e-01    0.3351332    0.2432137  55.58  0.001944799    2.427    0.588
        39  -9.7860     29.4114    241.5572   8.5026676700e+01   2.0393308711e+01    0.3079808    0.1054718  41.16  0.001563505    2.018    0.504
        40  -9.2460    214.2799    240.5759   4.6545432465e+01  -3.1993686881e+00    0.2025837     0.112637 -12.74  0.001004038    1.848    0.459
        41  -8.9572     62.0606    241.0215   7.8065823397e+01   1.6857278538e+01    0.2019978    0.1082791  53.53 0.0006434174    1.669    0.401
        42  -9.3223     37.5686    240.8335   8.3284832186e+01   1.9673003811e+01    0.2480411   0.09975315  44.26  0.001047581    1.821    0.451
        43  -9.2475    159.6319    239.4852   5.6892604909e+01   4.0451014363e+00      0.23166    0.1799608  60.18  0.001277065    1.991    0.498
        44  -8.9913    194.4211    238.5998   4.9902477394e+01  -4.7726827652e-01    0.2828069    0.1512247 -19.54  0.001537636    2.138    0.532
        45  -8.4601    170.9808    239.5042   5.4597578765e+01   2.4944101613e+00    0.1832377   0.08864689  14.32 0.0008104774    2.639    0.621
        46  -8.1828    145.6972    239.3200   5.9761267266e+01   5.9997788474e+00    0.1185121   0.08707137  50.46 0.0004490308    1.628    0.386
        47  -9.2884    125.1415    239.2704   6.4134375178e+01   8.8741255014e+00    0.3096437    0.0840226  34.96  0.001195399    2.800    0.643
        48  -9.7792     71.7162    238.6091   7.5771381506e+01   1.6121913059e+01    0.2365809    0.1202445  39.85  0.001276503    1.515    0.340
        49 -10.0053    230.8812    235.7504   4.2919715996e+01  -4.5671892077e+00    0.3532373    0.2241042 -16.29  0.001537302    1.362    0.266
        50 -10.0405    236.3010    229.0632   4.0964671270e+01  -4.3944018015e+00    0.4931147    0.1765474 -25.88  0.002051603    3.008    0.668
        51 -10.2129    214.8650    233.1320   4.5309965739e+01  -2.3428876163e+00    0.4521515    0.3664705 -79.79  0.002394245    4.130    0.758
        52  -8.0658    135.2966    238.6496   6.1878243134e+01   7.5580532900e+00    0.1214214   0.08745087  53.96 0.0007034287    1.684    0.406
        53  -9.0985     83.0575    238.4817   7.3265673971e+01   1.4704700634e+01    0.3027451    0.0813439  36.64  0.001218153    2.636    0.621
        54 -10.3440     15.5868    238.1532   8.7719993634e+01   2.2396480911e+01    0.4537942   0.07547002  32.97   0.00185968    3.410    0.707
        55  -8.8928     44.7561    236.0579   8.1465311942e+01   1.9788681182e+01    0.2676488   0.08104508  48.25  0.001166601    2.615    0.618
        56  -9.0454    202.8820    233.9206   4.7615893133e+01  -9.4306944929e-01    0.2217414    0.1658246 -45.50  0.001259522    1.968    0.492
        57  -8.5970     95.3364    234.6787   7.0171528761e+01   1.3770967005e+01    0.1329779    0.0800768  54.00 0.0007050206    1.709    0.415
        58  -8.6625    108.0000    233.0950   6.7176353212e+01   1.2319558691e+01    0.1732623    0.0745464 -58.28 0.0007934388    2.880    0.653
        59  -8.4328    194.3786    232.2842   4.8966573278e+01   3.7798030915e-01    0.1425783    0.1102678 -37.90  0.000621117    1.632    0.387
        60  -8.0596    132.6402    232.3211   6.1647903329e+01   8.9715979704e+00     0.130147    0.0869187  52.80 0.0007043458    1.770    0.435
        61  -8.7657     11.5291    231.8738   8.8306126520e+01   2.3974127472e+01    0.2491558   0.09273621  44.31   0.00132587    1.906    0.475
        62  -9.1101    186.1762    230.0830   5.0215993072e+01   1.7795312209e+00     0.225397     0.197228 -85.79  0.001256743    2.231    0.552
        63  -9.5236     53.0902    238.9146   7.9853432925e+01   1.8303628177e+01    0.2813201    0.1114948  46.50  0.001393969    1.979    0.495
        64 -10.0074    148.7493    225.7650   5.7272612733e+01   7.7312216711e+00    0.5119251    0.4120169  60.44  0.003105665    1.709    0.415
        65  -7.9187    103.3181    229.6452   6.7837776242e+01   1.3590687161e+01     0.133604   0.08498011  56.52 0.0007046099    1.748    0.428
        66  -8.9184    229.8450    227.6198   4.1826529184e+01  -3.4658719917e+00    0.2322938    0.1174589 -18.97  0.001309429    1.961    0.490
        67  -8.2673     47.6960    228.3251   8.0303578364e+01   2.0954297523e+01    0.1308052   0.07134421  56.29 0.0004135972    1.642    0.391
        68  -8.4730    161.7524    227.5670   5.4776928451e+01   5.5634559867e+00    0.1752514    0.1010959  38.16 0.0009372219    1.576    0.365
        69  -8.6830    127.6961    226.9041   6.2035422991e+01   1.0606206695e+01     0.193748    0.1391686  65.37  0.001059423    1.962    0.490
        70  -8.9526     20.4498    228.0000   8.6256507347e+01   2.3889035512e+01    0.2435623   0.05630458  27.16 0.0009236758    3.846    0.740
        71  -9.5264      6.3820    226.1855   8.9164467296e+01   2.5546459558e+01    0.2007737    0.1207673  74.64  0.001001981    1.461    0.316
        72  -8.9028    223.7628    225.8881   4.2601322579e+01  -2.5180351624e+00    0.2647525    0.1115636 -21.99  0.001249297    2.798    0.643
        73  -9.2863    225.6229    221.1900   4.1523352370e+01  -2.1494292697e+00    0.2403502    0.1874202 -26.61  0.001270788    1.429    0.300
        74  -8.8063    209.8183    236.8828   4.6792501581e+01  -2.1958656774e+00    0.3376803    0.1616273 -20.33  0.001756095    2.399    0.583
        75  -9.7895    175.5595    232.8869   5.2733201569e+01   2.8254800738e+00    0.3723815    0.2638548 -59.72  0.002137589    2.443    0.591
        76  -8.5187     11.8346    225.8329   8.7999824570e+01   2.5127747672e+01    0.1713459    0.1013515  57.20 0.0007370596    1.338    0.252
        77  -9.0697    216.4899    223.1248   4.3444916762e+01  -1.2571786566e+00    0.2177932    0.1812726 -47.01  0.000927551    1.939    0.484
        78  -8.5522    180.2806    223.9669   5.0448262907e+01   3.4809066560e+00    0.1651444    0.1402962  -5.49  0.000442617    1.166    0.142
        79  -8.4878    104.6562    223.6278   6.6841123924e+01   1.4511789514e+01    0.2425231    0.1529643  82.13   0.00115954    2.644    0.622
        80  -7.9050    113.5298    223.5086   6.4794874747e+01   1.3263539963e+01    0.1327837    0.1084292  37.02 5.355558e-05    1.057    0.054
        81  -7.9101     93.4784    223.4914   6.9403241471e+01   1.6103127055e+01    0.1335449    0.1055781  44.89 0.0002204071    1.103    0.093
        82 -10.0852    239.2900    220.6239   3.9118478720e+01  -3.7214018802e+00    0.3765964     0.194006 -24.83  0.002009021    1.731    0.422
        83  -9.1499    192.1472    220.9993   4.7644768883e+01   2.2620972840e+00    0.2082183    0.1904582 -27.74 0.0009751965    1.451    0.311
        84  -9.0059     43.7618    220.6863   8.0657906973e+01   2.2925821079e+01    0.2702737   0.08686902  45.99  0.001168041    2.441    0.590
        85  -8.9530     19.4687    220.9947   8.6131960406e+01   2.5383211444e+01    0.2401578    0.1164382  46.41 0.0007873846    1.596    0.374
        86  -8.0733    158.6717    220.3117   5.4353870884e+01   7.1664867970e+00    0.1231128   0.09515873  52.41 0.0006018016    1.667    0.400
        87  -8.8935      1.9647    219.4400   8.9856907652e+01   2.7269400253e+01    0.2267427    0.1192651  67.84  0.001350036    1.607    0.378
        88  -8.3605    210.3322    219.1576   4.3919254239e+01   6.7668304300e-02    0.1495297    0.1034672 -38.07 0.0005050746    1.697    0.411
        89 -10.1714    248.1884    214.5983   3.6690787999e+01  -4.0202657312e+00    0.5219947    0.2408635 -29.32  0.003022344    1.896    0.473
        90  -8.4930    119.3932    218.2292   6.2777189757e+01   1.3376781333e+01    0.1606218    0.1289211 -81.07 0.0009335667    1.682    0.405
        91  -9.8859     56.0347    216.7461   7.7508624237e+01   2.2310344450e+01    0.2076812    0.1663654 -77.04 0.0006111841    1.378    0.274
        92  -8.5943    169.3881    215.7444   5.1393639141e+01   6.3191669267e+00    0.2095547      0.12475 -47.84 0.0007597387    2.075    0.518
        93  -8.3953    139.9690    230.0000   5.9751774951e+01   8.3062621329e+00    0.2115173   0.06080946  33.50 0.0005116782    2.839    0.648
        94  -8.8888     11.9034    215.8701   8.7560123692e+01   2.7131839427e+01    0.2216567    0.1296091  38.30  0.001143649    1.433    0.302
        95  -9.1033    232.1514    214.0113   3.9226776198e+01  -2.0355949171e+00    0.2530836    0.1423625 -30.08 0.0008590309    1.643    0.391
        96  -8.6287    132.0309    214.9744   5.9439919869e+01   1.2078644484e+01    0.1980067    0.1510159  61.12 0.0006819718    1.677    0.404
        97  -8.3105    185.4516    213.9627   4.7830789809e+01   4.2485770827e+00    0.1483177    0.1160736 -69.50 0.0008077774    2.475    0.596
        98  -8.2230     92.4083    213.2333   6.8494488894e+01   1.8257042888e+01    0.1708158      0.12478  89.41 0.0009380183    1.729    0.422
        99  -9.1682    213.5646    211.7529   4.2109104917e+01   6.5514277039e-01    0.2189323    0.1952079  22.62 0.0009926609    1.428    0.299
       100  -8.4508    161.4182    212.1387   5.2510894257e+01   8.1011329760e+00    0.1591995    0.1286579 -60.31 0.0006678966    1.757    0.431
       101  -8.9605      3.5543    211.8507   8.9235921504e+01   2.8686167544e+01    0.2513461   0.09723389  43.35  0.001312969    1.937    0.484
       102  -8.8592    204.1832    210.7024   4.3664860703e+01   2.0799881982e+00    0.1960227    0.1519716 -35.32  0.000823767    1.493    0.330
       103  -8.0372    192.2843    210.5871   4.5926217915e+01   3.7754037442e+00     0.110479    0.1025521  79.09 0.0006974714    1.814    0.449
       104  -9.1426    175.0759    209.5523   4.9218467887e+01   6.4634695868e+00     0.230185    0.2036386  75.89  0.001019254    1.823    0.451
       105  -8.2913    147.7517    210.1749   5.5189864593e+01   1.0529187983e+01    0.2032626    0.1363668  65.79 0.0009329205    2.682    0.627
       106  -8.2357    115.7846    209.9415   6.2507044379e+01   1.5479954878e+01    0.2050859     0.146068  69.58 0.0007953953    1.926    0.481
       107  -8.6220     71.4128    210.2210   7.3230588212e+01   2.1734890121e+01    0.1773977    0.1188093  85.73 0.0008903383    1.771    0.435
       108  -9.2243    236.3507    207.7190   3.7467563550e+01  -1.7447815653e+00    0.2481109    0.1743737 -40.47 0.0009794885    1.823    0.451
       109  -9.4755    246.6610    206.5049   3.5584314601e+01  -2.8445573150e+00    0.2682257    0.1561404 -21.40   0.00107178    1.450    0.310
       110  -9.5960    250.2407    201.6008   3.4186657968e+01  -2.6562968321e+00    0.3643983    0.1350308 -31.98  0.001590474    2.355    0.575
       111  -9.6275    124.0106    205.9938   6.0008008773e+01   1.4980239730e+01    0.1946598    0.1663506  31.47  0.001158744    1.024    0.023
       112  -8.7607     98.9961    205.9557   6.6012828368e+01   1.8776035582e+01    0.2182056    0.1462826  61.63 0.0007874353    1.741    0.426
       113  -8.4378     79.6630    206.2872   7.0794687883e+01   2.1454266089e+01    0.1414813   0.08691268  55.15 0.0003652743    1.632    0.387
       114  -9.2929    194.9519    203.1190   4.4143051392e+01   4.5196699977e+00    0.2944938    0.1679498 -41.70  0.001294024    1.940    0.485
       115  -9.6007     12.5671    203.2664   8.6820572155e+01   2.9724786561e+01    0.3790217    0.1250147  42.32  0.001510662    2.265    0.559
       116  -8.8094    227.5973    202.6470   3.8079928881e+01   4.4056308975e-02    0.2326318   0.08865386 -24.68 0.0009564186    3.233    0.691
       117  -8.6316    183.4091    203.2744   4.6463154379e+01   6.2133980390e+00    0.1589556    0.1230812 -45.44 0.0005464957    1.605    0.377
       118  -9.1630    162.9943    202.4877   5.0610212585e+01   9.4917023698e+00     0.207131    0.1910378 -62.41 0.0005212436    1.471    0.320
       119  -7.9329    130.6889    203.3129   5.8039608183e+01   1.4448812502e+01    0.1350344    0.1006412  58.10 0.0003424807    1.631    0.387
       120  -9.2873    243.2915    200.2116   3.5049964584e+01  -1.6343981554e+00    0.2699171     0.127072 -31.19   0.00117443    1.869    0.465
       121  -7.8682    222.0000    200.9508   3.8758303431e+01   1.0218342030e+00    0.1867227   0.06173463 -36.96  0.000645658    2.898    0.655
       122  -8.4760    210.6394    200.9227   4.0794266016e+01   2.5917612112e+00    0.1624075    0.1086535 -41.74 0.0009356424    1.757    0.431
       123  -8.8073    139.4193    199.5641   5.5420578414e+01   1.3769421644e+01    0.2346533    0.1798903  76.32 0.0004933266    2.023    0.506
       124  -8.4910     29.6776    200.3457   8.2575591500e+01   2.8738870270e+01    0.1398882   0.07337841  58.14 0.0005007232    1.736    0.424
       125  -9.1075    237.0970    198.0061   3.5675903108e+01  -5.6447186749e-01    0.2915594    0.1376105 -36.25   0.00138216    2.010    0.503
       126  -9.0938    149.3504    198.2770   5.2934978911e+01   1.2410459898e+01    0.3073353     0.220951  79.20  0.001412146    2.719    0.632
       127  -8.7968    133.0820    199.0934   5.6827175682e+01   1.4874690604e+01    0.1963497    0.1623617  13.88  0.001121059    1.167    0.143
       128  -8.3712    123.8090    198.9345   5.9008803235e+01   1.6384256863e+01    0.2128565    0.1578468  77.40 0.0008843681    1.987    0.497
       129  -8.2774     21.6425    199.3091   8.4454941835e+01   2.9754292931e+01    0.1385958   0.06986812  55.65 0.0003090191    1.732    0.423
       130  -8.8015    112.2939    197.9195   6.1657043724e+01   1.8399643916e+01    0.2560499    0.1713689  53.77   0.00123572    1.624    0.384
       131  -8.5088     88.4092    198.2380   6.7657898486e+01   2.1929394348e+01    0.1846712    0.1302096 -86.65 0.0009499096    1.766    0.434
       132  -8.2887     52.6614    198.3264   7.6715509169e+01   2.6648032748e+01    0.1448445   0.08177345  57.57 0.0005698398    1.728    0.421
       133  -8.0889    202.2741    197.6195   4.1777469182e+01   4.2829522746e+00    0.1100832    0.1035877 -69.73  0.000505653    1.703    0.413
       134  -9.1078    192.1609    196.7575   4.3582704046e+01   5.9231126732e+00    0.2397145    0.1697033 -27.91 0.0007674026    1.385    0.278
       135  -8.6147    215.7464    195.2002   3.8858722578e+01   2.7027828224e+00     0.175996    0.1476893 -39.79 0.0007605907    1.536    0.349
       136  -9.5663    245.7047    193.0454   3.3418496441e+01  -1.0025786136e+00    0.2657428    0.1789046 -28.86  0.001342218    1.344    0.256
       137  -8.7529    224.4614    193.7400   3.7059893050e+01   1.6979937084e+00    0.2203584    0.1069588 -40.10  0.001120199    2.145    0.534
       138  -8.2366    160.5095    193.9738   4.9711532470e+01   1.1380880966e+01    0.1665982    0.1257348 -79.10 0.0008072626    2.394    0.582
       139  -8.1115     76.5592    193.5517   7.0104861424e+01   2.4624252383e+01    0.1378288    0.1193615  49.18  0.000109997    1.028    0.027
       140  -8.8974     40.2645    192.4321   7.9340985087e+01   2.9388704304e+01    0.2287373    0.1228547  22.75 0.0008007544    1.984    0.496
       141  -8.6752     17.2647    191.3898   8.5050736179e+01   3.1918300035e+01    0.1816878   0.09107469  40.18 0.0009469261    1.689    0.408
       142  -8.6528    139.0192    190.0244   5.3951408749e+01   1.5658207967e+01    0.2103726    0.1667238  65.71 0.0006370675    1.671    0.402
       143  -9.8476     91.3239    188.7827   6.5665557290e+01   2.3549995969e+01     0.660081    0.1968971  43.41  0.002231283    3.098    0.677
       144  -8.4216    237.4370    188.0799   3.3864684830e+01   7.3124725785e-01    0.1760941   0.09964575 -30.22  0.001011289    1.551    0.355
       145  -8.0013    223.3157    188.1309   3.6250776036e+01   2.6574896245e+00    0.1474987    0.1010765 -36.76 0.0008750276    1.517    0.341
       146  -8.5756    216.4749    187.5055   3.7342245701e+01   3.7268896250e+00    0.1923813    0.1114132 -43.90 0.0006462147    2.009    0.502
       147  -8.6826    155.9458    187.3934   4.9579060743e+01   1.3331345749e+01    0.2413087    0.1925381 -62.31 0.0008047946    1.677    0.404
       148  -8.3849    129.1865    188.2125   5.6009804196e+01   1.7649335704e+01    0.1873568    0.1606275  64.42 0.0005658063    1.385    0.278
       149  -8.8239    185.3748    195.0999   4.4646307332e+01   7.2287172892e+00    0.3086292    0.2233668 -63.93  0.001571447    2.454    0.593
       150  -8.8114      4.4786    187.9864   8.8009222590e+01   3.3760403053e+01    0.1820884   0.07157639  67.77 0.0008094119    2.476    0.596
       151  -8.4628    230.5870    186.8569   3.4777993164e+01   1.8268600899e+00    0.1659851    0.1034084 -40.36 0.0009485993    1.748    0.428
       152  -8.5030    191.3980    187.1744   4.2010475627e+01   7.5775686639e+00    0.1743676    0.1217757 -47.59 0.0009382619    1.758    0.431
       153  -9.0029    120.4847    185.8127   5.7763621423e+01   1.9580217132e+01    0.2971707    0.1482674 -62.40  0.001189302    2.705    0.630
       154  -9.1447    249.4162    184.8799   3.1393284579e+01  -3.9720432895e-01    0.2427664    0.1458267 -35.59 0.0008292678    1.584    0.369
       155  -8.0603    164.5481    186.5011   4.7502626207e+01   1.2057391454e+01    0.1382481    0.1221966  14.14 0.0001676751    1.030    0.029
       156  -8.7139    109.1733    185.5237   6.0579448804e+01   2.1484363429e+01    0.2411604      0.16461  86.35 0.0007242702    2.249    0.555
       157  -9.0098     27.9307    186.7038   8.2050811456e+01   3.1978850339e+01    0.3379399   0.02967463  34.64  0.001071828    4.316    0.768
       158  -8.4577    210.3139    184.1834   3.7847050286e+01   5.1362589441e+00    0.1720125    0.1075423 -41.11 0.0004518592    1.718    0.418
       159  -8.2945    202.7406    184.5877   3.9333317920e+01   6.2250270648e+00    0.1643426    0.1167963  40.97 0.0006252563    1.570    0.363
       160  -8.1569    182.7515    184.4132   4.3248447460e+01   9.4211620959e+00    0.1222828    0.1080134 -74.29 0.0004150138    1.722    0.419
       161  -8.2195     66.3620    184.6613   7.1727398307e+01   2.8010646271e+01    0.1540694   0.09020861  59.06 0.0007034796    1.828    0.453
       162  -8.4663    224.1517    183.1974   3.5204473348e+01   3.2534486207e+00    0.1593279    0.1307811 -31.44 0.0006673436    1.330    0.248
       163  -8.4897    174.1537    183.2743   4.4835725039e+01   1.1032342706e+01     0.167823    0.1618339  60.33 0.0004927608    1.359    0.264
       164  -8.8126    147.3251    180.3609   5.0303178151e+01   1.6133434701e+01    0.2773402    0.2058925  87.67 0.0009698464    2.386    0.581
       165  -8.1515    235.3152    180.3475   3.2806933800e+01   2.0919242600e+00    0.1291114   0.07999457  -4.17 0.0007047546    1.722    0.419
       166  -9.2935    249.0348    177.0588   3.0040448611e+01   6.9733622798e-01    0.2262596    0.1685771 -36.29 0.0009468786    1.445    0.308
       167  -9.0530    191.2377    177.8850   4.0306032506e+01   9.1366364474e+00    0.2125209    0.2008162 -65.42 0.0006515027    1.477    0.323
       168  -8.1561    137.3204    178.6660   5.2386665754e+01   1.8198915719e+01    0.1433953    0.1119545  66.87 0.0007049543    1.701    0.412
       169  -8.3574    217.4207    176.9618   3.5216479695e+01   5.1678176965e+00    0.1859253     0.111494 -34.65  0.000509457    1.563    0.360
       170  -7.9533    205.2823    177.6032   3.7544641627e+01   6.9331879157e+00    0.1196679    0.1045573 -65.50 0.0006995851    1.764    0.433
       171  -8.5813    182.9807    175.9404   4.1604642459e+01   1.0836203811e+01    0.1896371    0.1724388 -89.32 0.0006109063    1.623    0.384
       172  -9.2975    100.8710    176.1623   6.1277911284e+01   2.4872721953e+01    0.4637626    0.1930383  23.70  0.001085161    3.296    0.697
       173  -8.4038    103.2396    173.8166   6.0266200615e+01   2.5014965201e+01    0.2345671    0.2054222  50.10 0.0005879657    1.112    0.100
       174  -8.1846     88.9746    176.5244   6.4537760082e+01   2.6656969210e+01    0.2144326      0.09927  51.33 0.0008068191    2.452    0.592
       175  -8.5030     58.8310    175.4628   7.2693804396e+01   3.1139335098e+01    0.4046879    0.1698431  71.78  0.001054483    6.361    0.843
       176  -8.8461     55.2715    170.2275   7.3071027549e+01   3.2840025004e+01    0.4014552    0.1721487  58.54  0.001454949    3.057    0.673
       177  -8.8353    158.4732    174.5366   4.6644035872e+01   1.5314071501e+01    0.2492791    0.1968761 -85.11 0.0008131598    2.062    0.515
       178 -10.2023     75.9631    171.3428   6.7376603514e+01   2.9795754335e+01    0.9290832    0.3974642 -80.75  0.002755703    4.866    0.795
       179  -8.4576    250.5953    172.2871   2.8931159577e+01   1.1372208328e+00    0.1590103   0.09232497 -23.87 0.0006528218    1.467    0.318
       180  -8.7799    175.6355    172.1726   4.2412816470e+01   1.2754428208e+01    0.1992283    0.1691587 -46.25 0.0005354933    1.362    0.266
       181  -7.9802    134.5029    171.5022   5.1772779732e+01   2.0160304776e+01    0.1466205    0.1345835  34.04 3.208241e-05    1.064    0.060
       182  -9.1160    121.1185    170.3481   5.4955990916e+01   2.2758409272e+01    0.3006501    0.2287282 -80.46 0.0009265238    1.779    0.438
       183  -7.9783     45.3181    171.6459   7.6036538119e+01   3.3683741400e+01    0.1502213   0.08874796  61.31 0.0007046416    1.746    0.427
       184  -8.2258    230.6138    170.1467   3.1671489177e+01   4.2255221705e+00    0.1758659    0.1005899 -24.52 0.0007161286    1.613    0.380
       185  -8.4865     39.6951    170.3210   7.7478289802e+01   3.4628520744e+01    0.1446685   0.08808559  60.64 0.0003425094    1.635    0.388
       186  -8.0964    244.4970    169.4633   2.9333402225e+01   2.3503623121e+00    0.1206696     0.097034 -14.28 6.890741e-05    1.037    0.035
       187  -7.9913    237.3091    169.6201   3.0487355885e+01   3.3353958469e+00    0.1138318   0.09355631 -54.04 0.0007025659    1.792    0.442
       188  -8.1833    149.4479    169.2191   4.7716689317e+01   1.7953101265e+01    0.1828634    0.1426426 -60.06 0.0006510684    1.587    0.370
       189  -8.3059    218.5697    168.0153   3.3302403361e+01   6.3596636737e+00    0.1874833    0.1125262 -34.50 0.0006107247    1.535    0.348
       190  -8.7069    166.6684    168.1472   4.3566825945e+01   1.5069936772e+01    0.2032699     0.180475 -66.81 0.0006416089    1.467    0.318
       191  -8.3189    191.8260    166.5684   3.7985608652e+01   1.0952245741e+01    0.2097225    0.1503573 -38.26 0.0006202692    1.405    0.288
       192  -8.1785    111.6117    167.2951   5.6912016253e+01   2.5074566347e+01    0.1574114    0.1086797  61.29 0.0007013071    1.776    0.437
       193  -9.4113     94.4187    162.1648   6.0743683698e+01   2.9132580359e+01    0.7471766    0.3908257  70.74   0.00215828    4.901    0.796
       194  -8.3937    159.4660    163.9594   4.4350882379e+01   1.7168890778e+01    0.1863038    0.1312852 -72.08 0.0008075099    2.394    0.582
       195  -8.7497    135.9705    163.9549   4.9973006734e+01   2.1473253772e+01     0.230089    0.1772269  65.44 0.0009163119    1.676    0.403
       196  -8.1950    246.2241    162.9321   2.7843180035e+01   3.0241169088e+00    0.1567316   0.08349974 -33.61 0.0004172119    1.599    0.374
       197  -8.4415    212.8379    163.3227   3.3392559671e+01   7.9988020557e+00    0.1775053    0.1442341 -30.62 0.0005462014    1.198    0.166
       198  -8.8860      3.8154    162.7563   8.6864481864e+01   3.9658587876e+01    0.2916546    0.1112048  55.90  0.001268434    2.498    0.600
       199  -8.1567    204.6159    162.5161   3.4726274129e+01   9.4755054808e+00    0.1329871    0.1144457 -11.55 0.0001048748    1.029    0.028
       200  -8.8411    177.4588    160.3974   3.9673566893e+01   1.4565547711e+01    0.2263413    0.1324778 -51.43 0.0005624809    2.084    0.520
       201  -8.1539    151.4886    160.5096   4.5508877492e+01   1.9319854345e+01    0.1452784    0.1376101  35.55 0.0007554688    1.114    0.102
       202  -9.6252    250.2662    157.5809   2.6230824427e+01   3.2067413075e+00    0.2899787    0.1370632 -35.53  0.000899486    1.791    0.442
       203  -8.7332    227.2418    158.9786   3.0066928297e+01   6.3968160237e+00    0.1944385    0.1375553 -55.78  0.001049103    2.085    0.520
       204  -8.0809    237.3062    158.6785   2.8395267989e+01   4.9176183301e+00    0.1129864   0.09441125 -53.46 0.0002936772    1.639    0.390
       205  -8.4881    196.5714    157.7555   3.5280079665e+01   1.1639639601e+01    0.1803719    0.1244349 -45.57 0.0006137004    1.581    0.368
       206  -9.1135    105.1882    157.5936   5.6907217475e+01   2.8389730008e+01    0.2999815    0.2248268  79.67 0.0008708259    1.763    0.433
       207  -8.4670    218.0018    156.3237   3.1092766411e+01   8.2699479195e+00    0.2404218    0.1473606 -55.57 0.0007805213    2.556    0.609
       208  -7.9019    188.2907    157.6481   3.6881493454e+01   1.3115151801e+01    0.1304929    0.1126695 -75.34 0.0004209059    1.674    0.402
       209  -8.7485    167.1680    156.8819   4.1171141642e+01   1.7109171654e+01    0.2067898    0.1953569 -84.78  0.000630384    1.331    0.249
       210  -8.1513    157.6754    156.3376   4.3204495068e+01   1.8992847111e+01    0.1438853    0.1191105  81.11 0.0007051245    1.721    0.419
       211  -8.8603    119.5869    155.2698   5.2516733993e+01   2.6355103900e+01    0.3152651    0.2059192  74.72  0.001214279    2.679    0.627
       212  -8.7270     81.4300    154.4371   6.3191083386e+01   3.3044891048e+01    0.2903838    0.1803089  66.04 0.0008832253    2.113    0.527
       213  -8.4272     35.3462    155.6896   7.7226589739e+01   3.8680649777e+01    0.1492269   0.08904817  58.89 0.0003675248    1.707    0.414
       214  -7.9053    144.2998    154.6245   4.6031541501e+01   2.1871491731e+01    0.1489107    0.1202559  83.37 0.0007027353    1.755    0.430
       215  -9.2941    132.6435    152.6619   4.8552837353e+01   2.4498322178e+01    0.3958258    0.2648675  66.41  0.001261504    2.236    0.553
       216  -8.2802    224.4138    173.9278   3.3428278908e+01   4.5798217138e+00    0.1606538    0.1026853 -53.17 0.0004314192    2.441    0.590
       217  -8.1296     49.3334    154.6801   7.2891494798e+01   3.7384507119e+01    0.1525728   0.09571523  60.81 0.0007049158    1.698    0.411
       218  -9.4129     10.0239    153.0000   8.4479750674e+01   4.1575171325e+01    0.1961626   0.07197095  19.79  0.000605343    2.947    0.661
       219  -9.1365    248.9634    149.3526   2.4841830925e+01   4.5493805825e+00    0.2603603    0.1428304 -33.53 0.0008519446    1.522    0.343
       220  -8.7527    243.4847    150.0044   2.5767244760e+01   5.2601748316e+00    0.1929924    0.1027743 -33.94 0.0005885746    1.592    0.372
       221  -8.7245    189.2876    149.7382   3.5028208986e+01   1.4330355746e+01    0.2445276    0.1545482 -46.74 0.0008574586    1.711    0.415
       222  -7.8949     98.3134    150.6354   5.7558019285e+01   3.1205628267e+01    0.1593776     0.115195  70.48 0.0007039774    1.762    0.432
       223  -8.6212     91.0041    148.5320   5.9305592422e+01   3.2943347468e+01    0.2931448    0.2014328  81.62  0.001063403    2.041    0.510
       224  -9.0767     88.4650    144.9566   5.9395956714e+01   3.4230902327e+01    0.3522417    0.2396036  88.92  0.001090423    2.053    0.513
       225  -8.3490    198.5257    148.5300   3.2990103822e+01   1.2869566823e+01    0.1362722     0.124106 -12.15 6.887962e-05    1.045    0.043
       226  -8.9220     39.5959    147.7458   7.5018027311e+01   4.0230232961e+01    0.3357532    0.1503432  56.23  0.001300779    2.637    0.621
       227  -8.4601    233.5060    147.1559   2.6716714547e+01   7.2034258886e+00    0.1930788    0.1083522 -33.38  0.001017951    1.546    0.353
       228 -10.1455    148.7643    144.9897   4.2886545035e+01   2.3001086163e+01    0.5006475    0.3495417 -82.68  0.001639819    2.641    0.621
       229  -9.4786     55.0382    144.8294   6.9763433248e+01   3.9164687988e+01    0.5973007    0.2495266  60.93  0.001777802    4.406    0.773
       230  -8.3336    223.4145    146.5395   2.8201405835e+01   8.9188296098e+00    0.1301347     0.109803 -16.84 7.163779e-05    1.018    0.018
       231  -7.9407    175.6575    146.2842   3.7075703816e+01   1.7507912592e+01     0.137226    0.1170435  83.01 0.0005661029    1.638    0.390
       232  -8.9725    139.0639    144.8879   4.5263236166e+01   2.4929464564e+01    0.3646744    0.2383062 -72.69  0.001434682    2.561    0.610
       233  -9.7038    106.3026    144.1052   5.3964777793e+01   3.1337529187e+01    0.5502455    0.3275068  72.04  0.001868018    3.325    0.699
       234  -8.4752     13.3293    146.6525   8.3007804588e+01   4.2898590240e+01    0.1448873   0.08176067  60.32 0.0007049534    1.759    0.431
       235  -8.2184    240.4972    145.0195   2.5228955824e+01   6.4360749480e+00    0.1861763     0.104734 -34.32  0.000386589    1.516    0.341
       236  -8.5515    247.4382    143.9336   2.4004690049e+01   5.5453226108e+00    0.1844196    0.1004998 -33.62 0.0005181701    1.533    0.348
       237  -8.4476    165.5295    143.7769   3.8725632811e+01   1.9945600424e+01    0.1932451    0.1404348 -53.79 0.0005913224    1.590    0.371
       238  -9.4684    124.7554    142.3126   4.8439698402e+01   2.8281984305e+01    0.3576485    0.2669352  88.84  0.001234968    1.988    0.497
       239  -9.1251      2.1848    142.2899   8.6053271838e+01   4.4744897394e+01    0.2050454    0.1791945  32.19  0.001336174    1.255    0.203
       240  -8.0202    182.2680    141.6468   3.4688879957e+01   1.7098958497e+01    0.1371315    0.1135342 -69.85 0.0004797023    1.628    0.386
       241  -8.7750     69.6388    140.9437   6.4501638925e+01   3.8158206056e+01    0.2902364      0.19145 -85.82  0.001283409    1.875    0.467
       242  -8.0748    250.5086    140.4832   2.2896800624e+01   5.5812611988e+00    0.1219741   0.09901973 -23.78 0.0008102751    1.024    0.023
       243  -8.8907     24.2957    138.7381   7.8832036054e+01   4.4003134629e+01    0.3487499    0.1247519  58.19  0.001143639    3.927    0.745
       244  -7.8417    218.4678    138.5043   2.7350424730e+01   1.1018943850e+01    0.1318861    0.1158368 -21.80 0.0008095372    1.035    0.034
       245  -8.3320    172.0667    137.9783   3.6003503199e+01   1.9770847922e+01    0.2214145    0.1820509 -83.94 0.0007251814    1.729    0.422
       246  -8.1725    207.4797    137.5413   2.9018245414e+01   1.3114016030e+01    0.1339031    0.1225225 -26.62 0.0008072459    1.092    0.084
       247  -8.5035    197.3900    137.2115   3.0770194709e+01   1.5022468565e+01    0.1937148    0.1222546 -46.70 0.0004911472    1.673    0.402
       248  -7.9006    162.6434    136.3340   3.7701894114e+01   2.1973787231e+01    0.1505051    0.1209745  88.45 0.0007042752    1.797    0.444
       249  -9.0168    248.6737    134.8337   2.2036214415e+01   6.6636900299e+00    0.2373976    0.1329175 -38.07  0.001106268    1.531    0.347
       250  -9.8017     83.4956    133.2784   5.8654611434e+01   3.7918794953e+01     0.471662    0.3081271 -85.46  0.001426708    2.175    0.540
       251  -8.0711    238.0000    133.9461   2.3369979463e+01   8.4653531008e+00     0.204316   0.06190997 -35.94 0.0005313388    2.825    0.646
       252  -8.5456    179.3280    133.5040   3.3468663542e+01   1.9168335680e+01    0.2447459    0.1697555 -57.84  0.001012665    1.823    0.451
       253  -8.6166    112.7692    132.9888   4.9716187913e+01   3.2719106745e+01    0.2470344    0.1805821  88.79 0.0007227046    2.014    0.503
       254  -8.8616    142.9464    131.5277   4.1263880450e+01   2.6980289424e+01    0.2770189    0.2146553 -66.26 0.0007522086    1.604    0.376
       255  -9.4035    132.0545    131.1880   4.3981726736e+01   2.9288158730e+01    0.3672711    0.2487383 -68.18  0.001201176    2.056    0.514
       256  -8.2304    247.0031    129.9426   2.1288757748e+01   7.6255873301e+00    0.1809591    0.1321932 -51.91 0.0005245404    1.590    0.371
       257  -7.9322    204.6693    130.3272   2.7941744410e+01   1.4835731028e+01    0.1343963    0.1078218 -69.66   0.00070512    1.710    0.415
       258  -8.7546     13.3422    129.7650   8.1489805903e+01   4.7149157431e+01    0.3367298    0.1159146  57.75  0.001134689    3.907    0.744
       259  -8.7207    168.0748    129.0683   3.4819423550e+01   2.2279634962e+01    0.2248811    0.1838154 -81.46 0.0007114951    1.673    0.402
       260  -9.6771     99.1248    127.6701   5.2569924389e+01   3.6548599509e+01    0.4651055    0.3063595  83.37  0.001759513    2.618    0.618
       261  -8.6114     72.8287    128.9910   6.1254115384e+01   4.0688245269e+01    0.2473807     0.169567  81.24 0.0009228937    1.961    0.490
       262  -9.1463     49.3076    127.7374   6.8978061749e+01   4.4241457767e+01    0.4849115    0.2287117  65.91  0.001556109    3.864    0.741
       263  -9.6088     44.0763    122.9326   7.0008605304e+01   4.6091838723e+01    0.5158847    0.2748365  79.25  0.001929703    2.904    0.656
       264  -9.1497    152.8468    128.8947   3.8234017076e+01   2.5471023437e+01      0.33294    0.2103958 -56.03 0.0008786194    1.902    0.474
       265  -9.5590     60.4476    125.3951   6.4736066953e+01   4.3402433594e+01    0.6123991    0.3078657  64.29  0.002030218    3.503    0.715
       266  -8.8771    179.0967    124.5577   3.1450182642e+01   2.0865234286e+01    0.2420171    0.1917216 -49.53 0.0005421803    1.333    0.250
       267  -9.3259    117.2674    124.6661   4.6495378845e+01   3.3741429086e+01     0.319902    0.2492905  82.38 0.0009464586    1.729    0.422
       268  -9.2015     28.8406    122.7569   7.5362879045e+01   4.7694903116e+01      0.47342    0.2037186  69.49  0.001528706    4.091    0.756
       269  -9.4612      5.5905    123.8202   8.3529933862e+01   4.9159711111e+01    0.1890251     0.109131  85.66 0.0009429014    1.679    0.404
       270  -8.8901    158.4147    121.2310   3.5095413141e+01   2.5832152585e+01    0.2764926    0.2197455 -73.46 0.0006933838    1.646    0.393
       271  -8.3760    172.0111    121.3491   3.2149214510e+01   2.2930849847e+01    0.1986484    0.1922197  40.74 0.0005698012    1.079    0.073
       272  -9.6000    141.3871    118.2839   3.8443191214e+01   3.0087231421e+01    0.3952866    0.2665105 -65.85  0.001078477    2.046    0.511
       273  -8.9709    130.5164    118.1339   4.1225255999e+01   3.2446436809e+01    0.3512179    0.2495029 -72.95   0.00120631    2.008    0.502
       274  -8.0361    231.6565    117.3061   2.0822685208e+01   1.2033813224e+01    0.1262925    0.0951789 -62.69 0.0007042303    1.690    0.408
       275  -8.5735    186.0167    116.5335   2.8197463659e+01   2.0894269533e+01    0.2586421    0.1405552 -45.01  0.001117218    1.839    0.456
       276  -8.2940    193.1687    115.1344   2.6539218499e+01   1.9673913098e+01    0.1909255    0.1587332 -56.29  0.000419836    1.316    0.240
       277  -9.6104    109.1931    113.7740   4.6173406922e+01   3.7856611223e+01     0.432731    0.2867062 -79.32  0.001400996    2.508    0.601
       278  -8.1319    167.4523    114.4410   3.1431614268e+01   2.5205633246e+01    0.1456653    0.1435623 -37.64 0.0001533824    1.046    0.044
       279  -9.5463     92.7040    112.6142   5.1046295547e+01   4.1338557045e+01    0.3947826    0.2756505 -80.43  0.001189217    2.034    0.508
       280  -8.9443    121.9934    112.4788   4.2118563542e+01   3.5490454188e+01    0.2751604    0.2209277 -66.86 0.0005511562    1.459    0.314
       281  -9.2315     78.7535    112.2615   5.5637461080e+01   4.3902213414e+01     0.377059    0.2647539  75.89  0.001609961    2.015    0.504
       282  -8.5753    174.6166    111.7546   2.9279315153e+01   2.4162842583e+01    0.2088494    0.1328159 -47.87 0.0007537975    1.626    0.385
       283  -9.4281      9.8273    111.0279   8.0754298495e+01   5.2151713526e+01    0.4399382    0.1404162  63.63  0.001040459    8.182    0.878
       284  -8.4883    159.2450    111.4607   3.2477214879e+01   2.7565206793e+01    0.1973003    0.1464142  61.34 0.0004886578    1.525    0.344
       285  -9.7493    133.2315    108.5975   3.8047057093e+01   3.3893128647e+01    0.5154729    0.3602327 -57.53  0.002281748    1.644    0.392
       286  -8.6519     66.1048    110.1061   5.9605092744e+01   4.6458062697e+01    0.2448332    0.1781634  69.79  0.001118751    1.737    0.424
       287 -11.1888    249.2958    102.3542   1.5374717772e+01   1.1209609565e+01    0.5013371    0.2002191 -34.02  0.002334349    2.107    0.525
       288  -9.6993    150.5104    102.7057   3.2198511215e+01   3.1219550951e+01    0.4602096      0.27182 -60.12  0.001412176    2.340    0.573
       289 -10.4492     22.6512    102.8911   7.4779881301e+01   5.3329074229e+01    0.5323968    0.3109822  58.63  0.001930734    2.055    0.513
       290  -8.6414    166.7843    104.0619   2.8957566151e+01   2.7299116131e+01    0.2317453    0.1956221 -64.25 0.0007836397    1.324    0.245
       291  -9.8769     45.7730    102.1278   6.5527133725e+01   5.1224068341e+01    0.6038873    0.3154216  66.20  0.002091424    3.494    0.714
       292  -9.1672    128.4212    101.8179   3.7502757841e+01   3.6380177707e+01    0.2978427     0.247238  89.25 0.0008161237    1.502    0.334
       293  -8.4537    159.6156    100.7978   2.9640519363e+01   2.9520718015e+01    0.2149752    0.1371874 -49.99 0.0005322609    1.665    0.400
       294  -9.8994    108.6224     98.4821   4.2261108547e+01   4.1411650274e+01    0.4730103    0.3287402  71.79 0.0008300295    2.080    0.519
       295  -8.4038     82.3441    100.1483   5.1357705070e+01   4.6204994963e+01    0.2196487    0.1442968 -65.05 0.0009316949    1.799    0.444
       296  -8.7320     94.9920     96.9813   4.6175823605e+01   4.4546623398e+01    0.2389444    0.1917196  87.25 0.0005589637    1.635    0.388
       297  -9.3141     63.7820     95.6308   5.7009324204e+01   5.0389419021e+01    0.4516159    0.2804567  81.64  0.001290535    3.088    0.676
       298  -8.6057    164.9721     94.0135   2.6710417963e+01   2.9551002886e+01     0.235276    0.1805618 -73.63 0.0005369229    1.635    0.388
       299  -8.3903    189.4281    107.9521   2.5509843282e+01   2.1691191646e+01    0.2167649    0.1320462 -39.22 0.0007282548    1.553    0.356
       300  -8.1202    188.3398     93.6464   2.2193805107e+01   2.4366920276e+01    0.1515906    0.1077786 -69.17 0.0007042073    1.806    0.446
       301  -8.4657    176.4190     93.1731   2.4232509662e+01   2.7095286426e+01    0.2130601    0.1277995 -49.63 0.0004573014    1.749    0.428
       302  -9.2277    139.0770     92.2963   3.2089426383e+01   3.5879166571e+01     0.308473    0.2282046 -76.92 0.0007262342    1.864    0.463
       303  -8.6091      5.6569     92.3268   8.0118765322e+01   5.7117895878e+01    0.1364273   0.08905946  59.87  0.000705099    1.741    0.425
       304  -9.7857    125.0097     90.7575   3.5303759329e+01   3.9430228357e+01    0.4664665    0.2813047  60.96  0.001855831    1.999    0.500
       305  -8.8569     34.9171     90.0276   6.7394809206e+01   5.5475592641e+01    0.3359139    0.1812274  85.45  0.001228302    3.264    0.694
       306  -9.1866    139.7136    104.3285   3.5245090433e+01   3.3333949467e+01    0.3134387    0.2479074 -84.86 0.0007901404    1.677    0.404
       307  -9.5170     86.4047     86.4046   4.6051488856e+01   4.8616417643e+01    0.3810363    0.2653293  76.98  0.001185147    2.346    0.574
       308  -9.0086     48.4234     84.2505   6.0284874834e+01   5.5330653672e+01    0.3184122    0.1907062  60.44  0.001298918    2.519    0.603
       309  -8.5402    158.0061     83.9618   2.5423223771e+01   3.2977419279e+01    0.2347586    0.1790638 -73.41 0.0004865061    1.613    0.380
       310  -9.3859    104.7831     83.0648   3.8907958883e+01   4.5541164635e+01    0.3331532    0.2414228 -70.17 0.0009634704    1.879    0.468
       311  -8.9889    140.9013     82.6177   2.8861020999e+01   3.7293035313e+01    0.3051258    0.1965077 -57.49 0.0007032878    1.872    0.466
       312  -8.9517     25.0916     81.0701   6.9786475613e+01   5.8621980257e+01    0.3072866    0.1872846  69.96  0.001373969    2.370    0.578
       313  -9.5004    249.0017     80.4827   1.0873674824e+01   1.4300525900e+01    0.1639535    0.1211957  65.60  0.001039213    1.611    0.379
       314  -8.4592    150.4739     80.5125   2.6061778136e+01   3.5386091563e+01    0.1512037    0.1450165 -86.48 0.0001920456    1.053    0.050
       315  -8.3345    119.3991     80.1574   3.3675768657e+01   4.2834308953e+01    0.2187799    0.1446615 -53.36  0.000728127    1.708    0.415
       316  -7.9629     74.6754     80.3350   4.8518741002e+01   5.2166907822e+01    0.1524096    0.1208049  76.99  0.000705113    1.714    0.417
       317  -8.3547    166.6691     79.2342   2.2377048991e+01   3.1743696386e+01    0.2039854    0.1371492 -26.63  0.000572709    1.656    0.396
       318  -9.9354    249.2234     75.4104   9.7940082241e+00   1.4947279869e+01    0.2488658     0.162178 -63.05  0.001454081    1.687    0.407
       319  -8.3254    157.4343     76.4795   2.3434779592e+01   3.4417491642e+01    0.1482567    0.1422174 -78.19  7.71788e-05    1.035    0.034
       320  -9.4181    127.7365     75.4305   2.9964107241e+01   4.1771438424e+01    0.3280676    0.2633497  74.98  0.001463083    1.424    0.298
       321  -8.4794    140.4030     75.1907   2.6775739868e+01   3.8763933597e+01    0.2166279    0.1391843 -49.84  0.000750471    1.676    0.403
       322  -9.4835     63.1843     73.9696   5.1112221589e+01   5.5566919637e+01    0.3336877    0.2496971 -79.06   0.00097168    1.873    0.466
       323  -8.5629    163.4969     72.9974   2.1251475547e+01   3.3542772989e+01    0.2235368    0.1422779 -38.86 0.0008440237    1.559    0.358
       324  -8.3991    115.6366     72.8484   3.2429574751e+01   4.5116501589e+01     0.210328    0.1426792 -50.45  0.000415483    1.617    0.382
       325  -9.1527     82.3452     72.4507   4.3118528913e+01   5.2434496919e+01    0.3036742    0.2512075 -82.07 0.0009871114    1.596    0.373
       326  -8.8230     95.1423     71.1649   3.8198650859e+01   5.0058332967e+01    0.2730774    0.1961408 -69.61 0.0009604808    1.973    0.493
       327  -8.2972    105.5510     71.4989   3.4971216178e+01   4.7694692964e+01     0.152304    0.1473468  61.52  0.000250198    1.070    0.065
       328  -8.7720     51.6957     69.7772   5.4737507148e+01   5.8276679205e+01    0.2712612    0.1748295 -77.51  0.001139043    2.461    0.594
       329  -8.9694    147.1280     68.0230   2.3115194624e+01   3.8358645552e+01     0.319331    0.1801687 -51.46 0.0007795727    2.005    0.501
       330  -8.7105    138.7997     66.1255   2.4374567002e+01   4.0729358715e+01     0.233742    0.1983861 -69.95 0.0006014864    1.295    0.228
       331  -8.4896    121.5713     65.7946   2.8504738143e+01   4.4997705060e+01    0.2134067    0.1412208 -51.25 0.0007952664    1.693    0.409
       332  -8.9246    250.5052     64.5333   7.4084302011e+00   1.6155494282e+01    0.1202773   0.09819733 -47.09 3.509849e-05    1.005    0.005
       333  -8.6749    110.1510     63.5282   3.0915443871e+01   4.8122829452e+01    0.2448944    0.2064924 -70.23 0.0006355732    1.408    0.290
       334  -7.9019     37.6391     64.3347   5.9609016082e+01   6.1348958695e+01    0.1407277    0.1064387  63.55 0.0007038476    1.813    0.448
       335  -8.1954    158.2930     61.6717   1.8987363398e+01   3.6629755085e+01    0.1520894    0.1095049 -68.91 0.0003212465    1.626    0.385
       336  -8.6684     97.4956     60.3321   3.3677907488e+01   5.1613463426e+01    0.2535274    0.1801682  67.70 0.0007067655    1.767    0.434
       337  -9.2937     73.3729     59.5677   4.2056201168e+01   5.6803791100e+01    0.3177151    0.2379915 -63.47  0.001188975    1.739    0.425
       338  -9.3511     23.6247     56.3214   6.4347789174e+01   6.4625246580e+01    0.3774259    0.2404855  77.84  0.001682738    2.792    0.642
       339  -8.2123    130.8020     57.5684   2.3497195569e+01   4.4124259031e+01    0.2060518    0.1417654  70.52 0.0006560854    1.595    0.373
       340  -8.7825      7.6770     57.3212   7.3162008274e+01   6.5541967181e+01     0.192058    0.1402813  60.60  0.001081258    1.766    0.434
       341  -8.2341    140.3170     56.1550   2.0907165239e+01   4.1969968728e+01    0.2095675     0.127904 -44.97 0.0004075087    1.713    0.416
       342  -8.4751    119.1608     55.9055   2.5820915536e+01   4.7270716857e+01    0.2466134    0.1646465 -63.65 0.0007900436    2.020    0.505
       343  -8.5625     62.9797     54.7239   4.4553672459e+01   5.9673767617e+01    0.2404849    0.1812589 -57.59 0.0006562592    1.596    0.374
       344  -8.4429     16.7736     70.1617   7.1348647427e+01   6.1929635002e+01    0.2192333     0.119284  58.99    0.0008751    2.763    0.638
       345  -8.4748     54.4837     53.9905   4.8069748993e+01   6.1250817426e+01    0.1941561    0.1296514 -73.83 0.0008103375    2.668    0.625
       346  -8.2031    105.5502     53.0258   2.8565410452e+01   5.1029353227e+01    0.2035693    0.1248919 -60.15  0.000544198    2.369    0.578
       347  -8.6705      2.6393     53.6724   7.5100508695e+01   6.6637308926e+01    0.1440098   0.07161919 -38.08 0.0007041774    1.791    0.442
       348  -9.1542     92.5488     50.5807   3.1701218834e+01   5.4447162165e+01    0.3017648    0.2268215 -60.55 0.0009454364    1.702    0.413
       349  -8.8156    172.1260     50.0728   1.3297301894e+01   3.4936129223e+01    0.1919524    0.1837206  51.42            0    1.146    0.128
       350  -8.2808    144.7273     48.3826   1.7541995246e+01   4.2023685898e+01    0.1542224    0.1064979 -64.70  0.000524366    1.705    0.413
       351  -8.1767    112.3309     46.6855   2.4366489963e+01   5.0408500969e+01    0.1506307    0.1158914 -79.30 0.0004828746    1.679    0.405
       352  -8.5136     82.0341     46.2730   3.3654098538e+01   5.7489634094e+01    0.2000661    0.1870019  36.04 0.0005782555    1.062    0.058
       353  -7.9665     45.2737     44.6357   4.8883503463e+01   6.4536344040e+01    0.1277182    0.1114759  86.14 0.0007003564    1.665    0.399
       354  -8.2041    132.6882     43.2871   1.8329108648e+01   4.5807663372e+01    0.1474538    0.1105804 -76.05 0.0002356101    1.579    0.367
       355  -8.5022     58.4586     42.9122   4.1846997970e+01   6.2714998788e+01    0.1889313    0.1256839 -66.26 0.0008073778    2.621    0.618
       356  -9.5850      5.8556     42.7244   7.0556729833e+01   6.8959026922e+01    0.2223776     0.156132  75.20   0.00109263    2.065    0.516
       357  -8.9618     69.8154     41.6977   3.6456463164e+01   6.0791852604e+01    0.2541529    0.1881907 -67.09   0.00120885    2.082    0.520
       358  -8.2730    105.9943     41.4699   2.4151492091e+01   5.2739033610e+01    0.1930237    0.1283228  85.06 0.0004694747    2.239    0.553
       359  -8.2245     95.6993     38.3344   2.5916253904e+01   5.5664571898e+01    0.1432345    0.1143941 -75.99 0.0002824309    1.656    0.396
       360  -9.0101     26.0424     35.4321   5.5724418891e+01   6.8840143406e+01    0.2217871    0.1832765 -69.32  0.000699968    1.612    0.380
       361  -8.3594    111.8118     34.5642   2.0011348905e+01   5.2276016647e+01     0.200492    0.1345553  72.71 0.0007131572    1.625    0.385
       362  -8.3695    119.3899     33.2338   1.7721078997e+01   5.0544301928e+01    0.1923748    0.1316857 -43.45 0.0004802069    1.589    0.371
       363  -8.5214     48.6625     33.0913   4.2191010238e+01   6.6132624758e+01    0.1941382    0.1677952 -53.77 0.0006514945    1.470    0.320
       364  -8.5212     60.7163     32.3748   3.6192129864e+01   6.4100421883e+01    0.1925861    0.1656338  83.77   0.00063702    1.708    0.414
       365  -8.2180     72.4966     31.4602   3.0925432446e+01   6.1874675049e+01    0.1386537    0.1287243  35.12 0.0001498163    1.096    0.087
       366  -8.5612     13.3622     30.7676   6.1839081205e+01   7.0991593461e+01    0.1757666    0.0984813 -45.56 0.0006545747    1.540    0.350
       367 -10.2890    249.7488     28.7379   1.1402878113e-01   2.0655456102e+01     0.270392    0.1307011 -26.77    0.0014205    2.219    0.549
       368  -8.2403    101.9558     29.4623   2.0569530874e+01   5.5381379155e+01    0.1955543    0.1239315  86.92 0.0008072495    2.391    0.582
       369  -8.8390     81.8069     27.6607   2.5869936492e+01   6.0376626123e+01    0.2510604    0.1754784 -59.39  0.000966208    2.043    0.511
       370  -8.6640     91.7742     26.4284   2.2183007411e+01   5.8225652665e+01    0.2393142    0.1673116 -42.31 0.0006793332    1.629    0.386
       371  -9.0720      3.5436     27.5066   6.7300064142e+01   7.2339519136e+01    0.1229489    0.1013058 -31.40 0.0001074111    1.025    0.024
       372  -9.2124      9.0000     25.4589   6.2707233035e+01   7.2395243114e+01    0.2642977   0.06338581 -58.17 0.0009335706    3.925    0.745
       373  -8.3701     34.6592     23.3039   4.5032060581e+01   6.9969348530e+01    0.1182176    0.1047092  62.14 0.0003245274    1.678    0.404
       374  -8.5905     48.6339     21.5649   3.6575523116e+01   6.7990130731e+01    0.1945976    0.1604169 -52.93 0.0008790307    1.648    0.393
       375  -8.2467    121.2552     21.6307   1.3074976524e+01   5.1456342110e+01    0.1421957    0.1011735 -62.23 0.0003893873    1.638    0.390
       376  -8.8833     63.7572     20.9267   2.9409973305e+01   6.5178519431e+01    0.2272359    0.1823642 -48.33 0.0008160016    1.576    0.366
       377  -9.1998     18.7810     21.1568   5.4015461619e+01   7.2336683463e+01    0.3091348    0.1138782  39.37  0.000991394    3.507    0.715
       378  -8.9299     74.0339     19.3289   2.4717467238e+01   6.3187915380e+01    0.2292061    0.1883903 -59.89 0.0007052164    1.611    0.379
       379  -8.2210    191.6261    249.3104   5.1967899771e+01  -1.5168116620e+00    0.1076517   0.08195396  42.43 0.0007031782    1.779    0.438
       380 -10.1534     64.8472    248.8953   7.8052646654e+01   1.5103917420e+01    0.3907976    0.1290858  38.61  0.001850398    2.124    0.529
       381  -8.1739     97.4593     15.4602   1.5958582226e+01   5.8116234835e+01     0.138304    0.1241942  60.97 0.0001212403    1.063    0.060
       382  -9.7587      7.2912     15.3729   5.9539681685e+01   7.4464224490e+01     0.206128    0.1420288  21.79 0.0008914624    1.500    0.333
       383  -9.1635     50.5318    249.5590   8.1093287098e+01   1.6650470541e+01    0.3287777   0.06780815  34.45  0.001327486    3.061    0.673
       384  -9.7021     21.3309    248.2739   8.6976442105e+01   1.9970725756e+01    0.2921667    0.1463871  45.02  0.001266325    1.442    0.306
       385  -9.7910    218.7069    246.2439   4.6602500351e+01  -4.4031001045e+00    0.3388713    0.1473755 -27.20  0.001868624    2.358    0.576
       386 -10.5208    223.8868    243.5175   4.5296317302e+01  -4.6797130511e+00    0.5034626    0.2142221 -36.50  0.002812719    2.511    0.602
       387  -9.1490    175.3495    247.1768   5.4794829538e+01   8.4263759849e-01    0.2112485    0.1896876 -78.51  0.001285278    2.002    0.500
       388  -9.5456    156.0969    247.6812   5.8698387341e+01   3.3226850938e+00    0.1969601    0.1657501 -23.48 0.0006569109    1.376    0.273
       389  -8.4209    113.0000    248.0451   6.7725123211e+01   9.0922590722e+00    0.1643752   0.07190131 -57.28 0.0008027627    2.945    0.660
       390  -8.0761     88.2610     17.6530   1.9389243408e+01   6.0109096067e+01    0.1319455    0.1052921 -65.10 0.0004121869    1.602    0.376
