#   1 NUMBER                 Running object number                                     
#   2 MAG_AUTO               Kron-like elliptical aperture magnitude                    [mag]
#   3 X_IMAGE                Object position along x                                    [pixel]
#   4 Y_IMAGE                Object position along y                                    [pixel]
#   5 X_WORLD                Barycenter position along world x axis                     [deg]
#   6 Y_WORLD                Barycenter position along world y axis                     [deg]
#   7 A_WORLD                Profile RMS along major axis (world units)                 [deg]
#   8 B_WORLD                Profile RMS along minor axis (world units)                 [deg]
#   9 THETA_WORLD            Position angle (CCW/world-x)                               [deg]
#  10 FWHM_WORLD             FWHM assuming a gaussian core                              [deg]
#  11 ELONGATION             A_IMAGE/B_IMAGE                                           
#  12 ELLIPTICITY            1 - B_IMAGE/A_IMAGE                                       
         1 -14.9314    185.9625     22.7425   6.7796585691e+01   3.6114369775e+01      1.78232     1.161193  11.10  0.004002798    2.629    0.620
         2 -11.3008     82.0236    212.6639   1.3470101241e+02   2.0187501645e+01    0.3578972    0.2604415 -47.60  0.001558798    1.811    0.448
         3 -16.0782     71.5351    147.3201   1.2771449672e+02   3.6693719788e+01     4.221625     2.321571  73.38   0.01656257    2.969    0.663
         4 -12.8844     11.1022    206.3277   1.4773761843e+02   3.0382864194e+01    0.3368746    0.2785295  36.17  0.001824024    1.676    0.403
         5 -12.6483    110.4645    207.1255   1.2807698555e+02   1.6744342064e+01    0.3767999    0.2577792  25.52  0.001459491    2.014    0.504
         6 -10.5872     75.5632    205.6613   1.3519028627e+02   2.2654842893e+01    0.2287317    0.1285654  60.09 0.0009616936    1.705    0.414
         7 -10.7448      9.8247    233.3850   1.4967774628e+02   2.5103803845e+01    0.2707188    0.2072785 -16.32  0.001678562    3.514    0.715
         8 -10.2975     60.9679    202.6484   1.3783470704e+02   2.5377198047e+01    0.1800734    0.1356077  60.49  0.001110201    1.201    0.167
         9 -12.7410    198.4014    198.2427   1.0803452586e+02   1.9088565991e+00    0.5816479    0.4004383  42.01  0.001848341    1.371    0.270
        10 -12.5306    190.3379    189.4768   1.0797774654e+02   5.0956567392e+00     1.133485     0.510052 -59.21  0.003483113    4.523    0.779
        11 -13.6163     77.9577    194.8714   1.3334812152e+02   2.4672670820e+01    0.7771571    0.6788822 -69.34  0.004270438    1.234    0.190
        12 -19.2794     30.8652    139.5062   1.3684232747e+02   4.3343422813e+01     19.76464     2.481404 -67.63   0.04493956    8.474    0.882
        13 -10.1100    158.4702    193.9690   1.1557933151e+02   1.0547440697e+01    0.1982814    0.1276724 -77.75  0.000809182    2.482    0.597
        14 -10.6202    181.4058    195.4005   1.1097465034e+02   5.7369485151e+00    0.2839194    0.2087843  82.13 0.0009248006    2.056    0.514
        15 -11.7417    208.1646    186.4506   1.0376503453e+02   2.1521722363e+00    0.3351983    0.2476498  12.04 0.0009088293    1.593    0.372
        16 -12.0301    212.6775    182.8173   1.0213800550e+02   1.9330313702e+00    0.3773404    0.2565543   4.94   0.00131306    2.039    0.510
        17 -12.1514     86.7869    179.9085   1.2929583715e+02   2.6715261338e+01    0.3643459    0.2295175 -50.72  0.001805275    1.717    0.418
        18 -12.4928     89.7158    174.6329   1.2780322178e+02   2.7471359846e+01    0.6457667    0.2508492 -51.08  0.002477321    2.665    0.625
        19 -16.4270    115.9115    246.2558   1.3204009221e+02   8.1830401943e+00     5.485658     2.586987  41.64    0.0272487    1.865    0.464
        20 -11.2628    198.7668    178.2465   1.0398271900e+02   5.5403160120e+00    0.3309537    0.2519286 -53.50  0.001145563    1.467    0.318
        21  -9.7836     62.1180    179.1785   1.3478122355e+02   3.0492362130e+01    0.1786327    0.1298325  72.60 0.0003927959    1.302    0.232
        22 -11.9123    126.8343    172.9030   1.1879485244e+02   2.1292728969e+01     0.343925    0.2030543  49.06  0.001516749    1.653    0.395
        23 -12.0253    117.4516    172.9403   1.2100100805e+02   2.3054339429e+01    0.2987812    0.1951362  59.39 0.0009796732    1.615    0.381
        24 -11.6827    137.1571    170.8701   1.1599981871e+02   1.9731476561e+01    0.2420136    0.2039206  79.37 0.0008377015    1.252    0.201
        25 -11.1147    184.8178    168.1534   1.0477361981e+02   1.0411199999e+01    0.3106353     0.246959 -73.35 0.0009311145    1.573    0.364
        26 -12.3333    100.5040    157.4840   1.2224865475e+02   2.9703097432e+01    0.6260039    0.3581287 -39.81  0.002625421    2.212    0.548
        27 -10.9753    162.5053    154.5024   1.0672459030e+02   1.8071924233e+01    0.1540471    0.1500258  74.44 0.0008106595    1.007    0.007
        28 -10.7405    168.9096    212.3136   1.1661581125e+02   4.9718468619e+00    0.2210618    0.1889422 -70.49 0.0005934069    1.377    0.274
        29 -10.6371     77.9502    231.2709   1.3754502256e+02   1.6984431673e+01    0.2354343    0.1409594  74.64  0.001297096    1.649    0.394
        30 -11.3824    134.1137    146.2688   1.1162075795e+02   2.5943446550e+01    0.7634856    0.1955481 -55.57  0.001697372    6.242    0.840
        31 -13.8151      2.8751    125.0476   1.4201686281e+02   4.8845400514e+01     1.625307    0.5453286 -77.17  0.007014658    2.813    0.644
        32 -13.0737      8.3839    145.1864   1.4298031165e+02   4.3959008483e+01    0.7030621    0.4669179 -79.92   0.00456425    1.178    0.151
        33 -11.1108      1.3949    137.7921   1.4382298876e+02   4.6109596555e+01    0.2128822    0.1558468 -76.44 0.0002003972    1.024    0.023
        34 -11.4780      5.2214    137.3604   1.4286807454e+02   4.5943669712e+01    0.2494614    0.1563017  69.57 0.0005347365    1.713    0.416
        35 -12.2554      8.9565    137.0000   1.4192969315e+02   4.5756813027e+01    0.2369375    0.2081949  10.33 0.0004503914    1.564    0.361
        36 -11.4236    110.5458    141.3960   1.1648750862e+02   3.1704164449e+01    0.4765805    0.2415604 -37.61  0.001751664    2.608    0.617
        37 -12.4249     99.4151    142.0756   1.1950838073e+02   3.3545375924e+01    0.2743208    0.2471503 -47.76 0.0003851225    1.152    0.132
        38 -11.1738     13.3365    209.7114   1.4757521423e+02   2.9462693839e+01    0.1721646    0.1175096  59.93 0.0004799196    1.311    0.237
        39 -10.8112    116.8252    131.5036   1.1266056741e+02   3.2821438676e+01    0.2884851     0.235677 -20.52 0.0008783211    1.518    0.341
        40 -11.6267    105.3327    128.9704   1.1511381955e+02   3.5576829635e+01    0.4947846     0.261614 -60.07  0.001128658    2.024    0.506
        41 -11.1330    160.7942    126.5304   1.0056870500e+02   2.4543997150e+01    0.2703704    0.1942458 -50.87  0.001086226    1.405    0.288
        42  -9.8467    111.5102    120.0145   1.1134690256e+02   3.6489145845e+01     0.216186    0.1444526 -50.22 0.0002209842    1.440    0.306
        43 -11.1461    168.7258    113.5842   9.5492958795e+01   2.5440302056e+01    0.3283461    0.2608791 -76.56 0.0008080348    1.493    0.330
        44 -10.3986    205.2043    110.2829   8.7170306254e+01   1.7461985346e+01    0.2415827    0.1928188  35.84  0.000960722    1.421    0.296
        45 -10.0515    166.2629    208.6299   1.1653035550e+02   6.1626433498e+00     0.200536    0.1661756  53.53 0.0009538275    1.155    0.134
        46 -13.5694    169.1328     43.5084   7.6121762219e+01   3.7671507174e+01     0.532028    0.4736047 -38.17  0.001008556    1.213    0.176
        47 -13.9616    181.1473     30.1105   7.0441964721e+01   3.6427764019e+01    0.7814003    0.5449856  41.82  0.004010034    1.611    0.379
