#   1 NUMBER                 Running object number                                     
#   2 MAG_AUTO               Kron-like elliptical aperture magnitude                    [mag]
#   3 X_IMAGE                Object position along x                                    [pixel]
#   4 Y_IMAGE                Object position along y                                    [pixel]
#   5 X_WORLD                Barycenter position along world x axis                     [deg]
#   6 Y_WORLD                Barycenter position along world y axis                     [deg]
#   7 A_WORLD                Profile RMS along major axis (world units)                 [deg]
#   8 B_WORLD                Profile RMS along minor axis (world units)                 [deg]
#   9 THETA_WORLD            Position angle (CCW/world-x)                               [deg]
#  10 FWHM_WORLD             FWHM assuming a gaussian core                              [deg]
#  11 ELONGATION             A_IMAGE/B_IMAGE                                           
#  12 ELLIPTICITY            1 - B_IMAGE/A_IMAGE                                       
         1 -14.0644    213.2366      4.0524   4.5387429867e+01   3.0256879079e+01     1.790476     1.072728  62.72  0.005526823    1.618    0.382
         2 -15.2106    190.3795     32.2704   5.6463532564e+01   3.3162116595e+01     3.340544     2.044519  16.16   0.01363647    2.346    0.574
         3 -12.9647     43.2096      4.4994   8.3551915062e+01   6.9859059874e+01    0.5021396    0.3829355  39.39  0.001943951    1.571    0.363
         4 -10.0544     71.8938    229.8618   1.2194288935e+02   2.1082579652e+01    0.1394741   0.08618727  59.44 0.0003663924    1.240    0.193
         5 -16.7908     65.1689    248.1559   1.2427293503e+02   1.9118414465e+01     8.230197     2.505382  32.56    0.0255442    7.602    0.868
         6 -19.1715     15.1595    106.8756   1.2306110601e+02   5.1473075243e+01     15.32235    0.7328846 -72.51   0.02734227   16.085    0.938
         7 -17.6525     28.3375    242.7410   1.2974962259e+02   2.4058742178e+01     7.318233     2.830054 -63.99   0.04590959    3.190    0.686
         8 -13.6378    115.3938    207.9832   1.1207959522e+02   1.8551809397e+01    0.7106307    0.6083049  32.67  0.005030245    1.335    0.251
         9 -13.1080    112.1524    196.2254   1.1131427201e+02   2.1032715403e+01    0.6720207    0.4630014  22.84  0.003637435    2.024    0.506
        10 -13.3389    128.2066    209.9983   1.0991569573e+02   1.6236558465e+01    0.6994408    0.4328814  71.85  0.003874876    2.133    0.531
        11 -11.3894    106.9660    209.9715   1.1388045407e+02   1.9495771635e+01    0.5413061    0.2633995  51.76  0.002042203    1.733    0.423
        12 -12.0012    106.7280    203.2508   1.1318664267e+02   2.0656496732e+01    0.5954132    0.2688112  49.05  0.002054529    1.841    0.457
        13 -11.3009     55.5477    211.1207   1.2344238183e+02   2.6204175228e+01    0.4545711    0.1984369  41.39  0.001475325    1.942    0.485
        14 -12.9211     60.4203    203.3523   1.2196380852e+02   2.6981742995e+01    0.3762312    0.2701033 -68.18  0.001627403    1.558    0.358
        15 -11.4169     39.7223    212.9578   1.2636497923e+02   2.7694147531e+01    0.2090478   0.09854964  52.70 0.0008734633    1.607    0.378
        16 -11.7281     72.1818    211.4583   1.2045736220e+02   2.4081526550e+01    0.2024981    0.1471565  62.81 0.0003771748    1.065    0.061
        17 -10.8087     76.3008    206.9346   1.1930932576e+02   2.4325243705e+01    0.2772596    0.1784158 -61.59  0.001294118    1.806    0.446
        18 -12.3061     63.4980    206.4601   1.2164200189e+02   2.6050835210e+01     0.324056    0.2428138  75.36  0.001304331    1.123    0.109
        19  -9.4851     50.8714    204.6428   1.2382364927e+02   2.7893047187e+01    0.1903502     0.144253  67.09  0.001127749    1.022    0.021
        20 -12.1081    193.8768    195.3714   9.5648493944e+01   7.3357235730e+00     1.106743    0.5823454 -58.22  0.004471144    4.461    0.776
        21  -9.3977     67.3526    225.4308   1.2239905913e+02   2.2362650424e+01    0.1942367   0.08974671  37.03  0.001124634    2.103    0.524
        22  -9.8912    198.8948    222.6741   9.8971143819e+01   3.0770209936e+00    0.1642774     0.114958  37.74 0.0003789139    1.131    0.115
        23  -8.8489    163.2790    203.6409   1.0253229302e+02   1.1445932003e+01    0.1170362    0.0899702  71.47 0.0002770206    1.664    0.399
        24 -11.0987    156.0616    199.9213   1.0334297058e+02   1.3225743344e+01    0.3774512    0.2607975  77.58  0.002047858    2.222    0.550
        25  -9.5869     87.7927    201.7559   1.1665033813e+02   2.3667537331e+01    0.1695949    0.1074261  62.10  0.001051125    1.393    0.282
        26 -10.3725     95.2332    200.2333   1.1506346003e+02   2.2874890030e+01    0.2499801    0.1523569  63.84 0.0007178505    1.569    0.363
        27 -11.3703    101.6954    196.0671   1.1334526505e+02   2.2656274558e+01    0.5345688    0.3235625  15.58  0.002266418    4.129    0.758
        28 -11.4388    135.7457    199.0128   1.0708781033e+02   1.6777528024e+01    0.2329275    0.2011845  76.02  0.001581065    1.237    0.191
        29 -11.5523    121.2011    198.3933   1.0981828226e+02   1.9238400642e+01    0.2650346    0.1641921 -63.45  0.001535329    1.913    0.477
        30  -9.2605     81.0261    220.5346   1.1962265536e+02   2.1402943463e+01    0.1633787   0.08774506  43.34 0.0004554318    1.537    0.350
        31 -13.3974     48.1376    216.6884   1.2513085354e+02   2.6113656115e+01    0.4198418    0.1597445  56.77  0.002289012    2.150    0.535
        32 -11.4373    141.2089    197.8330   1.0587617473e+02   1.6060449842e+01    0.2543636    0.2094935 -83.15 0.0008454872    1.471    0.320
        33 -11.1584    208.7106    197.6836   9.3404564572e+01   4.4824402427e+00    0.2282396    0.1963143  64.61 0.0008339586    1.622    0.383
        34 -10.0292     82.0692    195.3831   1.1711453834e+02   2.5601349327e+01    0.2137967    0.1924225 -69.61  0.001572092    1.362    0.266
        35  -8.8678     25.9842    195.5056   1.2778379487e+02   3.2240331018e+01    0.1397239   0.08086567  49.72 0.0009621187    1.435    0.303
        36 -11.2981    152.5244    193.8689   1.0313051988e+02   1.4769195782e+01    0.3251486    0.1890817  54.25 0.0009874091    1.703    0.413
        37 -13.0053     70.0531    189.6007   1.1890918791e+02   2.8279284012e+01    0.6222003    0.5388083  82.83  0.004207796    1.161    0.139
        38 -11.1076     96.5276    188.3030   1.1347128708e+02   2.4825212199e+01     0.376327    0.2404591  55.37  0.001277556    1.356    0.262
        39 -11.4804    121.5153    212.7599   1.1148386170e+02   1.6843251858e+01    0.2234323    0.1597654  44.98  0.001472849    1.156    0.135
        40 -11.0157    151.2938    183.2762   1.0175018747e+02   1.6696431245e+01    0.2318339    0.1865857  67.52 0.0006067569    1.367    0.268
        41 -11.8939    109.3652    184.0968   1.1034195000e+02   2.3628783806e+01     0.275027    0.2285416  37.01  0.001718879    1.285    0.222
        42 -11.0530     99.4615    180.7498   1.1195055721e+02   2.5786964167e+01    0.2278459    0.1918014  57.54 0.0005978092    1.055    0.052
        43 -10.0150     70.2514    178.8277   1.1779005804e+02   3.0310889815e+01    0.2044516    0.1293936  56.95 0.0007115094    1.368    0.269
        44  -9.9825    168.2898    176.6418   9.7298624728e+01   1.4697050501e+01    0.1998833    0.1808598 -75.40 0.0006301953    1.359    0.264
        45 -10.1361    165.6640    172.8266   9.7152502889e+01   1.5802747019e+01      0.26371    0.2088572 -75.65  0.001096526    1.731    0.422
        46 -11.8432    140.1524    174.5040   1.0260392466e+02   2.0178101263e+01    0.5407115    0.3107631  72.94  0.002165247    3.343    0.701
        47 -10.5475    139.9601    168.0259   1.0157990634e+02   2.1370115859e+01    0.2395268    0.2074685  18.73 0.0008515576    1.327    0.246
        48 -10.5991     30.5461    170.1174   1.2521529376e+02   3.6641575952e+01    0.1853833    0.1772349 -31.05  0.000401421    1.584    0.369
        49 -10.0672    202.3987    170.2312   8.9647220028e+01   9.2977831303e+00    0.1684848    0.1241025 -43.55 0.0006318112    1.626    0.385
        50 -11.6741    194.6636    167.8415   9.0627104104e+01   1.1105975873e+01     0.330479    0.3259609 -61.52 0.0008270469    1.258    0.205
        51 -10.6546    190.0458    160.7804   9.0137195280e+01   1.3070696609e+01    0.2988525    0.2519153 -56.64 0.0009403599    1.498    0.333
        52 -11.2092    189.2638    155.0463   8.9144883469e+01   1.4125594017e+01    0.3911647    0.3712506  71.96  0.001577884    1.255    0.203
        53 -11.5523    132.8184    203.5812   1.0824786189e+02   1.6519415562e+01    0.2027551    0.1643973  75.97 0.0007216206    1.341    0.254
        54 -10.5129    161.0286    165.8745   9.6845081469e+01   1.7837217619e+01    0.3200614     0.210086 -73.23  0.001028488    2.596    0.615
        55 -10.8601    229.9747    166.0015   8.3962384086e+01   4.7912672905e+00    0.1815433    0.1652685 -76.67 0.0009044328    1.699    0.411
        56 -10.0507    203.8177    164.7100   8.8324160660e+01   9.8268591301e+00    0.3807158    0.1618035 -47.49  0.001481491    3.389    0.705
        57 -12.2758    110.9757    188.0219   1.1052304416e+02   2.2663816163e+01    0.4434958    0.3136199 -10.80  0.002112372    3.111    0.679
        58 -12.7789     97.1335    154.3154   1.0878076393e+02   3.1356223261e+01    0.6007848     0.471273 -33.90  0.003440077    1.732    0.423
        59 -10.7363    132.7596    139.5207   9.7946509979e+01   2.8132611180e+01    0.4089905    0.1836902 -59.43  0.001510861    3.018    0.669
        60  -9.9341    113.2972    151.2640   1.0458599760e+02   2.9312711684e+01    0.2555445    0.1566624 -81.42  0.001138741    2.358    0.576
        61 -11.5247    134.1759    146.5115   9.8987861114e+01   2.6487487543e+01    0.9366798    0.2642367 -54.11  0.002809538    4.682    0.786
        62 -10.5003    174.4314    148.6415   9.0778768097e+01   1.8156824954e+01    0.3174179    0.2434397 -78.62  0.001228132    1.936    0.483
        63 -11.5440    144.1898    146.9765   9.6850677524e+01   2.4480765890e+01    0.3698119    0.2965637 -82.72   0.00198236    1.534    0.348
        64 -12.4997     96.3942    139.9951   1.0663948567e+02   3.4469095172e+01    0.3034554    0.2650418 -88.98 0.0004315916    1.087    0.080
        65 -12.0086    107.9865    139.9692   1.0384573477e+02   3.2547019164e+01    0.4860208    0.3308233 -36.08   0.00242759    1.908    0.476
        66 -11.3338    105.9191    130.7609   1.0262711909e+02   3.4847115058e+01    0.4298106     0.306231 -70.91   0.00135118    1.514    0.339
        67 -11.2992    102.9335    126.4183   1.0252570687e+02   3.6291096432e+01    0.2876551    0.2368069 -27.79  0.001468254    1.533    0.347
        68 -11.1155    115.2098    130.2945   1.0025187607e+02   3.3297930820e+01    0.3036579    0.2761247  -3.08  0.000761994    1.348    0.258
        69 -10.7521    136.2376    128.2328   9.4786829595e+01   2.9705220641e+01    0.3839591    0.2216985 -47.96  0.001715919    1.795    0.443
        70 -10.2374    160.6381    127.8071   8.9172714134e+01   2.4745748122e+01    0.2869748    0.2285549 -81.56  0.001423271    1.661    0.398
        71 -11.0066    120.1169    124.2041   9.7784568191e+01   3.3663985713e+01    0.4027534    0.2792875 -13.85  0.001740267    2.500    0.600
        72  -9.7098    135.0000    119.9485   9.3226569348e+01   3.1621315789e+01    0.2380246   0.08298976 -46.17 0.0008015149    2.936    0.659
        73 -10.2328    110.3997    119.2073   9.9143184314e+01   3.6521256551e+01    0.2302573    0.1889302  45.31 0.0002980598    1.224    0.183
        74 -10.1450    167.9890    112.6599   8.3964447141e+01   2.5936886587e+01    0.3162455     0.244126 -82.00  0.001289044    1.812    0.448
        75 -11.2292    120.6473    111.1103   9.4701487736e+01   3.6306049854e+01    0.4032571    0.2654753  58.25  0.001844986    1.684    0.406
        76 -10.1980    205.6298    110.0919   7.5870802828e+01   1.7866911004e+01    0.2758015    0.2026953  38.72 0.0006470612    1.348    0.258
        77  -9.4902    134.6086    105.7962   8.9908596572e+01   3.4566324598e+01    0.2122784    0.1385287 -55.18 0.0006351109    1.670    0.401
        78  -9.1762     62.0070     93.7457   1.0716317616e+02   4.9778515566e+01    0.1491834    0.1145903  37.29 0.0002760113    1.452    0.311
        79 -10.2440     41.7186     91.9533   1.1305453026e+02   5.2530011446e+01    0.1844743     0.176845  84.73 0.0004461753    1.158    0.136
        80 -10.8180     52.6527     90.8583   1.0944256194e+02   5.1582240312e+01     0.205989    0.1823408   4.98  0.001004247    1.404    0.288
        81  -9.8156     57.4000     79.2616   1.0535331429e+02   5.3618672921e+01    0.2163403    0.1502389  59.20 0.0007500428    1.770    0.435
        82 -11.9738    166.3714     66.5887   7.1435995270e+01   3.4455507160e+01    0.4929999    0.3467479 -79.95 0.0006221783    2.080    0.519
        83 -10.7785    249.8423    248.0102   9.4457196724e+01  -6.9115398383e+00    0.2088482   0.06909989 -28.17  0.001125899    3.535    0.717
        84 -13.6247    175.3895     47.1614   6.3586326145e+01   3.5127088041e+01    0.7894649    0.7107766  19.32 0.0007911847    1.165    0.142
        85  -9.5005     62.7161    234.3408   1.2379745703e+02   2.1511478084e+01    0.1365363   0.07723165  43.25 0.0009339149    1.488    0.328
        86 -10.7114     44.2880    210.3198   1.2539725402e+02   2.7645579573e+01    0.2418059    0.1012708  56.62  0.001110312    1.918    0.479
        87  -8.9949    115.5102     31.4405   7.0943425752e+01   5.2397115547e+01    0.1443394    0.1361708  11.41  0.000143453    1.011    0.011
        88  -9.1609     91.6479     14.2799   7.0290220971e+01   5.9993850976e+01    0.1292195    0.1086015 -68.84 0.0007012608    1.650    0.394
