#   1 NUMBER                 Running object number                                     
#   2 MAG_AUTO               Kron-like elliptical aperture magnitude                    [mag]
#   3 X_IMAGE                Object position along x                                    [pixel]
#   4 Y_IMAGE                Object position along y                                    [pixel]
#   5 X_WORLD                Barycenter position along world x axis                     [deg]
#   6 Y_WORLD                Barycenter position along world y axis                     [deg]
#   7 A_WORLD                Profile RMS along major axis (world units)                 [deg]
#   8 B_WORLD                Profile RMS along minor axis (world units)                 [deg]
#   9 THETA_WORLD            Position angle (CCW/world-x)                               [deg]
#  10 FWHM_WORLD             FWHM assuming a gaussian core                              [deg]
#  11 ELONGATION             A_IMAGE/B_IMAGE                                           
#  12 ELLIPTICITY            1 - B_IMAGE/A_IMAGE                                       
         1 -13.2073    188.9354     24.6286   6.9325895772e+01   3.4807720122e+01     1.634988     1.321654  -8.82  0.006674387    1.449    0.310
         2 -13.2388    196.8075     18.2058   6.6500064198e+01   3.3521229977e+01     1.382595     1.047491  74.81  0.007253215    1.242    0.195
         3 -12.9578    201.9843     10.5289   6.3802235272e+01   3.3028084836e+01     1.342041     0.716194  47.11  0.001522774    2.105    0.525
         4 -11.0158     32.6354     14.5798   1.0684521048e+02   6.9179968557e+01    0.6653688   0.09491848 -42.03  0.001969048    6.219    0.839
         5  -8.8578    225.3204    244.6687   1.1352808122e+02  -6.3139632757e+00    0.1005953   0.08566069  53.75 0.0007048901    1.694    0.410
         6  -9.7535    246.5910    250.3328   1.1089492015e+02  -9.9388409662e+00    0.2244176    0.1078617  33.61  0.001355567    1.633    0.387
         7  -8.8445    208.4964    249.9883   1.1714223416e+02  -4.3939637724e+00    0.1502433   0.08802111  -3.51 0.0008102567    2.544    0.607
         8  -9.3158    163.3013    250.0235   1.2496209986e+02   2.6074370886e+00    0.1625155    0.1347747  42.79  0.001176566    1.081    0.075
         9 -11.2323    139.4142    248.6102   1.2899665049e+02   6.5411268083e+00    0.3546623    0.2528396 -79.58  0.002308513    1.930    0.482
        10 -10.4134    124.0169    249.9400   1.3184617304e+02   8.7064961869e+00    0.4364009    0.1251977  47.50  0.001891749    2.779    0.640
        11 -11.7716    126.9261    245.3560   1.3084589582e+02   8.9554246496e+00    0.5159371    0.2566786  56.57  0.002772162    1.979    0.495
        12 -11.6729     94.7057    238.6695   1.3590312999e+02   1.4839398129e+01     1.241717    0.3260099 -54.25  0.005110455    4.706    0.787
        13 -10.7977    109.9128    247.8805   1.3410433338e+02   1.1131217034e+01    0.3185209    0.2597106 -71.36  0.001670111    1.463    0.316
        14 -11.2476    101.3675    249.3861   1.3573152105e+02   1.2141972693e+01    0.6728819    0.2045477  45.28  0.003174479    2.455    0.593
        15 -11.4594    104.6791    244.6915   1.3471232600e+02   1.2405002275e+01    0.4981136    0.3049958  88.98  0.000635643    2.069    0.517
        16 -10.4343    100.3616    244.7746   1.3547824135e+02   1.3021016751e+01    0.3372009    0.1729908  40.07 0.0009902535    1.715    0.417
        17 -11.6857     80.4510    247.8786   1.3918775978e+02   1.5310765568e+01    0.6056193    0.3243335  49.73  0.003850462    1.424    0.298
        18 -10.8839     79.3291    239.0169   1.3864970075e+02   1.6938158386e+01    0.2555515     0.229905 -59.33  0.001181277    1.567    0.362
        19 -10.2964     83.2080    243.4584   1.3834994731e+02   1.5661045342e+01    0.3298727    0.1495385 -79.75  0.001705015    2.932    0.659
        20 -11.1794     86.8292    241.1553   1.3752066153e+02   1.5541900615e+01     0.413278    0.2184619  70.27  0.002326916    2.077    0.519
        21 -10.2147     83.5303    238.0106   1.3782455077e+02   1.6530845898e+01    0.2935642    0.1568773  83.68   0.00108088    2.337    0.572
        22 -12.5549     73.1401    226.8360   1.3870489928e+02   1.9909036103e+01    0.7088542    0.2926064  64.28  0.002378407    2.881    0.653
        23 -13.2422     48.7480    228.8282   1.4320042811e+02   2.2663835637e+01     1.142272    0.6251547 -73.64  0.002774904    1.799    0.444
        24 -14.8573     56.9578    213.5982   1.4054613189e+02   2.4478748574e+01     6.920824     1.926315  45.63   0.02365134    2.794    0.642
        25  -9.4367    191.8010    192.5807   1.1095171974e+02   6.2259596645e+00    0.3738592    0.2161678 -62.81  0.001500022    3.547    0.718
        26  -7.7723    181.4712    192.4873   1.1294108462e+02   8.1479408238e+00    0.1351894    0.1190652  28.34 0.0008096535    1.031    0.030
        27 -10.7466     84.7823    174.6536   1.3059943861e+02   2.8599957136e+01      0.28456    0.2397346 -63.74 0.0004716673    1.252    0.201
        28  -9.5845    115.0392    174.7017   1.2384710783e+02   2.3697053362e+01    0.1996582    0.1695336  53.38 0.0008081119    1.097    0.089
        29 -12.6151     72.5778    172.1301   1.3299268507e+02   3.0909025733e+01    0.4609385    0.2744261 -46.24  0.001775493    2.142    0.533
        30 -11.9406     90.5234    166.4898   1.2811911645e+02   2.9496007682e+01     1.821989    0.5798069  51.57  0.006106753    3.790    0.736
        31 -12.7566     67.8643    144.9893   1.3026262459e+02   3.7646434440e+01       1.3679     0.712284  84.98  0.003784401    3.176    0.685
        32 -12.5318     58.5459    133.0192   1.3075774938e+02   4.1627930869e+01      2.61434    0.8093738 -73.42  0.006326077    7.458    0.866
        33  -9.3810    102.8443    149.8622   1.2242596921e+02   3.1172189268e+01     0.379263    0.2678467 -43.03  0.001271961    1.599    0.375
        34  -8.7772    105.3014    146.0218   1.2111015816e+02   3.1608668553e+01    0.2981407    0.1603635 -38.43   0.00120352    2.503    0.600
        35 -11.8424     46.3116    147.5833   1.3595661443e+02   3.9725391206e+01    0.6124849    0.3252824 -84.16  0.003029921    1.944    0.486
        36 -11.3113     91.6448    149.2573   1.2505976374e+02   3.3158100448e+01    0.2673848    0.2536702 -43.25 0.0005350717    1.229    0.186
        37  -9.1619    133.8685    145.0997   1.1401976607e+02   2.6489065869e+01    0.4979628    0.1003233 -51.60  0.001190835    5.909    0.831
        38 -10.1568     57.0065    240.2395   1.4258786398e+02   1.9644418071e+01    0.1932839    0.1740157 -70.37  0.001555018    1.564    0.361
        39  -9.3728    112.9940    135.3321   1.1705420337e+02   3.2626697756e+01    0.3769823    0.2756035 -11.98  0.001312215    2.193    0.544
        40 -10.0313    100.2586    132.7629   1.1976988534e+02   3.5479617186e+01    0.2780163    0.2270163 -33.96 0.0005421378    1.427    0.299
        41 -11.2057     49.3283    132.1922   1.3304959680e+02   4.2922935580e+01      0.40492    0.1839131 -60.47  0.001917428    1.876    0.467
        42 -12.2777     41.7942    128.5043   1.3448807026e+02   4.4606454234e+01    0.5904853    0.3099539 -67.40  0.003046758    1.611    0.379
        43  -8.6361    108.7550    122.9997   1.1544632889e+02   3.6178935136e+01      0.19521    0.1805273 -62.80 0.0002748209    1.040    0.038
        44 -14.9125      7.7254    239.9763   1.5055172565e+02   2.5159059140e+01     6.072346     1.048222 -67.14   0.02675452    5.179    0.807
        45 -10.2114    168.2318    113.1625   9.8541222886e+01   2.5695075252e+01    0.3539665    0.2936801 -79.30 0.0008255862    1.466    0.318
        46  -9.4856    229.7609    207.4649   1.0668124551e+02  -2.5396491511e+00    0.2029027    0.1941858 -33.95 0.0005965268    1.443    0.307
        47  -8.8312    205.2024    110.6826   9.0468344644e+01   1.7607162444e+01     0.371196    0.1597566  36.57  0.001208323    3.280    0.695
        48 -10.8491     34.8958    229.8331   1.4564284124e+02   2.4092888438e+01    0.2974479    0.2125369  73.92  0.001252159    1.048    0.046
        49  -9.7630     36.9952    225.9820   1.4504306547e+02   2.4552014614e+01    0.2237568    0.1515746 -71.74  0.001609808    1.569    0.363
        50 -13.5485     11.6937    206.9951   1.4831178678e+02   3.0747789014e+01     1.078644    0.8066101  44.90  0.004382106    1.490    0.329
        51  -9.5389    127.1455     53.7816   9.0487138807e+01   4.6334455088e+01    0.3446991    0.2411271  81.19  0.001361538    2.113    0.527
        52 -15.4552      5.3449    149.5797   1.4574977080e+02   4.3114468098e+01     15.39725     1.184975 -74.71     0.037487    9.253    0.892
        53 -10.9713     71.8494    193.7067   1.3571346452e+02   2.6453309093e+01    0.3810726    0.2379179 -46.19  0.001671364    2.230    0.551
        54 -11.0102    115.7753    246.9364   1.3298280819e+02   1.0405805421e+01    0.3114396    0.2447077  34.46  0.002191635    1.387    0.279
        55 -10.6768     75.3436    241.9637   1.3958547667e+02   1.6979015569e+01    0.3173523    0.1582497  59.04 0.0009856456    1.695    0.410
        56 -11.0421     76.4754    186.7268   1.3395234304e+02   2.7249153155e+01     0.273318     0.233099 -53.10 0.0007942738    1.444    0.307
