#   1 NUMBER                 Running object number                                     
#   2 MAG_AUTO               Kron-like elliptical aperture magnitude                    [mag]
#   3 X_IMAGE                Object position along x                                    [pixel]
#   4 Y_IMAGE                Object position along y                                    [pixel]
#   5 X_WORLD                Barycenter position along world x axis                     [deg]
#   6 Y_WORLD                Barycenter position along world y axis                     [deg]
#   7 A_WORLD                Profile RMS along major axis (world units)                 [deg]
#   8 B_WORLD                Profile RMS along minor axis (world units)                 [deg]
#   9 THETA_WORLD            Position angle (CCW/world-x)                               [deg]
#  10 FWHM_WORLD             FWHM assuming a gaussian core                              [deg]
#  11 ELONGATION             A_IMAGE/B_IMAGE                                           
#  12 ELLIPTICITY            1 - B_IMAGE/A_IMAGE                                       
         1 -12.0898    243.2534     37.2079   6.1969012662e+01   2.0207291716e+01     1.315512    0.6071551 -63.38  0.005891571    2.636    0.621
         2 -13.0089    244.7036      7.9419   5.5093129408e+01   2.3077597522e+01     2.039012     1.842922 -22.40    0.0145073    1.312    0.238
         3 -10.5136    186.8666      7.2959   5.8785075163e+01   3.6599748431e+01    0.5550489    0.2821485 -70.87  0.002416256    2.083    0.520
         4  -7.9632    161.3327      9.6714   6.2083468561e+01   4.3172765497e+01     0.159161   0.09574494 -61.66 0.0007051796    1.718    0.418
         5  -9.1787    149.0653      9.1973   6.3437876128e+01   4.6606586330e+01    0.2944737    0.1904763 -79.55  0.001360083    1.616    0.381
         6  -8.5698    139.2672      8.9775   6.4729603461e+01   4.9362529897e+01    0.1803929    0.1300872 -24.69   0.00088465    1.508    0.337
         7 -10.0743     96.7182      7.6450   7.2550732828e+01   6.1207007319e+01    0.5290463    0.2612896 -79.41  0.001481233    5.276    0.810
         8 -10.6245    220.0929      3.6428   5.5427771094e+01   2.8849866281e+01    0.3590929     0.305243 -85.08  0.001810252    1.161    0.139
         9  -7.8164     32.6618      8.3386   1.0320504043e+02   7.4975299222e+01    0.1205145     0.107968  78.94 0.0007050909    1.759    0.432
        10 -11.0478     78.1533      3.2305   7.5605667739e+01   6.6406275816e+01    0.8464764     0.312903  69.29  0.002750499    3.605    0.723
        11 -10.4420    128.6983      2.5932   6.3770540769e+01   5.2898101886e+01    0.7383889    0.2252695  79.96  0.002115869    4.055    0.753
        12  -9.3329    160.7444      3.6873   6.0118598420e+01   4.3893783055e+01    0.4151532    0.2034938 -74.31  0.001650833    2.330    0.571
        13  -9.7469    137.3624      1.9342   6.2264052742e+01   5.0529634523e+01    0.3443911    0.1895726 -84.93  0.001450304    1.973    0.493
        14  -9.8647     68.5774      3.9089   7.9540213293e+01   6.8637705584e+01    0.3950907    0.2034782  71.58  0.001536642    2.830    0.647
        15  -9.9179     98.2720      2.7174   6.9631247016e+01   6.1260189584e+01    0.3410281     0.197005  72.44  0.001277034    1.694    0.410
        16  -7.9449    190.5941    225.8109   1.0982439249e+02   2.9452395111e+00    0.1398999    0.1121462 -37.71 0.0009623332    1.703    0.413
        17  -9.6123    234.2451    247.7064   1.0525895540e+02  -4.8433630651e+00    0.3483871    0.2023095 -19.52   0.00217539    1.659    0.397
        18  -8.2308    209.6944    250.0040   1.0971531420e+02  -2.2610739462e+00    0.1559819    0.1085828  10.98 0.0005684823    1.064    0.060
        19  -8.2456    216.5175    222.5130   1.0459184587e+02  -8.0179148250e-02    0.2042441    0.1022921 -31.10 0.0009671781    2.105    0.525
        20  -9.8138      2.0302    220.1085   1.4956996066e+02   2.7609666299e+01    0.3821371    0.1079445  80.60  0.001748165    3.447    0.710
        21  -9.4182    227.0186    219.7795   1.0234963825e+02  -1.0969137250e+00    0.2805973    0.1376503 -24.00  0.001639708    2.016    0.504
        22  -9.0818    209.7556    218.1987   1.0513533294e+02   1.3121215918e+00    0.2430338   0.09055768 -33.44  0.001183637    2.882    0.653
        23  -8.4267    193.0000    217.9783   1.0820958462e+02   3.6189422794e+00    0.1732519   0.06578326 -38.48 0.0008118905    3.008    0.668
        24  -9.3852    231.3505    213.3282   1.0059510256e+02  -9.1305694696e-01    0.3647653    0.1865734   0.12  0.001940785    2.274    0.560
        25  -8.4795    226.1124    212.0813   1.0128567835e+02  -1.0321801644e-01    0.1870245    0.1374971 -19.05  0.001163961    1.363    0.266
        26  -9.5920    217.1424    209.8338   1.0248906694e+02   1.3428154183e+00    0.4102447    0.1964655 -30.94  0.002271047    2.133    0.531
        27  -8.3379    201.9128    218.3892   1.0659922338e+02   2.3419737036e+00    0.1847977    0.1516715 -20.29 0.0009424181    1.410    0.291
        28  -9.9868    239.7850    205.8683   9.7978957290e+01  -1.1283874442e+00    0.4324682    0.1872693 -42.49  0.002029633    3.792    0.736
        29  -9.2718    242.9574    200.3475   9.6540822564e+01  -9.0130989894e-01    0.2859544    0.1558694 -17.77  0.001732749    1.648    0.393
        30  -7.9974    205.3253    207.3307   1.0422638991e+02   3.2776774305e+00    0.1285184   0.07723767   5.10 0.0003988027    1.705    0.414
        31  -8.2998    247.9822    204.9285   9.6504511370e+01  -2.0343763242e+00    0.1977844    0.1653204 -24.63  0.001151746    1.668    0.400
        32  -8.9874    250.3637    200.6847   9.5420512997e+01  -1.8577022310e+00    0.3151735    0.1381286 -32.80  0.001767107    2.238    0.553
        33  -9.4714    229.5902    199.6065   9.8629806078e+01   9.1869213009e-01    0.3161712    0.1468048 -16.51  0.001553148    2.502    0.600
        34  -8.7515    210.0668    199.6244   1.0208011320e+02   3.6101826999e+00    0.2339374    0.1573342 -14.73  0.001442063    1.407    0.289
        35  -8.9468      4.0428    197.7616   1.4867102001e+02   3.1818533236e+01    0.2622361   0.07804939  62.89  0.001190652    2.689    0.628
        36  -9.5509    246.7566    191.8226   9.4472483686e+01  -4.0580822028e-01    0.3201805    0.1412277 -21.99  0.001687191    2.159    0.537
        37  -9.1247    231.3597    192.7607   9.7153328513e+01   1.5137407245e+00    0.2700795     0.150397 -17.29   0.00154753    1.706    0.414
        38  -9.8334    224.4266    191.2604   9.8078076067e+01   2.6581384153e+00     0.347591    0.1985687  -3.75  0.001881805    1.900    0.474
        39  -8.0308    215.3813    188.7831   9.9241283381e+01   4.2760296369e+00    0.1735797    0.1008837 -19.54 0.0009507675    1.704    0.413
        40  -9.5994    243.9244    186.4873   9.3985523984e+01   5.8888451008e-01    0.2842022     0.158724 -10.97  0.001540789    1.709    0.415
        41 -10.0034    237.0794    186.7958   9.5149716157e+01   1.4685531502e+00    0.3053393    0.1926365 -12.40  0.001689579    1.389    0.280
        42  -8.8809    230.1030    186.3235   9.6230263659e+01   2.4889019654e+00     0.215055    0.1383013 -14.53  0.001313264    1.385    0.278
        43  -9.2463    249.7100    183.8245   9.2600481090e+01   1.4531020646e-01    0.3203168    0.1628566 -25.83  0.001612406    1.716    0.417
        44  -8.4321    223.8904    182.8071   9.6663312664e+01   3.8272145223e+00    0.2000274    0.1396584   4.66  0.001234436    1.246    0.197
        45  -8.7226    234.9827    180.7104   9.4400387022e+01   2.5142839708e+00    0.3336221    0.1475435 -20.39  0.001574214    2.463    0.594
        46  -8.6253    230.3854    179.8392   9.5009538167e+01   3.2768015155e+00    0.2762109   0.09821852 -25.56 0.0009926248    3.180    0.686
        47  -9.4268    247.9027    176.8118   9.1614992716e+01   1.2206027647e+00    0.2898486    0.1457166 -26.36  0.001632322    1.737    0.424
        48  -9.4244    241.1688    179.0304   9.3085189301e+01   1.8653258049e+00    0.4323796    0.1426288 -37.20  0.001899647    3.104    0.678
        49  -7.8264      1.6109    177.8362   1.4875112169e+02   3.6221224194e+01    0.1708344   0.08564197  73.94 0.0005703212    1.675    0.403
        50  -9.7594    246.6134    162.7596   8.9184660098e+01   3.1395627758e+00    0.3172281    0.1774753 -11.47  0.001724649    1.801    0.445
        51 -10.1331     10.2607    167.1100   1.4621826843e+02   3.7982273286e+01    0.3825496   0.09683384  41.67  0.001613278    2.698    0.629
        52  -8.3044    212.3460    162.3011   9.4829456589e+01   8.4632732840e+00    0.1381375   0.08924035   6.23 0.0007038292    1.684    0.406
        53  -8.8799    205.2964    160.9719   9.5867192591e+01   9.8350788441e+00    0.1930717    0.1558071 -12.05  0.001153229    1.122    0.109
        54  -8.8730    245.8597    156.8983   8.8167345343e+01   3.9969443323e+00    0.3005979    0.1441079 -21.25  0.001503374    2.007    0.502
        55  -9.1720    250.2873    148.8409   8.5918563327e+01   4.3842009407e+00    0.3745908    0.0918588 -30.22  0.001345526    3.781    0.736
        56  -9.6330    243.0540    150.4504   8.7323907521e+01   5.2562993391e+00    0.5331483     0.226234 -16.31  0.002048273    3.537    0.717
        57  -8.5008    202.0000    151.9496   9.4651921493e+01   1.1802566311e+01     0.220426   0.07296669 -36.75 0.0008060698    2.968    0.663
        58  -9.1949    250.0160    141.2956   8.4446340193e+01   5.4030853684e+00     0.236989    0.1781068   4.26  0.001522477    1.237    0.192
        59  -8.1055    234.6631    145.6668   8.7663721316e+01   7.2112474001e+00    0.1352475   0.08624297   3.08 0.0007052035    1.741    0.426
        60  -9.2601    208.4326    144.2662   9.1835958866e+01   1.1863291880e+01    0.2640419    0.1227579 -30.17  0.001142821    2.124    0.529
        61  -9.4173    244.2770    140.0779   8.5039284454e+01   6.4487861674e+00     0.487672    0.1625334 -27.89  0.001952468    2.900    0.655
        62  -9.5557    242.5655    133.2370   8.3874063208e+01   7.6455316574e+00    0.4652179    0.1738242 -30.51   0.00202766    2.345    0.574
        63 -10.1174    240.5393    125.8653   8.2608609849e+01   8.9913775679e+00    0.5386763    0.2356396 -29.63  0.002500758    2.002    0.501
        64  -8.7183    248.7129    135.4336   8.3437011127e+01   6.3744902907e+00    0.2227551    0.1296394 -12.20  0.001173962    1.784    0.440
        65  -9.4623    247.6830    118.1898   7.9953303408e+01   8.8495714007e+00     0.392176    0.1332534 -28.18  0.001570237    2.737    0.635
        66  -9.8761    247.5410    129.3481   8.2339955675e+01   7.3705209008e+00    0.3798729    0.1969727 -33.47  0.001694551    1.655    0.396
        67  -9.3255    248.9777    123.7687   8.0964655345e+01   7.8867898177e+00    0.2979448    0.1973902 -24.09  0.001061081    1.262    0.208
        68  -8.3964    250.5025     55.7189   6.5638949283e+01   1.6550015253e+01    0.2602452    0.1037959 -30.68  0.001181832    2.065    0.516
        69  -8.5539    246.4812     56.5254   6.6198594759e+01   1.7228090199e+01    0.1282284    0.1058436 -40.54 0.0002687751    1.009    0.008
        70  -9.2389    240.1987     49.7988   6.5208988465e+01   1.9316849393e+01    0.2381218     0.137693 -40.19 0.0007966977    1.428    0.299
        71  -8.8851    246.5897     47.7339   6.4147761051e+01   1.8286708566e+01    0.2448979   0.09612768 -35.81 0.0008004836    1.976    0.494
        72  -9.8097    247.4381     43.7790   6.3158979149e+01   1.8592890292e+01    0.4424721    0.1899294 -43.05  0.002135964    1.885    0.469
        73  -9.4189    238.0124     43.6768   6.3946504156e+01   2.0515832709e+01    0.3145461    0.1324428 -42.52  0.001373506    1.949    0.487
        74  -8.5073    190.6946    248.2512   1.1287165245e+02   2.4371130899e-01    0.2191654    0.1485529  58.66  0.001142336    3.921    0.745
        75 -11.4465    246.7076     32.8897   6.0697938950e+01   2.0004929995e+01    0.8158395    0.4579419 -54.99  0.004465969    1.632    0.387
        76  -8.9139      3.4166    243.6460   1.4970595164e+02   2.3303364688e+01    0.2670614    0.1051242  67.01  0.001618885    2.047    0.512
        77  -8.1374    224.9566    242.9492   1.0613347724e+02  -3.3238665198e+00    0.1469056    0.1197455  28.84  0.001135614    1.701    0.412
        78  -9.1442     62.5083     11.5181   8.7041924244e+01   6.9059417856e+01    0.2451022     0.136111  61.56  0.001034454    2.307    0.567
        79  -8.1989    201.5070    241.5109   1.1001747217e+02  -3.4698983482e-01    0.1868733    0.1037728 -32.87  0.001189044    2.094    0.522
        80  -8.7193    230.3813    235.8256   1.0420254390e+02  -3.2258807519e+00    0.1963604    0.1783987   9.95  0.001232503    1.785    0.440
        81  -7.9309      6.6592    236.3276   1.4895454488e+02   2.4283076098e+01    0.1214702   0.04642083  52.67 0.0007051459    1.737    0.424
        82  -9.7887    237.4301    219.6890   1.0059141888e+02  -2.3622908527e+00     0.369328    0.3169155  59.04  0.002440266    2.910    0.656
        83  -9.7998    249.5474    232.6977   1.0063408297e+02  -5.0805760136e+00    0.4041298    0.2583432 -26.24  0.002983859    1.715    0.417
        84 -10.8628    247.5819    224.3739   9.9680074011e+01  -4.0370841516e+00    0.6585531    0.4056408   9.06    0.0038252    1.215    0.177
        85 -10.3717    247.8814    216.7305   9.8436149802e+01  -3.2853877042e+00    0.4722427    0.2962577 -14.89  0.002604261    1.347    0.258
        86  -8.2327    190.0012    234.0098   1.1109630177e+02   2.0064310753e+00    0.1573734    0.1314571 -68.47  0.001025214    2.543    0.607
        87  -9.0081    215.7372    232.7004   1.0624826443e+02  -1.1338529485e+00    0.2430154    0.1716361  50.02  0.001473286    2.731    0.634
        88  -9.0160    235.7734    227.9254   1.0213315779e+02  -3.0380792352e+00    0.2745117    0.1770558 -22.82  0.001954847    1.551    0.355
        89  -8.0584     80.6659     18.3238   8.3322660764e+01   6.4004993662e+01    0.1454751    0.1157879 -73.27 0.0005490772    1.710    0.415
        90  -8.0076    198.5743    226.2460   1.0839345173e+02   1.8192422440e+00    0.1545805   0.09611594 -15.74 0.0009540122    1.680    0.405
