#   1 NUMBER                 Running object number                                     
#   2 MAG_AUTO               Kron-like elliptical aperture magnitude                    [mag]
#   3 X_IMAGE                Object position along x                                    [pixel]
#   4 Y_IMAGE                Object position along y                                    [pixel]
#   5 X_WORLD                Barycenter position along world x axis                     [deg]
#   6 Y_WORLD                Barycenter position along world y axis                     [deg]
#   7 A_WORLD                Profile RMS along major axis (world units)                 [deg]
#   8 B_WORLD                Profile RMS along minor axis (world units)                 [deg]
#   9 THETA_WORLD            Position angle (CCW/world-x)                               [deg]
#  10 FWHM_WORLD             FWHM assuming a gaussian core                              [deg]
#  11 ELONGATION             A_IMAGE/B_IMAGE                                           
#  12 ELLIPTICITY            1 - B_IMAGE/A_IMAGE                                       
         1 -14.4780    181.5506     70.3332   8.3942260194e+01   3.0265855017e+01     11.88927     2.090957 -39.67    0.0283574    4.911    0.796
         2 -17.5622    225.7790      9.6750   6.1289109359e+01   2.7276794332e+01     11.38426     1.043607  65.36   0.03198827    5.594    0.821
         3 -14.4756    234.6198     44.7530   6.9117372444e+01   2.0978423684e+01     1.671765    0.6739525 -49.22  0.006559536    2.522    0.603
         4 -17.0543    247.0858     37.2287   6.5964455647e+01   1.9095612666e+01     14.10119     4.217187 -21.89    0.0337325    7.128    0.860
         5 -12.0129    134.6386    108.4361   1.0518656473e+02   3.4190655577e+01     1.356689    0.2750435 -44.71  0.003385194    4.862    0.794
         6 -16.0818    161.8075     56.4429   8.3567402409e+01   3.7474920663e+01     9.847427     3.303522 -48.80   0.01758062    4.491    0.777
         7 -11.0279    156.6887     10.1155   6.9418993465e+01   4.4637267993e+01    0.4159492    0.2176522 -11.35  0.001448683    2.388    0.581
         8 -11.6684    154.2209      3.3889   6.7560527827e+01   4.5876734771e+01    0.3990382    0.3018481 -59.51   0.00157671    1.472    0.321
         9 -10.6689     42.3928     10.2291   1.0032711974e+02   6.8570488014e+01    0.1601054   0.09892703 -37.89 0.0003130018    1.649    0.394
        10 -12.2921    113.2682      6.2197   7.5904608870e+01   5.5637753012e+01     0.380318    0.2354969  15.04  0.001834767    1.850    0.459
        11 -11.7518    199.4010      1.9940   6.1752593846e+01   3.4513609953e+01    0.2467528    0.1829386 -45.36  0.001398549    1.337    0.252
        12 -11.8058     56.5029      2.4828   9.0623837728e+01   6.7384678009e+01    0.3064845    0.1463643  37.89  0.001522547    1.963    0.491
        13  -9.4570    100.4863    138.4451   1.2085133954e+02   3.4148279599e+01    0.1407918     0.132995 -84.02 0.0001836186    1.029    0.028
        14 -13.2648    249.2384    244.3433   1.0954955593e+02  -9.7076868754e+00     1.096634    0.5019501  21.62  0.005840285    2.286    0.563
        15 -13.5133    167.6321    113.4685   9.8751645552e+01   2.5773108373e+01    0.7114685    0.6121616 -35.25  0.002084177    1.165    0.142
        16 -12.2600    166.2407    104.8339   9.6785072298e+01   2.7780598634e+01    0.4757431    0.3468286 -69.98  0.001760023    1.810    0.448
        17 -11.4840    122.4988    113.5015   1.0958439428e+02   3.5633847196e+01    0.4975893    0.2859694  78.77  0.001360944    5.360    0.813
        18 -12.0450    120.5933    103.1960   1.0741906124e+02   3.8252393988e+01    0.3664854    0.2621446 -22.40  0.001646536    1.779    0.438
        19 -10.4275    111.7141    103.9600   1.1000794396e+02   3.9855266857e+01    0.2154476    0.1894759 -50.31 0.0005265703    1.095    0.087
        20 -10.1154    139.8081    103.1714   1.0249536981e+02   3.4161383917e+01    0.2108137    0.1838451   5.45  0.000560212    1.324    0.245
        21 -11.3244    144.7964     98.1640   9.9901272975e+01   3.4061977912e+01    0.3459941    0.2936566 -14.07 0.0006290587    1.329    0.248
        22 -13.3324    229.2039     56.9972   7.2860045495e+01   2.0568568270e+01     1.034059     0.595476 -67.86  0.002728353    2.301    0.565
        23 -10.8503    132.0207     95.1826   1.0223797110e+02   3.7518547864e+01    0.2753801    0.2186347 -52.77 0.0004521345    1.288    0.224
        24  -9.5146    113.3588     95.2531   1.0720987506e+02   4.1410823345e+01      0.14795    0.1175381   6.31 0.0003576149    1.612    0.380
        25 -11.9598    203.4572     89.1740   8.5211213679e+01   2.1725175603e+01    0.7593393     0.486767 -80.68  0.002851524    2.624    0.619
        26 -10.2458    196.6179     88.1450   8.6155358034e+01   2.3547071626e+01     0.311669    0.1911609 -22.84  0.001299122    1.881    0.468
        27 -11.8091    137.8055     87.5006   9.8564395690e+01   3.7772826782e+01    0.3492283    0.3183379 -73.50 0.0007485578    1.198    0.165
        28 -12.8416    150.2907     79.9825   9.3330079989e+01   3.6295400715e+01    0.4073838     0.291969 -32.00 0.0008040513    1.426    0.299
        29 -12.3600    161.1130    128.3215   1.0391087064e+02   2.4281157597e+01    0.4667577    0.4316613 -52.27  0.001759427    1.104    0.094
        30 -10.5812    249.4665     77.7312   7.5382622301e+01   1.2992038212e+01    0.3761713    0.2339544  23.10  0.001637751    2.612    0.617
        31 -15.0185     28.9220    201.4680   1.4484388456e+02   3.0093373108e+01    0.9215407    0.6940467  79.51  0.003660799    1.034    0.033
        32 -11.5212    148.1848     69.2610   9.0525444401e+01   3.8729834366e+01    0.2929184    0.2382157 -56.43 0.0005263416    1.344    0.256
        33 -11.4009    191.4608    192.4425   1.1099210835e+02   6.3105522901e+00    0.6680272    0.3805503 -66.63   0.00227092    5.144    0.806
        34 -11.3292    135.7281    128.2299   1.0983032433e+02   2.9734618757e+01    0.8521734    0.2240303 -50.85  0.002308179    4.375    0.771
        35 -10.7630    130.8441     65.7243   9.3560729779e+01   4.3449858743e+01    0.2685601    0.2038465 -22.73 0.0008937384    1.402    0.287
        36 -13.5982     47.5318    195.1548   1.4076537889e+02   2.9271153545e+01     1.047177    0.4031217  50.92  0.005202598    2.277    0.561
        37  -9.4898    205.3219     64.6780   7.8279065436e+01   2.5218585555e+01    0.1566114    0.1091421 -65.43 0.0007045787    1.676    0.403
        38 -11.8787    144.4322     62.8996   8.9366033458e+01   4.0729892024e+01    0.4010555    0.2548647 -50.15  0.001128885    1.755    0.430
        39 -10.9228    135.0000    119.6187   1.0794139373e+02   3.1734239495e+01    0.5383627    0.1781494 -46.47  0.001719945    3.006    0.667
        40 -14.0010     38.4206    184.5605   1.4165943039e+02   3.2502830615e+01    0.8217547    0.4313854  81.21  0.004497002    1.881    0.469
        41 -12.1119    141.2947     58.0205   8.8501000658e+01   4.2298659288e+01    0.3394303    0.2525731  17.07  0.001578537    1.648    0.393
        42 -12.2955    144.1267     52.0405   8.5877079177e+01   4.2563119910e+01      0.63536     0.508945  72.59  0.001590447    1.385    0.278
        43 -12.1581    191.3723     44.1614   7.4654651263e+01   3.1712773559e+01    0.6312101    0.2886164 -51.42  0.002343672    2.588    0.614
        44 -10.4299    205.2489     54.0048   7.5357975244e+01   2.6820204572e+01    0.2253209    0.2070275 -73.37 0.0008099867    1.064    0.060
        45 -13.3316    195.3190     52.6774   7.6491707578e+01   2.9510005298e+01    0.9563669    0.7256959  44.31  0.004799898    1.409    0.290
        46 -11.3939    203.0389     50.1737   7.4621854016e+01   2.7919582641e+01    0.2367483    0.2110807 -48.98 0.0003317793    1.086    0.079
        47 -10.5524    124.1504     54.0816   9.1351498873e+01   4.6972349724e+01    0.2811451    0.2020744  87.65  0.001234384    2.150    0.535
        48  -9.8381    213.2279     53.2680   7.4016486765e+01   2.4947953051e+01    0.1855307    0.1459334 -60.38 0.0002423474    1.281    0.219
        49 -10.4103    208.1518     49.8236   7.3793203037e+01   2.6690065390e+01    0.2298365    0.1822912 -49.00 0.0003019794    1.217    0.179
        50 -13.7638    206.8437     42.6794   7.2018014180e+01   2.7994993956e+01    0.5762993    0.4405081  45.41   0.00229201    1.432    0.302
        51 -13.4409    202.1684     34.3428   7.0337914594e+01   3.0256178074e+01    0.6219766    0.4739559 -31.30  0.003297177    1.340    0.254
        52 -10.3282    176.3086     39.2676   7.5579555277e+01   3.6242740431e+01    0.1910378    0.1545225 -60.94 0.0003314064    1.309    0.236
        53 -12.0130    213.5750     47.5988   7.2448059479e+01   2.5654457972e+01    0.3037152    0.2292287 -77.38 0.0005239737    1.429    0.300
        54 -11.2375    218.1119     42.9821   7.0633559296e+01   2.5164346012e+01    0.4048769      0.21932 -54.82 0.0009493203    1.986    0.497
        55  -9.9802    212.5153     36.6964   6.9660554849e+01   2.7364591971e+01    0.5061204    0.1882796 -55.86  0.001557056    4.100    0.756
        56  -9.5532    165.9701     39.7677   7.7504086428e+01   3.8835795817e+01    0.1872976     0.177745  67.67 0.0002930606    1.020    0.019
        57 -11.4473    176.6277     45.7841   7.7515031571e+01   3.5270510555e+01    0.6189524    0.2733686 -25.05  0.002282906    2.571    0.611
        58 -12.9608     78.5035    157.8109   1.2962612306e+02   3.3234589361e+01     1.239092    0.9458503 -71.89  0.007071588    1.220    0.180
        59 -10.5392    167.7881     28.7482   7.3698071235e+01   3.9772859155e+01    0.3161757    0.1882352 -33.04  0.001040049    1.710    0.415
        60 -10.4506    213.0690     28.1513   6.7312918456e+01   2.8289513374e+01    0.4779807    0.2587329 -87.49  0.002025675    2.299    0.565
        61 -10.9332    133.4779    144.2349   1.1393016665e+02   2.6751230608e+01     1.019077    0.2142229 -54.15  0.002010833    8.942    0.888
        62 -10.0109    178.9525     26.5844   7.1303250107e+01   3.7149498571e+01    0.1865823    0.1552461  66.81  0.000197374    1.137    0.121
        63 -11.6775     93.8584     24.3111   8.8350409359e+01   5.7913997006e+01    0.2314331    0.1765083 -34.71 0.0006860826    1.387    0.279
        64 -12.4751    101.6174     22.0013   8.5207732144e+01   5.6574926691e+01    0.3787028    0.2281782  19.60  0.001757569    2.010    0.502
        65 -12.5521     67.8991    144.5062   1.3017862754e+02   3.7752764704e+01    0.6446891    0.3635211  63.83  0.002438799    2.129    0.530
        66 -10.1639     58.4177     13.2159   9.5241200445e+01   6.5806747234e+01    0.1693978    0.1053152 -36.77 0.0009468612    1.683    0.406
        67 -14.0278     66.1610    167.4002   1.3383240434e+02   3.2820657861e+01    0.7854981     0.572968  66.59  0.001721993    1.280    0.219
        68 -13.8482     55.6243    179.0595   1.3752733190e+02   3.1645501973e+01    0.5444638     0.493278  69.24  0.001487745    1.205    0.170
        69 -14.3291     61.8778    173.2652   1.3551396133e+02   3.2100243128e+01     1.025198    0.7944103  51.03  0.002673417    1.269    0.212
        70 -10.2134      8.6812    170.3121   1.4659699383e+02   3.8405101527e+01    0.1187804   0.06363609  69.08 0.0004768283    1.646    0.392
        71 -11.5088    230.4474    166.9671   9.8783560092e+01   3.0449956166e+00    0.2679221    0.2207586 -52.71  0.001284456    1.577    0.366
        72 -14.4372      9.3129    212.0833   1.4899675423e+02   3.0008498152e+01     1.291695    0.7416424  79.15  0.007309973    1.329    0.247
        73 -10.3088    149.6534    141.3264   1.0952750622e+02   2.4076401436e+01    0.1555204    0.1184158  85.40     0.000705    1.749    0.428
